LabVIEW Measurement	
Writer_Version	2
Reader_Version	2
Separator	Tab
Decimal_Separator	.
Multi_Headings	No
X_Columns	One
Time_Pref	Absolute
Operator	biomech-dyno
Date	2023/05/23
Time	16:26:31.1792034999998606061
***End_of_Header***	
	
Channels	1	
Samples	10	
Date	2023/05/23	
Time	16:29:19.5903978999996476921	
X_Dimension	Time	
X0	0.0000000000000000E+0	
Delta_X	0.010000	
***End_of_Header***		
X_Value	Untitled	Comment
0.000000	24.321823
0.010000	24.321823
0.020000	24.321823
0.030000	24.321823
0.040000	24.321823
0.050000	24.321823
0.060000	24.321823
0.070000	24.321823
0.080000	24.321823
0.090000	24.321823
0.100000	24.321823
0.110000	24.321823
0.120000	24.321823
0.130000	24.321823
0.140000	24.321823
0.150000	24.321823
0.160000	24.321823
0.170000	24.321823
0.180000	24.321823
0.190000	24.321823
0.200000	24.321823
0.210000	24.321823
0.220000	24.321823
0.230000	24.321823
0.240000	24.321823
0.250000	24.321823
0.260000	24.321823
0.270000	24.321823
0.280000	24.321823
0.290000	24.321823
0.300000	24.321823
0.310000	24.321823
0.320000	24.321823
0.330000	24.321823
0.340000	24.321823
0.350000	24.321823
0.360000	24.321823
0.370000	24.321823
0.380000	24.321823
0.390000	24.321823
0.400000	24.321823
0.410000	24.321823
0.420000	24.321823
0.430000	24.321823
0.440000	24.321823
0.450000	24.321823
0.460000	24.321823
0.470000	24.321823
0.480000	24.321823
0.490000	24.321823
0.500000	24.325813
0.510000	24.325813
0.520000	24.325813
0.530000	24.325813
0.540000	24.325813
0.550000	24.325813
0.560000	24.325813
0.570000	24.325813
0.580000	24.325813
0.590000	24.325813
0.600000	24.325813
0.610000	24.325813
0.620000	24.325813
0.630000	24.325813
0.640000	24.325813
0.650000	24.325813
0.660000	24.325813
0.670000	24.325813
0.680000	24.325813
0.690000	24.325813
0.700000	24.325813
0.710000	24.325813
0.720000	24.325813
0.730000	24.325813
0.740000	24.325813
0.750000	24.325813
0.760000	24.325813
0.770000	24.325813
0.780000	24.325813
0.790000	24.325813
0.800000	24.325813
0.810000	24.325813
0.820000	24.325813
0.830000	24.325813
0.840000	24.325813
0.850000	24.325813
0.860000	24.325813
0.870000	24.325813
0.880000	24.325813
0.890000	24.325813
0.900000	24.325813
0.910000	24.325813
0.920000	24.325813
0.930000	24.325813
0.940000	24.325813
0.950000	24.325813
0.960000	24.325813
0.970000	24.325813
0.980000	24.325813
0.990000	24.325813
1.000000	24.377267
1.010000	24.377267
1.020000	24.377267
1.030000	24.377267
1.040000	24.377267
1.050000	24.377267
1.060000	24.377267
1.070000	24.377267
1.080000	24.377267
1.090000	24.377267
1.100000	24.377267
1.110000	24.377267
1.120000	24.377267
1.130000	24.377267
1.140000	24.377267
1.150000	24.377267
1.160000	24.377267
1.170000	24.377267
1.180000	24.377267
1.190000	24.377267
1.200000	24.377267
1.210000	24.377267
1.220000	24.377267
1.230000	24.377267
1.240000	24.377267
1.250000	24.377267
1.260000	24.377267
1.270000	24.377267
1.280000	24.377267
1.290000	24.377267
1.300000	24.377267
1.310000	24.377267
1.320000	24.377267
1.330000	24.377267
1.340000	24.377267
1.350000	24.377267
1.360000	24.377267
1.370000	24.377267
1.380000	24.377267
1.390000	24.377267
1.400000	24.377267
1.410000	24.377267
1.420000	24.377267
1.430000	24.377267
1.440000	24.377267
1.450000	24.377267
1.460000	24.377267
1.470000	24.377267
1.480000	24.377267
1.490000	24.377267
1.500000	24.504053
1.510000	24.504053
1.520000	24.504053
1.530000	24.504053
1.540000	24.504053
1.550000	24.504053
1.560000	24.504053
1.570000	24.504053
1.580000	24.504053
1.590000	24.504053
1.600000	24.504053
1.610000	24.504053
1.620000	24.504053
1.630000	24.504053
1.640000	24.504053
1.650000	24.504053
1.660000	24.504053
1.670000	24.504053
1.680000	24.504053
1.690000	24.504053
1.700000	24.504053
1.710000	24.504053
1.720000	24.504053
1.730000	24.504053
1.740000	24.504053
1.750000	24.504053
1.760000	24.504053
1.770000	24.504053
1.780000	24.504053
1.790000	24.504053
1.800000	24.504053
1.810000	24.504053
1.820000	24.504053
1.830000	24.504053
1.840000	24.504053
1.850000	24.504053
1.860000	24.504053
1.870000	24.504053
1.880000	24.504053
1.890000	24.504053
1.900000	24.504053
1.910000	24.504053
1.920000	24.504053
1.930000	24.504053
1.940000	24.504053
1.950000	24.504053
1.960000	24.504053
1.970000	24.504053
1.980000	24.504053
1.990000	24.504053
2.000000	24.689968
2.010000	24.689968
2.020000	24.689968
2.030000	24.689968
2.040000	24.689968
2.050000	24.689968
2.060000	24.689968
2.070000	24.689968
2.080000	24.689968
2.090000	24.689968
2.100000	24.689968
2.110000	24.689968
2.120000	24.689968
2.130000	24.689968
2.140000	24.689968
2.150000	24.689968
2.160000	24.689968
2.170000	24.689968
2.180000	24.689968
2.190000	24.689968
2.200000	24.689968
2.210000	24.689968
2.220000	24.689968
2.230000	24.689968
2.240000	24.689968
2.250000	24.689968
2.260000	24.689968
2.270000	24.689968
2.280000	24.689968
2.290000	24.689968
2.300000	24.689968
2.310000	24.689968
2.320000	24.689968
2.330000	24.689968
2.340000	24.689968
2.350000	24.689968
2.360000	24.689968
2.370000	24.689968
2.380000	24.689968
2.390000	24.689968
2.400000	24.689968
2.410000	24.689968
2.420000	24.689968
2.430000	24.689968
2.440000	24.689968
2.450000	24.689968
2.460000	24.689968
2.470000	24.689968
2.480000	24.689968
2.490000	24.689968
2.500000	24.917218
2.510000	24.917218
2.520000	24.917218
2.530000	24.917218
2.540000	24.917218
2.550000	24.917218
2.560000	24.917218
2.570000	24.917218
2.580000	24.917218
2.590000	24.917218
2.600000	24.917218
2.610000	24.917218
2.620000	24.917218
2.630000	24.917218
2.640000	24.917218
2.650000	24.917218
2.660000	24.917218
2.670000	24.917218
2.680000	24.917218
2.690000	24.917218
2.700000	24.917218
2.710000	24.917218
2.720000	24.917218
2.730000	24.917218
2.740000	24.917218
2.750000	24.917218
2.760000	24.917218
2.770000	24.917218
2.780000	24.917218
2.790000	24.917218
2.800000	24.917218
2.810000	24.917218
2.820000	24.917218
2.830000	24.917218
2.840000	24.917218
2.850000	24.917218
2.860000	24.917218
2.870000	24.917218
2.880000	24.917218
2.890000	24.917218
2.900000	24.917218
2.910000	24.917218
2.920000	24.917218
2.930000	24.917218
2.940000	24.917218
2.950000	24.917218
2.960000	24.917218
2.970000	24.917218
2.980000	24.917218
2.990000	24.917218
3.000000	25.171773
3.010000	25.171773
3.020000	25.171773
3.030000	25.171773
3.040000	25.171773
3.050000	25.171773
3.060000	25.171773
3.070000	25.171773
3.080000	25.171773
3.090000	25.171773
3.100000	25.171773
3.110000	25.171773
3.120000	25.171773
3.130000	25.171773
3.140000	25.171773
3.150000	25.171773
3.160000	25.171773
3.170000	25.171773
3.180000	25.171773
3.190000	25.171773
3.200000	25.171773
3.210000	25.171773
3.220000	25.171773
3.230000	25.171773
3.240000	25.171773
3.250000	25.171773
3.260000	25.171773
3.270000	25.171773
3.280000	25.171773
3.290000	25.171773
3.300000	25.171773
3.310000	25.171773
3.320000	25.171773
3.330000	25.171773
3.340000	25.171773
3.350000	25.171773
3.360000	25.171773
3.370000	25.171773
3.380000	25.171773
3.390000	25.171773
3.400000	25.171773
3.410000	25.171773
3.420000	25.171773
3.430000	25.171773
3.440000	25.171773
3.450000	25.171773
3.460000	25.171773
3.470000	25.171773
3.480000	25.171773
3.490000	25.171773
3.500000	25.430983
3.510000	25.430983
3.520000	25.430983
3.530000	25.430983
3.540000	25.430983
3.550000	25.430983
3.560000	25.430983
3.570000	25.430983
3.580000	25.430983
3.590000	25.430983
3.600000	25.430983
3.610000	25.430983
3.620000	25.430983
3.630000	25.430983
3.640000	25.430983
3.650000	25.430983
3.660000	25.430983
3.670000	25.430983
3.680000	25.430983
3.690000	25.430983
3.700000	25.430983
3.710000	25.430983
3.720000	25.430983
3.730000	25.430983
3.740000	25.430983
3.750000	25.430983
3.760000	25.430983
3.770000	25.430983
3.780000	25.430983
3.790000	25.430983
3.800000	25.430983
3.810000	25.430983
3.820000	25.430983
3.830000	25.430983
3.840000	25.430983
3.850000	25.430983
3.860000	25.430983
3.870000	25.430983
3.880000	25.430983
3.890000	25.430983
3.900000	25.430983
3.910000	25.430983
3.920000	25.430983
3.930000	25.430983
3.940000	25.430983
3.950000	25.430983
3.960000	25.430983
3.970000	25.430983
3.980000	25.430983
3.990000	25.430983
4.000000	25.652726
4.010000	25.652726
4.020000	25.652726
4.030000	25.652726
4.040000	25.652726
4.050000	25.652726
4.060000	25.652726
4.070000	25.652726
4.080000	25.652726
4.090000	25.652726
4.100000	25.652726
4.110000	25.652726
4.120000	25.652726
4.130000	25.652726
4.140000	25.652726
4.150000	25.652726
4.160000	25.652726
4.170000	25.652726
4.180000	25.652726
4.190000	25.652726
4.200000	25.652726
4.210000	25.652726
4.220000	25.652726
4.230000	25.652726
4.240000	25.652726
4.250000	25.652726
4.260000	25.652726
4.270000	25.652726
4.280000	25.652726
4.290000	25.652726
4.300000	25.652726
4.310000	25.652726
4.320000	25.652726
4.330000	25.652726
4.340000	25.652726
4.350000	25.652726
4.360000	25.652726
4.370000	25.652726
4.380000	25.652726
4.390000	25.652726
4.400000	25.652726
4.410000	25.652726
4.420000	25.652726
4.430000	25.652726
4.440000	25.652726
4.450000	25.652726
4.460000	25.652726
4.470000	25.652726
4.480000	25.652726
4.490000	25.652726
4.500000	25.823158
4.510000	25.823158
4.520000	25.823158
4.530000	25.823158
4.540000	25.823158
4.550000	25.823158
4.560000	25.823158
4.570000	25.823158
4.580000	25.823158
4.590000	25.823158
4.600000	25.823158
4.610000	25.823158
4.620000	25.823158
4.630000	25.823158
4.640000	25.823158
4.650000	25.823158
4.660000	25.823158
4.670000	25.823158
4.680000	25.823158
4.690000	25.823158
4.700000	25.823158
4.710000	25.823158
4.720000	25.823158
4.730000	25.823158
4.740000	25.823158
4.750000	25.823158
4.760000	25.823158
4.770000	25.823158
4.780000	25.823158
4.790000	25.823158
4.800000	25.823158
4.810000	25.823158
4.820000	25.823158
4.830000	25.823158
4.840000	25.823158
4.850000	25.823158
4.860000	25.823158
4.870000	25.823158
4.880000	25.823158
4.890000	25.823158
4.900000	25.823158
4.910000	25.823158
4.920000	25.823158
4.930000	25.823158
4.940000	25.823158
4.950000	25.823158
4.960000	25.823158
4.970000	25.823158
4.980000	25.823158
4.990000	25.823158
5.000000	25.947846
5.010000	25.947846
5.020000	25.947846
5.030000	25.947846
5.040000	25.947846
5.050000	25.947846
5.060000	25.947846
5.070000	25.947846
5.080000	25.947846
5.090000	25.947846
5.100000	25.947846
5.110000	25.947846
5.120000	25.947846
5.130000	25.947846
5.140000	25.947846
5.150000	25.947846
5.160000	25.947846
5.170000	25.947846
5.180000	25.947846
5.190000	25.947846
5.200000	25.947846
5.210000	25.947846
5.220000	25.947846
5.230000	25.947846
5.240000	25.947846
5.250000	25.947846
5.260000	25.947846
5.270000	25.947846
5.280000	25.947846
5.290000	25.947846
5.300000	25.947846
5.310000	25.947846
5.320000	25.947846
5.330000	25.947846
5.340000	25.947846
5.350000	25.947846
5.360000	25.947846
5.370000	25.947846
5.380000	25.947846
5.390000	25.947846
5.400000	25.947846
5.410000	25.947846
5.420000	25.947846
5.430000	25.947846
5.440000	25.947846
5.450000	25.947846
5.460000	25.947846
5.470000	25.947846
5.480000	25.947846
5.490000	25.947846
5.500000	26.035722
5.510000	26.035722
5.520000	26.035722
5.530000	26.035722
5.540000	26.035722
5.550000	26.035722
5.560000	26.035722
5.570000	26.035722
5.580000	26.035722
5.590000	26.035722
5.600000	26.035722
5.610000	26.035722
5.620000	26.035722
5.630000	26.035722
5.640000	26.035722
5.650000	26.035722
5.660000	26.035722
5.670000	26.035722
5.680000	26.035722
5.690000	26.035722
5.700000	26.035722
5.710000	26.035722
5.720000	26.035722
5.730000	26.035722
5.740000	26.035722
5.750000	26.035722
5.760000	26.035722
5.770000	26.035722
5.780000	26.035722
5.790000	26.035722
5.800000	26.035722
5.810000	26.035722
5.820000	26.035722
5.830000	26.035722
5.840000	26.035722
5.850000	26.035722
5.860000	26.035722
5.870000	26.035722
5.880000	26.035722
5.890000	26.035722
5.900000	26.035722
5.910000	26.035722
5.920000	26.035722
5.930000	26.035722
5.940000	26.035722
5.950000	26.035722
5.960000	26.035722
5.970000	26.035722
5.980000	26.035722
5.990000	26.035722
6.000000	26.093504
6.010000	26.093504
6.020000	26.093504
6.030000	26.093504
6.040000	26.093504
6.050000	26.093504
6.060000	26.093504
6.070000	26.093504
6.080000	26.093504
6.090000	26.093504
6.100000	26.093504
6.110000	26.093504
6.120000	26.093504
6.130000	26.093504
6.140000	26.093504
6.150000	26.093504
6.160000	26.093504
6.170000	26.093504
6.180000	26.093504
6.190000	26.093504
6.200000	26.093504
6.210000	26.093504
6.220000	26.093504
6.230000	26.093504
6.240000	26.093504
6.250000	26.093504
6.260000	26.093504
6.270000	26.093504
6.280000	26.093504
6.290000	26.093504
6.300000	26.093504
6.310000	26.093504
6.320000	26.093504
6.330000	26.093504
6.340000	26.093504
6.350000	26.093504
6.360000	26.093504
6.370000	26.093504
6.380000	26.093504
6.390000	26.093504
6.400000	26.093504
6.410000	26.093504
6.420000	26.093504
6.430000	26.093504
6.440000	26.093504
6.450000	26.093504
6.460000	26.093504
6.470000	26.093504
6.480000	26.093504
6.490000	26.093504
6.500000	26.128655
6.510000	26.128655
6.520000	26.128655
6.530000	26.128655
6.540000	26.128655
6.550000	26.128655
6.560000	26.128655
6.570000	26.128655
6.580000	26.128655
6.590000	26.128655
6.600000	26.128655
6.610000	26.128655
6.620000	26.128655
6.630000	26.128655
6.640000	26.128655
6.650000	26.128655
6.660000	26.128655
6.670000	26.128655
6.680000	26.128655
6.690000	26.128655
6.700000	26.128655
6.710000	26.128655
6.720000	26.128655
6.730000	26.128655
6.740000	26.128655
6.750000	26.128655
6.760000	26.128655
6.770000	26.128655
6.780000	26.128655
6.790000	26.128655
6.800000	26.128655
6.810000	26.128655
6.820000	26.128655
6.830000	26.128655
6.840000	26.128655
6.850000	26.128655
6.860000	26.128655
6.870000	26.128655
6.880000	26.128655
6.890000	26.128655
6.900000	26.128655
6.910000	26.128655
6.920000	26.128655
6.930000	26.128655
6.940000	26.128655
6.950000	26.128655
6.960000	26.128655
6.970000	26.128655
6.980000	26.128655
6.990000	26.128655
7.000000	26.144983
7.010000	26.144983
7.020000	26.144983
7.030000	26.144983
7.040000	26.144983
7.050000	26.144983
7.060000	26.144983
7.070000	26.144983
7.080000	26.144983
7.090000	26.144983
7.100000	26.144983
7.110000	26.144983
7.120000	26.144983
7.130000	26.144983
7.140000	26.144983
7.150000	26.144983
7.160000	26.144983
7.170000	26.144983
7.180000	26.144983
7.190000	26.144983
7.200000	26.144983
7.210000	26.144983
7.220000	26.144983
7.230000	26.144983
7.240000	26.144983
7.250000	26.144983
7.260000	26.144983
7.270000	26.144983
7.280000	26.144983
7.290000	26.144983
7.300000	26.144983
7.310000	26.144983
7.320000	26.144983
7.330000	26.144983
7.340000	26.144983
7.350000	26.144983
7.360000	26.144983
7.370000	26.144983
7.380000	26.144983
7.390000	26.144983
7.400000	26.144983
7.410000	26.144983
7.420000	26.144983
7.430000	26.144983
7.440000	26.144983
7.450000	26.144983
7.460000	26.144983
7.470000	26.144983
7.480000	26.144983
7.490000	26.144983
7.500000	26.149938
7.510000	26.149938
7.520000	26.149938
7.530000	26.149938
7.540000	26.149938
7.550000	26.149938
7.560000	26.149938
7.570000	26.149938
7.580000	26.149938
7.590000	26.149938
7.600000	26.149938
7.610000	26.149938
7.620000	26.149938
7.630000	26.149938
7.640000	26.149938
7.650000	26.149938
7.660000	26.149938
7.670000	26.149938
7.680000	26.149938
7.690000	26.149938
7.700000	26.149938
7.710000	26.149938
7.720000	26.149938
7.730000	26.149938
7.740000	26.149938
7.750000	26.149938
7.760000	26.149938
7.770000	26.149938
7.780000	26.149938
7.790000	26.149938
7.800000	26.149938
7.810000	26.149938
7.820000	26.149938
7.830000	26.149938
7.840000	26.149938
7.850000	26.149938
7.860000	26.149938
7.870000	26.149938
7.880000	26.149938
7.890000	26.149938
7.900000	26.149938
7.910000	26.149938
7.920000	26.149938
7.930000	26.149938
7.940000	26.149938
7.950000	26.149938
7.960000	26.149938
7.970000	26.149938
7.980000	26.149938
7.990000	26.149938
8.000000	26.144351
8.010000	26.144351
8.020000	26.144351
8.030000	26.144351
8.040000	26.144351
8.050000	26.144351
8.060000	26.144351
8.070000	26.144351
8.080000	26.144351
8.090000	26.144351
8.100000	26.144351
8.110000	26.144351
8.120000	26.144351
8.130000	26.144351
8.140000	26.144351
8.150000	26.144351
8.160000	26.144351
8.170000	26.144351
8.180000	26.144351
8.190000	26.144351
8.200000	26.144351
8.210000	26.144351
8.220000	26.144351
8.230000	26.144351
8.240000	26.144351
8.250000	26.144351
8.260000	26.144351
8.270000	26.144351
8.280000	26.144351
8.290000	26.144351
8.300000	26.144351
8.310000	26.144351
8.320000	26.144351
8.330000	26.144351
8.340000	26.144351
8.350000	26.144351
8.360000	26.144351
8.370000	26.144351
8.380000	26.144351
8.390000	26.144351
8.400000	26.144351
8.410000	26.144351
8.420000	26.144351
8.430000	26.144351
8.440000	26.144351
8.450000	26.144351
8.460000	26.144351
8.470000	26.144351
8.480000	26.144351
8.490000	26.144351
8.500000	26.131943
8.510000	26.131943
8.520000	26.131943
8.530000	26.131943
8.540000	26.131943
8.550000	26.131943
8.560000	26.131943
8.570000	26.131943
8.580000	26.131943
8.590000	26.131943
8.600000	26.131943
8.610000	26.131943
8.620000	26.131943
8.630000	26.131943
8.640000	26.131943
8.650000	26.131943
8.660000	26.131943
8.670000	26.131943
8.680000	26.131943
8.690000	26.131943
8.700000	26.131943
8.710000	26.131943
8.720000	26.131943
8.730000	26.131943
8.740000	26.131943
8.750000	26.131943
8.760000	26.131943
8.770000	26.131943
8.780000	26.131943
8.790000	26.131943
8.800000	26.131943
8.810000	26.131943
8.820000	26.131943
8.830000	26.131943
8.840000	26.131943
8.850000	26.131943
8.860000	26.131943
8.870000	26.131943
8.880000	26.131943
8.890000	26.131943
8.900000	26.131943
8.910000	26.131943
8.920000	26.131943
8.930000	26.131943
8.940000	26.131943
8.950000	26.131943
8.960000	26.131943
8.970000	26.131943
8.980000	26.131943
8.990000	26.131943
9.000000	26.113756
9.010000	26.113756
9.020000	26.113756
9.030000	26.113756
9.040000	26.113756
9.050000	26.113756
9.060000	26.113756
9.070000	26.113756
9.080000	26.113756
9.090000	26.113756
9.100000	26.113756
9.110000	26.113756
9.120000	26.113756
9.130000	26.113756
9.140000	26.113756
9.150000	26.113756
9.160000	26.113756
9.170000	26.113756
9.180000	26.113756
9.190000	26.113756
9.200000	26.113756
9.210000	26.113756
9.220000	26.113756
9.230000	26.113756
9.240000	26.113756
9.250000	26.113756
9.260000	26.113756
9.270000	26.113756
9.280000	26.113756
9.290000	26.113756
9.300000	26.113756
9.310000	26.113756
9.320000	26.113756
9.330000	26.113756
9.340000	26.113756
9.350000	26.113756
9.360000	26.113756
9.370000	26.113756
9.380000	26.113756
9.390000	26.113756
9.400000	26.113756
9.410000	26.113756
9.420000	26.113756
9.430000	26.113756
9.440000	26.113756
9.450000	26.113756
9.460000	26.113756
9.470000	26.113756
9.480000	26.113756
9.490000	26.113756
9.500000	26.090627
9.510000	26.090627
9.520000	26.090627
9.530000	26.090627
9.540000	26.090627
9.550000	26.090627
9.560000	26.090627
9.570000	26.090627
9.580000	26.090627
9.590000	26.090627
9.600000	26.090627
9.610000	26.090627
9.620000	26.090627
9.630000	26.090627
9.640000	26.090627
9.650000	26.090627
9.660000	26.090627
9.670000	26.090627
9.680000	26.090627
9.690000	26.090627
9.700000	26.090627
9.710000	26.090627
9.720000	26.090627
9.730000	26.090627
9.740000	26.090627
9.750000	26.090627
9.760000	26.090627
9.770000	26.090627
9.780000	26.090627
9.790000	26.090627
9.800000	26.090627
9.810000	26.090627
9.820000	26.090627
9.830000	26.090627
9.840000	26.090627
9.850000	26.090627
9.860000	26.090627
9.870000	26.090627
9.880000	26.090627
9.890000	26.090627
9.900000	26.090627
9.910000	26.090627
9.920000	26.090627
9.930000	26.090627
9.940000	26.090627
9.950000	26.090627
9.960000	26.090627
9.970000	26.090627
9.980000	26.090627
9.990000	26.090627
10.000000	26.064786
10.010000	26.064786
10.020000	26.064786
10.030000	26.064786
10.040000	26.064786
10.050000	26.064786
10.060000	26.064786
10.070000	26.064786
10.080000	26.064786
10.090000	26.064786
10.100000	26.064786
10.110000	26.064786
10.120000	26.064786
10.130000	26.064786
10.140000	26.064786
10.150000	26.064786
10.160000	26.064786
10.170000	26.064786
10.180000	26.064786
10.190000	26.064786
10.200000	26.064786
10.210000	26.064786
10.220000	26.064786
10.230000	26.064786
10.240000	26.064786
10.250000	26.064786
10.260000	26.064786
10.270000	26.064786
10.280000	26.064786
10.290000	26.064786
10.300000	26.064786
10.310000	26.064786
10.320000	26.064786
10.330000	26.064786
10.340000	26.064786
10.350000	26.064786
10.360000	26.064786
10.370000	26.064786
10.380000	26.064786
10.390000	26.064786
10.400000	26.064786
10.410000	26.064786
10.420000	26.064786
10.430000	26.064786
10.440000	26.064786
10.450000	26.064786
10.460000	26.064786
10.470000	26.064786
10.480000	26.064786
10.490000	26.064786
10.500000	26.037158
10.510000	26.037158
10.520000	26.037158
10.530000	26.037158
10.540000	26.037158
10.550000	26.037158
10.560000	26.037158
10.570000	26.037158
10.580000	26.037158
10.590000	26.037158
10.600000	26.037158
10.610000	26.037158
10.620000	26.037158
10.630000	26.037158
10.640000	26.037158
10.650000	26.037158
10.660000	26.037158
10.670000	26.037158
10.680000	26.037158
10.690000	26.037158
10.700000	26.037158
10.710000	26.037158
10.720000	26.037158
10.730000	26.037158
10.740000	26.037158
10.750000	26.037158
10.760000	26.037158
10.770000	26.037158
10.780000	26.037158
10.790000	26.037158
10.800000	26.037158
10.810000	26.037158
10.820000	26.037158
10.830000	26.037158
10.840000	26.037158
10.850000	26.037158
10.860000	26.037158
10.870000	26.037158
10.880000	26.037158
10.890000	26.037158
10.900000	26.037158
10.910000	26.037158
10.920000	26.037158
10.930000	26.037158
10.940000	26.037158
10.950000	26.037158
10.960000	26.037158
10.970000	26.037158
10.980000	26.037158
10.990000	26.037158
11.000000	26.007673
11.010000	26.007673
11.020000	26.007673
11.030000	26.007673
11.040000	26.007673
11.050000	26.007673
11.060000	26.007673
11.070000	26.007673
11.080000	26.007673
11.090000	26.007673
11.100000	26.007673
11.110000	26.007673
11.120000	26.007673
11.130000	26.007673
11.140000	26.007673
11.150000	26.007673
11.160000	26.007673
11.170000	26.007673
11.180000	26.007673
11.190000	26.007673
11.200000	26.007673
11.210000	26.007673
11.220000	26.007673
11.230000	26.007673
11.240000	26.007673
11.250000	26.007673
11.260000	26.007673
11.270000	26.007673
11.280000	26.007673
11.290000	26.007673
11.300000	26.007673
11.310000	26.007673
11.320000	26.007673
11.330000	26.007673
11.340000	26.007673
11.350000	26.007673
11.360000	26.007673
11.370000	26.007673
11.380000	26.007673
11.390000	26.007673
11.400000	26.007673
11.410000	26.007673
11.420000	26.007673
11.430000	26.007673
11.440000	26.007673
11.450000	26.007673
11.460000	26.007673
11.470000	26.007673
11.480000	26.007673
11.490000	26.007673
11.500000	25.975844
11.510000	25.975844
11.520000	25.975844
11.530000	25.975844
11.540000	25.975844
11.550000	25.975844
11.560000	25.975844
11.570000	25.975844
11.580000	25.975844
11.590000	25.975844
11.600000	25.975844
11.610000	25.975844
11.620000	25.975844
11.630000	25.975844
11.640000	25.975844
11.650000	25.975844
11.660000	25.975844
11.670000	25.975844
11.680000	25.975844
11.690000	25.975844
11.700000	25.975844
11.710000	25.975844
11.720000	25.975844
11.730000	25.975844
11.740000	25.975844
11.750000	25.975844
11.760000	25.975844
11.770000	25.975844
11.780000	25.975844
11.790000	25.975844
11.800000	25.975844
11.810000	25.975844
11.820000	25.975844
11.830000	25.975844
11.840000	25.975844
11.850000	25.975844
11.860000	25.975844
11.870000	25.975844
11.880000	25.975844
11.890000	25.975844
11.900000	25.975844
11.910000	25.975844
11.920000	25.975844
11.930000	25.975844
11.940000	25.975844
11.950000	25.975844
11.960000	25.975844
11.970000	25.975844
11.980000	25.975844
11.990000	25.975844
12.000000	25.941813
12.010000	25.941813
12.020000	25.941813
12.030000	25.941813
12.040000	25.941813
12.050000	25.941813
12.060000	25.941813
12.070000	25.941813
12.080000	25.941813
12.090000	25.941813
12.100000	25.941813
12.110000	25.941813
12.120000	25.941813
12.130000	25.941813
12.140000	25.941813
12.150000	25.941813
12.160000	25.941813
12.170000	25.941813
12.180000	25.941813
12.190000	25.941813
12.200000	25.941813
12.210000	25.941813
12.220000	25.941813
12.230000	25.941813
12.240000	25.941813
12.250000	25.941813
12.260000	25.941813
12.270000	25.941813
12.280000	25.941813
12.290000	25.941813
12.300000	25.941813
12.310000	25.941813
12.320000	25.941813
12.330000	25.941813
12.340000	25.941813
12.350000	25.941813
12.360000	25.941813
12.370000	25.941813
12.380000	25.941813
12.390000	25.941813
12.400000	25.941813
12.410000	25.941813
12.420000	25.941813
12.430000	25.941813
12.440000	25.941813
12.450000	25.941813
12.460000	25.941813
12.470000	25.941813
12.480000	25.941813
12.490000	25.941813
12.500000	25.908266
12.510000	25.908266
12.520000	25.908266
12.530000	25.908266
12.540000	25.908266
12.550000	25.908266
12.560000	25.908266
12.570000	25.908266
12.580000	25.908266
12.590000	25.908266
12.600000	25.908266
12.610000	25.908266
12.620000	25.908266
12.630000	25.908266
12.640000	25.908266
12.650000	25.908266
12.660000	25.908266
12.670000	25.908266
12.680000	25.908266
12.690000	25.908266
12.700000	25.908266
12.710000	25.908266
12.720000	25.908266
12.730000	25.908266
12.740000	25.908266
12.750000	25.908266
12.760000	25.908266
12.770000	25.908266
12.780000	25.908266
12.790000	25.908266
12.800000	25.908266
12.810000	25.908266
12.820000	25.908266
12.830000	25.908266
12.840000	25.908266
12.850000	25.908266
12.860000	25.908266
12.870000	25.908266
12.880000	25.908266
12.890000	25.908266
12.900000	25.908266
12.910000	25.908266
12.920000	25.908266
12.930000	25.908266
12.940000	25.908266
12.950000	25.908266
12.960000	25.908266
12.970000	25.908266
12.980000	25.908266
12.990000	25.908266
13.000000	25.875433
13.010000	25.875433
13.020000	25.875433
13.030000	25.875433
13.040000	25.875433
13.050000	25.875433
13.060000	25.875433
13.070000	25.875433
13.080000	25.875433
13.090000	25.875433
13.100000	25.875433
13.110000	25.875433
13.120000	25.875433
13.130000	25.875433
13.140000	25.875433
13.150000	25.875433
13.160000	25.875433
13.170000	25.875433
13.180000	25.875433
13.190000	25.875433
13.200000	25.875433
13.210000	25.875433
13.220000	25.875433
13.230000	25.875433
13.240000	25.875433
13.250000	25.875433
13.260000	25.875433
13.270000	25.875433
13.280000	25.875433
13.290000	25.875433
13.300000	25.875433
13.310000	25.875433
13.320000	25.875433
13.330000	25.875433
13.340000	25.875433
13.350000	25.875433
13.360000	25.875433
13.370000	25.875433
13.380000	25.875433
13.390000	25.875433
13.400000	25.875433
13.410000	25.875433
13.420000	25.875433
13.430000	25.875433
13.440000	25.875433
13.450000	25.875433
13.460000	25.875433
13.470000	25.875433
13.480000	25.875433
13.490000	25.875433
13.500000	25.843470
13.510000	25.843470
13.520000	25.843470
13.530000	25.843470
13.540000	25.843470
13.550000	25.843470
13.560000	25.843470
13.570000	25.843470
13.580000	25.843470
13.590000	25.843470
13.600000	25.843470
13.610000	25.843470
13.620000	25.843470
13.630000	25.843470
13.640000	25.843470
13.650000	25.843470
13.660000	25.843470
13.670000	25.843470
13.680000	25.843470
13.690000	25.843470
13.700000	25.843470
13.710000	25.843470
13.720000	25.843470
13.730000	25.843470
13.740000	25.843470
13.750000	25.843470
13.760000	25.843470
13.770000	25.843470
13.780000	25.843470
13.790000	25.843470
13.800000	25.843470
13.810000	25.843470
13.820000	25.843470
13.830000	25.843470
13.840000	25.843470
13.850000	25.843470
13.860000	25.843470
13.870000	25.843470
13.880000	25.843470
13.890000	25.843470
13.900000	25.843470
13.910000	25.843470
13.920000	25.843470
13.930000	25.843470
13.940000	25.843470
13.950000	25.843470
13.960000	25.843470
13.970000	25.843470
13.980000	25.843470
13.990000	25.843470
14.000000	25.811629
14.010000	25.811629
14.020000	25.811629
14.030000	25.811629
14.040000	25.811629
14.050000	25.811629
14.060000	25.811629
14.070000	25.811629
14.080000	25.811629
14.090000	25.811629
14.100000	25.811629
14.110000	25.811629
14.120000	25.811629
14.130000	25.811629
14.140000	25.811629
14.150000	25.811629
14.160000	25.811629
14.170000	25.811629
14.180000	25.811629
14.190000	25.811629
14.200000	25.811629
14.210000	25.811629
14.220000	25.811629
14.230000	25.811629
14.240000	25.811629
14.250000	25.811629
14.260000	25.811629
14.270000	25.811629
14.280000	25.811629
14.290000	25.811629
14.300000	25.811629
14.310000	25.811629
14.320000	25.811629
14.330000	25.811629
14.340000	25.811629
14.350000	25.811629
14.360000	25.811629
14.370000	25.811629
14.380000	25.811629
14.390000	25.811629
14.400000	25.811629
14.410000	25.811629
14.420000	25.811629
14.430000	25.811629
14.440000	25.811629
14.450000	25.811629
14.460000	25.811629
14.470000	25.811629
14.480000	25.811629
14.490000	25.811629
14.500000	25.781577
14.510000	25.781577
14.520000	25.781577
14.530000	25.781577
14.540000	25.781577
14.550000	25.781577
14.560000	25.781577
14.570000	25.781577
14.580000	25.781577
14.590000	25.781577
14.600000	25.781577
14.610000	25.781577
14.620000	25.781577
14.630000	25.781577
14.640000	25.781577
14.650000	25.781577
14.660000	25.781577
14.670000	25.781577
14.680000	25.781577
14.690000	25.781577
14.700000	25.781577
14.710000	25.781577
14.720000	25.781577
14.730000	25.781577
14.740000	25.781577
14.750000	25.781577
14.760000	25.781577
14.770000	25.781577
14.780000	25.781577
14.790000	25.781577
14.800000	25.781577
14.810000	25.781577
14.820000	25.781577
14.830000	25.781577
14.840000	25.781577
14.850000	25.781577
14.860000	25.781577
14.870000	25.781577
14.880000	25.781577
14.890000	25.781577
14.900000	25.781577
14.910000	25.781577
14.920000	25.781577
14.930000	25.781577
14.940000	25.781577
14.950000	25.781577
14.960000	25.781577
14.970000	25.781577
14.980000	25.781577
14.990000	25.781577
15.000000	25.751320
15.010000	25.751320
15.020000	25.751320
15.030000	25.751320
15.040000	25.751320
15.050000	25.751320
15.060000	25.751320
15.070000	25.751320
15.080000	25.751320
15.090000	25.751320
15.100000	25.751320
15.110000	25.751320
15.120000	25.751320
15.130000	25.751320
15.140000	25.751320
15.150000	25.751320
15.160000	25.751320
15.170000	25.751320
15.180000	25.751320
15.190000	25.751320
15.200000	25.751320
15.210000	25.751320
15.220000	25.751320
15.230000	25.751320
15.240000	25.751320
15.250000	25.751320
15.260000	25.751320
15.270000	25.751320
15.280000	25.751320
15.290000	25.751320
15.300000	25.751320
15.310000	25.751320
15.320000	25.751320
15.330000	25.751320
15.340000	25.751320
15.350000	25.751320
15.360000	25.751320
15.370000	25.751320
15.380000	25.751320
15.390000	25.751320
15.400000	25.751320
15.410000	25.751320
15.420000	25.751320
15.430000	25.751320
15.440000	25.751320
15.450000	25.751320
15.460000	25.751320
15.470000	25.751320
15.480000	25.751320
15.490000	25.751320
15.500000	25.720908
15.510000	25.720908
15.520000	25.720908
15.530000	25.720908
15.540000	25.720908
15.550000	25.720908
15.560000	25.720908
15.570000	25.720908
15.580000	25.720908
15.590000	25.720908
15.600000	25.720908
15.610000	25.720908
15.620000	25.720908
15.630000	25.720908
15.640000	25.720908
15.650000	25.720908
15.660000	25.720908
15.670000	25.720908
15.680000	25.720908
15.690000	25.720908
15.700000	25.720908
15.710000	25.720908
15.720000	25.720908
15.730000	25.720908
15.740000	25.720908
15.750000	25.720908
15.760000	25.720908
15.770000	25.720908
15.780000	25.720908
15.790000	25.720908
15.800000	25.720908
15.810000	25.720908
15.820000	25.720908
15.830000	25.720908
15.840000	25.720908
15.850000	25.720908
15.860000	25.720908
15.870000	25.720908
15.880000	25.720908
15.890000	25.720908
15.900000	25.720908
15.910000	25.720908
15.920000	25.720908
15.930000	25.720908
15.940000	25.720908
15.950000	25.720908
15.960000	25.720908
15.970000	25.720908
15.980000	25.720908
15.990000	25.720908
16.000000	25.691345
16.010000	25.691345
16.020000	25.691345
16.030000	25.691345
16.040000	25.691345
16.050000	25.691345
16.060000	25.691345
16.070000	25.691345
16.080000	25.691345
16.090000	25.691345
16.100000	25.691345
16.110000	25.691345
16.120000	25.691345
16.130000	25.691345
16.140000	25.691345
16.150000	25.691345
16.160000	25.691345
16.170000	25.691345
16.180000	25.691345
16.190000	25.691345
16.200000	25.691345
16.210000	25.691345
16.220000	25.691345
16.230000	25.691345
16.240000	25.691345
16.250000	25.691345
16.260000	25.691345
16.270000	25.691345
16.280000	25.691345
16.290000	25.691345
16.300000	25.691345
16.310000	25.691345
16.320000	25.691345
16.330000	25.691345
16.340000	25.691345
16.350000	25.691345
16.360000	25.691345
16.370000	25.691345
16.380000	25.691345
16.390000	25.691345
16.400000	25.691345
16.410000	25.691345
16.420000	25.691345
16.430000	25.691345
16.440000	25.691345
16.450000	25.691345
16.460000	25.691345
16.470000	25.691345
16.480000	25.691345
16.490000	25.691345
16.500000	25.663611
16.510000	25.663611
16.520000	25.663611
16.530000	25.663611
16.540000	25.663611
16.550000	25.663611
16.560000	25.663611
16.570000	25.663611
16.580000	25.663611
16.590000	25.663611
16.600000	25.663611
16.610000	25.663611
16.620000	25.663611
16.630000	25.663611
16.640000	25.663611
16.650000	25.663611
16.660000	25.663611
16.670000	25.663611
16.680000	25.663611
16.690000	25.663611
16.700000	25.663611
16.710000	25.663611
16.720000	25.663611
16.730000	25.663611
16.740000	25.663611
16.750000	25.663611
16.760000	25.663611
16.770000	25.663611
16.780000	25.663611
16.790000	25.663611
16.800000	25.663611
16.810000	25.663611
16.820000	25.663611
16.830000	25.663611
16.840000	25.663611
16.850000	25.663611
16.860000	25.663611
16.870000	25.663611
16.880000	25.663611
16.890000	25.663611
16.900000	25.663611
16.910000	25.663611
16.920000	25.663611
16.930000	25.663611
16.940000	25.663611
16.950000	25.663611
16.960000	25.663611
16.970000	25.663611
16.980000	25.663611
16.990000	25.663611
17.000000	25.636568
17.010000	25.636568
17.020000	25.636568
17.030000	25.636568
17.040000	25.636568
17.050000	25.636568
17.060000	25.636568
17.070000	25.636568
17.080000	25.636568
17.090000	25.636568
17.100000	25.636568
17.110000	25.636568
17.120000	25.636568
17.130000	25.636568
17.140000	25.636568
17.150000	25.636568
17.160000	25.636568
17.170000	25.636568
17.180000	25.636568
17.190000	25.636568
17.200000	25.636568
17.210000	25.636568
17.220000	25.636568
17.230000	25.636568
17.240000	25.636568
17.250000	25.636568
17.260000	25.636568
17.270000	25.636568
17.280000	25.636568
17.290000	25.636568
17.300000	25.636568
17.310000	25.636568
17.320000	25.636568
17.330000	25.636568
17.340000	25.636568
17.350000	25.636568
17.360000	25.636568
17.370000	25.636568
17.380000	25.636568
17.390000	25.636568
17.400000	25.636568
17.410000	25.636568
17.420000	25.636568
17.430000	25.636568
17.440000	25.636568
17.450000	25.636568
17.460000	25.636568
17.470000	25.636568
17.480000	25.636568
17.490000	25.636568
17.500000	25.609825
17.510000	25.609825
17.520000	25.609825
17.530000	25.609825
17.540000	25.609825
17.550000	25.609825
17.560000	25.609825
17.570000	25.609825
17.580000	25.609825
17.590000	25.609825
17.600000	25.609825
17.610000	25.609825
17.620000	25.609825
17.630000	25.609825
17.640000	25.609825
17.650000	25.609825
17.660000	25.609825
17.670000	25.609825
17.680000	25.609825
17.690000	25.609825
17.700000	25.609825
17.710000	25.609825
17.720000	25.609825
17.730000	25.609825
17.740000	25.609825
17.750000	25.609825
17.760000	25.609825
17.770000	25.609825
17.780000	25.609825
17.790000	25.609825
17.800000	25.609825
17.810000	25.609825
17.820000	25.609825
17.830000	25.609825
17.840000	25.609825
17.850000	25.609825
17.860000	25.609825
17.870000	25.609825
17.880000	25.609825
17.890000	25.609825
17.900000	25.609825
17.910000	25.609825
17.920000	25.609825
17.930000	25.609825
17.940000	25.609825
17.950000	25.609825
17.960000	25.609825
17.970000	25.609825
17.980000	25.609825
17.990000	25.609825
