LabVIEW Measurement	
Writer_Version	2
Reader_Version	2
Separator	Tab
Decimal_Separator	.
Multi_Headings	No
X_Columns	One
Time_Pref	Absolute
Operator	biomech-dyno
Date	2023/05/23
Time	16:26:31.1792034999998606061
***End_of_Header***	
	
Channels	1	
Samples	10	
Date	2023/05/23	
Time	16:28:45.9994208999999536965	
X_Dimension	Time	
X0	0.0000000000000000E+0	
Delta_X	0.010000	
***End_of_Header***		
X_Value	Untitled	Comment
0.000000	24.174282
0.010000	24.174282
0.020000	24.174282
0.030000	24.174282
0.040000	24.174282
0.050000	24.174282
0.060000	24.174282
0.070000	24.174282
0.080000	24.174282
0.090000	24.174282
0.100000	24.174282
0.110000	24.174282
0.120000	24.174282
0.130000	24.174282
0.140000	24.174282
0.150000	24.174282
0.160000	24.174282
0.170000	24.174282
0.180000	24.174282
0.190000	24.174282
0.200000	24.174282
0.210000	24.174282
0.220000	24.174282
0.230000	24.174282
0.240000	24.174282
0.250000	24.174282
0.260000	24.174282
0.270000	24.174282
0.280000	24.174282
0.290000	24.174282
0.300000	24.174282
0.310000	24.174282
0.320000	24.174282
0.330000	24.174282
0.340000	24.174282
0.350000	24.174282
0.360000	24.174282
0.370000	24.174282
0.380000	24.174282
0.390000	24.174282
0.400000	24.174282
0.410000	24.174282
0.420000	24.174282
0.430000	24.174282
0.440000	24.174282
0.450000	24.174282
0.460000	24.174282
0.470000	24.174282
0.480000	24.174282
0.490000	24.174282
0.500000	24.176985
0.510000	24.176985
0.520000	24.176985
0.530000	24.176985
0.540000	24.176985
0.550000	24.176985
0.560000	24.176985
0.570000	24.176985
0.580000	24.176985
0.590000	24.176985
0.600000	24.176985
0.610000	24.176985
0.620000	24.176985
0.630000	24.176985
0.640000	24.176985
0.650000	24.176985
0.660000	24.176985
0.670000	24.176985
0.680000	24.176985
0.690000	24.176985
0.700000	24.176985
0.710000	24.176985
0.720000	24.176985
0.730000	24.176985
0.740000	24.176985
0.750000	24.176985
0.760000	24.176985
0.770000	24.176985
0.780000	24.176985
0.790000	24.176985
0.800000	24.176985
0.810000	24.176985
0.820000	24.176985
0.830000	24.176985
0.840000	24.176985
0.850000	24.176985
0.860000	24.176985
0.870000	24.176985
0.880000	24.176985
0.890000	24.176985
0.900000	24.176985
0.910000	24.176985
0.920000	24.176985
0.930000	24.176985
0.940000	24.176985
0.950000	24.176985
0.960000	24.176985
0.970000	24.176985
0.980000	24.176985
0.990000	24.176985
1.000000	24.189930
1.010000	24.189930
1.020000	24.189930
1.030000	24.189930
1.040000	24.189930
1.050000	24.189930
1.060000	24.189930
1.070000	24.189930
1.080000	24.189930
1.090000	24.189930
1.100000	24.189930
1.110000	24.189930
1.120000	24.189930
1.130000	24.189930
1.140000	24.189930
1.150000	24.189930
1.160000	24.189930
1.170000	24.189930
1.180000	24.189930
1.190000	24.189930
1.200000	24.189930
1.210000	24.189930
1.220000	24.189930
1.230000	24.189930
1.240000	24.189930
1.250000	24.189930
1.260000	24.189930
1.270000	24.189930
1.280000	24.189930
1.290000	24.189930
1.300000	24.189930
1.310000	24.189930
1.320000	24.189930
1.330000	24.189930
1.340000	24.189930
1.350000	24.189930
1.360000	24.189930
1.370000	24.189930
1.380000	24.189930
1.390000	24.189930
1.400000	24.189930
1.410000	24.189930
1.420000	24.189930
1.430000	24.189930
1.440000	24.189930
1.450000	24.189930
1.460000	24.189930
1.470000	24.189930
1.480000	24.189930
1.490000	24.189930
1.500000	24.220623
1.510000	24.220623
1.520000	24.220623
1.530000	24.220623
1.540000	24.220623
1.550000	24.220623
1.560000	24.220623
1.570000	24.220623
1.580000	24.220623
1.590000	24.220623
1.600000	24.220623
1.610000	24.220623
1.620000	24.220623
1.630000	24.220623
1.640000	24.220623
1.650000	24.220623
1.660000	24.220623
1.670000	24.220623
1.680000	24.220623
1.690000	24.220623
1.700000	24.220623
1.710000	24.220623
1.720000	24.220623
1.730000	24.220623
1.740000	24.220623
1.750000	24.220623
1.760000	24.220623
1.770000	24.220623
1.780000	24.220623
1.790000	24.220623
1.800000	24.220623
1.810000	24.220623
1.820000	24.220623
1.830000	24.220623
1.840000	24.220623
1.850000	24.220623
1.860000	24.220623
1.870000	24.220623
1.880000	24.220623
1.890000	24.220623
1.900000	24.220623
1.910000	24.220623
1.920000	24.220623
1.930000	24.220623
1.940000	24.220623
1.950000	24.220623
1.960000	24.220623
1.970000	24.220623
1.980000	24.220623
1.990000	24.220623
2.000000	24.267961
2.010000	24.267961
2.020000	24.267961
2.030000	24.267961
2.040000	24.267961
2.050000	24.267961
2.060000	24.267961
2.070000	24.267961
2.080000	24.267961
2.090000	24.267961
2.100000	24.267961
2.110000	24.267961
2.120000	24.267961
2.130000	24.267961
2.140000	24.267961
2.150000	24.267961
2.160000	24.267961
2.170000	24.267961
2.180000	24.267961
2.190000	24.267961
2.200000	24.267961
2.210000	24.267961
2.220000	24.267961
2.230000	24.267961
2.240000	24.267961
2.250000	24.267961
2.260000	24.267961
2.270000	24.267961
2.280000	24.267961
2.290000	24.267961
2.300000	24.267961
2.310000	24.267961
2.320000	24.267961
2.330000	24.267961
2.340000	24.267961
2.350000	24.267961
2.360000	24.267961
2.370000	24.267961
2.380000	24.267961
2.390000	24.267961
2.400000	24.267961
2.410000	24.267961
2.420000	24.267961
2.430000	24.267961
2.440000	24.267961
2.450000	24.267961
2.460000	24.267961
2.470000	24.267961
2.480000	24.267961
2.490000	24.267961
2.500000	24.327449
2.510000	24.327449
2.520000	24.327449
2.530000	24.327449
2.540000	24.327449
2.550000	24.327449
2.560000	24.327449
2.570000	24.327449
2.580000	24.327449
2.590000	24.327449
2.600000	24.327449
2.610000	24.327449
2.620000	24.327449
2.630000	24.327449
2.640000	24.327449
2.650000	24.327449
2.660000	24.327449
2.670000	24.327449
2.680000	24.327449
2.690000	24.327449
2.700000	24.327449
2.710000	24.327449
2.720000	24.327449
2.730000	24.327449
2.740000	24.327449
2.750000	24.327449
2.760000	24.327449
2.770000	24.327449
2.780000	24.327449
2.790000	24.327449
2.800000	24.327449
2.810000	24.327449
2.820000	24.327449
2.830000	24.327449
2.840000	24.327449
2.850000	24.327449
2.860000	24.327449
2.870000	24.327449
2.880000	24.327449
2.890000	24.327449
2.900000	24.327449
2.910000	24.327449
2.920000	24.327449
2.930000	24.327449
2.940000	24.327449
2.950000	24.327449
2.960000	24.327449
2.970000	24.327449
2.980000	24.327449
2.990000	24.327449
3.000000	24.395652
3.010000	24.395652
3.020000	24.395652
3.030000	24.395652
3.040000	24.395652
3.050000	24.395652
3.060000	24.395652
3.070000	24.395652
3.080000	24.395652
3.090000	24.395652
3.100000	24.395652
3.110000	24.395652
3.120000	24.395652
3.130000	24.395652
3.140000	24.395652
3.150000	24.395652
3.160000	24.395652
3.170000	24.395652
3.180000	24.395652
3.190000	24.395652
3.200000	24.395652
3.210000	24.395652
3.220000	24.395652
3.230000	24.395652
3.240000	24.395652
3.250000	24.395652
3.260000	24.395652
3.270000	24.395652
3.280000	24.395652
3.290000	24.395652
3.300000	24.395652
3.310000	24.395652
3.320000	24.395652
3.330000	24.395652
3.340000	24.395652
3.350000	24.395652
3.360000	24.395652
3.370000	24.395652
3.380000	24.395652
3.390000	24.395652
3.400000	24.395652
3.410000	24.395652
3.420000	24.395652
3.430000	24.395652
3.440000	24.395652
3.450000	24.395652
3.460000	24.395652
3.470000	24.395652
3.480000	24.395652
3.490000	24.395652
3.500000	24.467080
3.510000	24.467080
3.520000	24.467080
3.530000	24.467080
3.540000	24.467080
3.550000	24.467080
3.560000	24.467080
3.570000	24.467080
3.580000	24.467080
3.590000	24.467080
3.600000	24.467080
3.610000	24.467080
3.620000	24.467080
3.630000	24.467080
3.640000	24.467080
3.650000	24.467080
3.660000	24.467080
3.670000	24.467080
3.680000	24.467080
3.690000	24.467080
3.700000	24.467080
3.710000	24.467080
3.720000	24.467080
3.730000	24.467080
3.740000	24.467080
3.750000	24.467080
3.760000	24.467080
3.770000	24.467080
3.780000	24.467080
3.790000	24.467080
3.800000	24.467080
3.810000	24.467080
3.820000	24.467080
3.830000	24.467080
3.840000	24.467080
3.850000	24.467080
3.860000	24.467080
3.870000	24.467080
3.880000	24.467080
3.890000	24.467080
3.900000	24.467080
3.910000	24.467080
3.920000	24.467080
3.930000	24.467080
3.940000	24.467080
3.950000	24.467080
3.960000	24.467080
3.970000	24.467080
3.980000	24.467080
3.990000	24.467080
4.000000	24.527808
4.010000	24.527808
4.020000	24.527808
4.030000	24.527808
4.040000	24.527808
4.050000	24.527808
4.060000	24.527808
4.070000	24.527808
4.080000	24.527808
4.090000	24.527808
4.100000	24.527808
4.110000	24.527808
4.120000	24.527808
4.130000	24.527808
4.140000	24.527808
4.150000	24.527808
4.160000	24.527808
4.170000	24.527808
4.180000	24.527808
4.190000	24.527808
4.200000	24.527808
4.210000	24.527808
4.220000	24.527808
4.230000	24.527808
4.240000	24.527808
4.250000	24.527808
4.260000	24.527808
4.270000	24.527808
4.280000	24.527808
4.290000	24.527808
4.300000	24.527808
4.310000	24.527808
4.320000	24.527808
4.330000	24.527808
4.340000	24.527808
4.350000	24.527808
4.360000	24.527808
4.370000	24.527808
4.380000	24.527808
4.390000	24.527808
4.400000	24.527808
4.410000	24.527808
4.420000	24.527808
4.430000	24.527808
4.440000	24.527808
4.450000	24.527808
4.460000	24.527808
4.470000	24.527808
4.480000	24.527808
4.490000	24.527808
4.500000	24.573707
4.510000	24.573707
4.520000	24.573707
4.530000	24.573707
4.540000	24.573707
4.550000	24.573707
4.560000	24.573707
4.570000	24.573707
4.580000	24.573707
4.590000	24.573707
4.600000	24.573707
4.610000	24.573707
4.620000	24.573707
4.630000	24.573707
4.640000	24.573707
4.650000	24.573707
4.660000	24.573707
4.670000	24.573707
4.680000	24.573707
4.690000	24.573707
4.700000	24.573707
4.710000	24.573707
4.720000	24.573707
4.730000	24.573707
4.740000	24.573707
4.750000	24.573707
4.760000	24.573707
4.770000	24.573707
4.780000	24.573707
4.790000	24.573707
4.800000	24.573707
4.810000	24.573707
4.820000	24.573707
4.830000	24.573707
4.840000	24.573707
4.850000	24.573707
4.860000	24.573707
4.870000	24.573707
4.880000	24.573707
4.890000	24.573707
4.900000	24.573707
4.910000	24.573707
4.920000	24.573707
4.930000	24.573707
4.940000	24.573707
4.950000	24.573707
4.960000	24.573707
4.970000	24.573707
4.980000	24.573707
4.990000	24.573707
5.000000	24.606952
5.010000	24.606952
5.020000	24.606952
5.030000	24.606952
5.040000	24.606952
5.050000	24.606952
5.060000	24.606952
5.070000	24.606952
5.080000	24.606952
5.090000	24.606952
5.100000	24.606952
5.110000	24.606952
5.120000	24.606952
5.130000	24.606952
5.140000	24.606952
5.150000	24.606952
5.160000	24.606952
5.170000	24.606952
5.180000	24.606952
5.190000	24.606952
5.200000	24.606952
5.210000	24.606952
5.220000	24.606952
5.230000	24.606952
5.240000	24.606952
5.250000	24.606952
5.260000	24.606952
5.270000	24.606952
5.280000	24.606952
5.290000	24.606952
5.300000	24.606952
5.310000	24.606952
5.320000	24.606952
5.330000	24.606952
5.340000	24.606952
5.350000	24.606952
5.360000	24.606952
5.370000	24.606952
5.380000	24.606952
5.390000	24.606952
5.400000	24.606952
5.410000	24.606952
5.420000	24.606952
5.430000	24.606952
5.440000	24.606952
5.450000	24.606952
5.460000	24.606952
5.470000	24.606952
5.480000	24.606952
5.490000	24.606952
5.500000	24.630082
5.510000	24.630082
5.520000	24.630082
5.530000	24.630082
5.540000	24.630082
5.550000	24.630082
5.560000	24.630082
5.570000	24.630082
5.580000	24.630082
5.590000	24.630082
5.600000	24.630082
5.610000	24.630082
5.620000	24.630082
5.630000	24.630082
5.640000	24.630082
5.650000	24.630082
5.660000	24.630082
5.670000	24.630082
5.680000	24.630082
5.690000	24.630082
5.700000	24.630082
5.710000	24.630082
5.720000	24.630082
5.730000	24.630082
5.740000	24.630082
5.750000	24.630082
5.760000	24.630082
5.770000	24.630082
5.780000	24.630082
5.790000	24.630082
5.800000	24.630082
5.810000	24.630082
5.820000	24.630082
5.830000	24.630082
5.840000	24.630082
5.850000	24.630082
5.860000	24.630082
5.870000	24.630082
5.880000	24.630082
5.890000	24.630082
5.900000	24.630082
5.910000	24.630082
5.920000	24.630082
5.930000	24.630082
5.940000	24.630082
5.950000	24.630082
5.960000	24.630082
5.970000	24.630082
5.980000	24.630082
5.990000	24.630082
6.000000	24.646527
6.010000	24.646527
6.020000	24.646527
6.030000	24.646527
6.040000	24.646527
6.050000	24.646527
6.060000	24.646527
6.070000	24.646527
6.080000	24.646527
6.090000	24.646527
6.100000	24.646527
6.110000	24.646527
6.120000	24.646527
6.130000	24.646527
6.140000	24.646527
6.150000	24.646527
6.160000	24.646527
6.170000	24.646527
6.180000	24.646527
6.190000	24.646527
6.200000	24.646527
6.210000	24.646527
6.220000	24.646527
6.230000	24.646527
6.240000	24.646527
6.250000	24.646527
6.260000	24.646527
6.270000	24.646527
6.280000	24.646527
6.290000	24.646527
6.300000	24.646527
6.310000	24.646527
6.320000	24.646527
6.330000	24.646527
6.340000	24.646527
6.350000	24.646527
6.360000	24.646527
6.370000	24.646527
6.380000	24.646527
6.390000	24.646527
6.400000	24.646527
6.410000	24.646527
6.420000	24.646527
6.430000	24.646527
6.440000	24.646527
6.450000	24.646527
6.460000	24.646527
6.470000	24.646527
6.480000	24.646527
6.490000	24.646527
6.500000	24.657276
6.510000	24.657276
6.520000	24.657276
6.530000	24.657276
6.540000	24.657276
6.550000	24.657276
6.560000	24.657276
6.570000	24.657276
6.580000	24.657276
6.590000	24.657276
6.600000	24.657276
6.610000	24.657276
6.620000	24.657276
6.630000	24.657276
6.640000	24.657276
6.650000	24.657276
6.660000	24.657276
6.670000	24.657276
6.680000	24.657276
6.690000	24.657276
6.700000	24.657276
6.710000	24.657276
6.720000	24.657276
6.730000	24.657276
6.740000	24.657276
6.750000	24.657276
6.760000	24.657276
6.770000	24.657276
6.780000	24.657276
6.790000	24.657276
6.800000	24.657276
6.810000	24.657276
6.820000	24.657276
6.830000	24.657276
6.840000	24.657276
6.850000	24.657276
6.860000	24.657276
6.870000	24.657276
6.880000	24.657276
6.890000	24.657276
6.900000	24.657276
6.910000	24.657276
6.920000	24.657276
6.930000	24.657276
6.940000	24.657276
6.950000	24.657276
6.960000	24.657276
6.970000	24.657276
6.980000	24.657276
6.990000	24.657276
7.000000	24.663991
7.010000	24.663991
7.020000	24.663991
7.030000	24.663991
7.040000	24.663991
7.050000	24.663991
7.060000	24.663991
7.070000	24.663991
7.080000	24.663991
7.090000	24.663991
7.100000	24.663991
7.110000	24.663991
7.120000	24.663991
7.130000	24.663991
7.140000	24.663991
7.150000	24.663991
7.160000	24.663991
7.170000	24.663991
7.180000	24.663991
7.190000	24.663991
7.200000	24.663991
7.210000	24.663991
7.220000	24.663991
7.230000	24.663991
7.240000	24.663991
7.250000	24.663991
7.260000	24.663991
7.270000	24.663991
7.280000	24.663991
7.290000	24.663991
7.300000	24.663991
7.310000	24.663991
7.320000	24.663991
7.330000	24.663991
7.340000	24.663991
7.350000	24.663991
7.360000	24.663991
7.370000	24.663991
7.380000	24.663991
7.390000	24.663991
7.400000	24.663991
7.410000	24.663991
7.420000	24.663991
7.430000	24.663991
7.440000	24.663991
7.450000	24.663991
7.460000	24.663991
7.470000	24.663991
7.480000	24.663991
7.490000	24.663991
7.500000	24.667961
7.510000	24.667961
7.520000	24.667961
7.530000	24.667961
7.540000	24.667961
7.550000	24.667961
7.560000	24.667961
7.570000	24.667961
7.580000	24.667961
7.590000	24.667961
7.600000	24.667961
7.610000	24.667961
7.620000	24.667961
7.630000	24.667961
7.640000	24.667961
7.650000	24.667961
7.660000	24.667961
7.670000	24.667961
7.680000	24.667961
7.690000	24.667961
7.700000	24.667961
7.710000	24.667961
7.720000	24.667961
7.730000	24.667961
7.740000	24.667961
7.750000	24.667961
7.760000	24.667961
7.770000	24.667961
7.780000	24.667961
7.790000	24.667961
7.800000	24.667961
7.810000	24.667961
7.820000	24.667961
7.830000	24.667961
7.840000	24.667961
7.850000	24.667961
7.860000	24.667961
7.870000	24.667961
7.880000	24.667961
7.890000	24.667961
7.900000	24.667961
7.910000	24.667961
7.920000	24.667961
7.930000	24.667961
7.940000	24.667961
7.950000	24.667961
7.960000	24.667961
7.970000	24.667961
7.980000	24.667961
7.990000	24.667961
8.000000	24.669499
8.010000	24.669499
8.020000	24.669499
8.030000	24.669499
8.040000	24.669499
8.050000	24.669499
8.060000	24.669499
8.070000	24.669499
8.080000	24.669499
8.090000	24.669499
8.100000	24.669499
8.110000	24.669499
8.120000	24.669499
8.130000	24.669499
8.140000	24.669499
8.150000	24.669499
8.160000	24.669499
8.170000	24.669499
8.180000	24.669499
8.190000	24.669499
8.200000	24.669499
8.210000	24.669499
8.220000	24.669499
8.230000	24.669499
8.240000	24.669499
8.250000	24.669499
8.260000	24.669499
8.270000	24.669499
8.280000	24.669499
8.290000	24.669499
8.300000	24.669499
8.310000	24.669499
8.320000	24.669499
8.330000	24.669499
8.340000	24.669499
8.350000	24.669499
8.360000	24.669499
8.370000	24.669499
8.380000	24.669499
8.390000	24.669499
8.400000	24.669499
8.410000	24.669499
8.420000	24.669499
8.430000	24.669499
8.440000	24.669499
8.450000	24.669499
8.460000	24.669499
8.470000	24.669499
8.480000	24.669499
8.490000	24.669499
8.500000	24.668430
8.510000	24.668430
8.520000	24.668430
8.530000	24.668430
8.540000	24.668430
8.550000	24.668430
8.560000	24.668430
8.570000	24.668430
8.580000	24.668430
8.590000	24.668430
8.600000	24.668430
8.610000	24.668430
8.620000	24.668430
8.630000	24.668430
8.640000	24.668430
8.650000	24.668430
8.660000	24.668430
8.670000	24.668430
8.680000	24.668430
8.690000	24.668430
8.700000	24.668430
8.710000	24.668430
8.720000	24.668430
8.730000	24.668430
8.740000	24.668430
8.750000	24.668430
8.760000	24.668430
8.770000	24.668430
8.780000	24.668430
8.790000	24.668430
8.800000	24.668430
8.810000	24.668430
8.820000	24.668430
8.830000	24.668430
8.840000	24.668430
8.850000	24.668430
8.860000	24.668430
8.870000	24.668430
8.880000	24.668430
8.890000	24.668430
8.900000	24.668430
8.910000	24.668430
8.920000	24.668430
8.930000	24.668430
8.940000	24.668430
8.950000	24.668430
8.960000	24.668430
8.970000	24.668430
8.980000	24.668430
8.990000	24.668430
9.000000	24.665920
9.010000	24.665920
9.020000	24.665920
9.030000	24.665920
9.040000	24.665920
9.050000	24.665920
9.060000	24.665920
9.070000	24.665920
9.080000	24.665920
9.090000	24.665920
9.100000	24.665920
9.110000	24.665920
9.120000	24.665920
9.130000	24.665920
9.140000	24.665920
9.150000	24.665920
9.160000	24.665920
9.170000	24.665920
9.180000	24.665920
9.190000	24.665920
9.200000	24.665920
9.210000	24.665920
9.220000	24.665920
9.230000	24.665920
9.240000	24.665920
9.250000	24.665920
9.260000	24.665920
9.270000	24.665920
9.280000	24.665920
9.290000	24.665920
9.300000	24.665920
9.310000	24.665920
9.320000	24.665920
9.330000	24.665920
9.340000	24.665920
9.350000	24.665920
9.360000	24.665920
9.370000	24.665920
9.380000	24.665920
9.390000	24.665920
9.400000	24.665920
9.410000	24.665920
9.420000	24.665920
9.430000	24.665920
9.440000	24.665920
9.450000	24.665920
9.460000	24.665920
9.470000	24.665920
9.480000	24.665920
9.490000	24.665920
9.500000	24.662575
9.510000	24.662575
9.520000	24.662575
9.530000	24.662575
9.540000	24.662575
9.550000	24.662575
9.560000	24.662575
9.570000	24.662575
9.580000	24.662575
9.590000	24.662575
9.600000	24.662575
9.610000	24.662575
9.620000	24.662575
9.630000	24.662575
9.640000	24.662575
9.650000	24.662575
9.660000	24.662575
9.670000	24.662575
9.680000	24.662575
9.690000	24.662575
9.700000	24.662575
9.710000	24.662575
9.720000	24.662575
9.730000	24.662575
9.740000	24.662575
9.750000	24.662575
9.760000	24.662575
9.770000	24.662575
9.780000	24.662575
9.790000	24.662575
9.800000	24.662575
9.810000	24.662575
9.820000	24.662575
9.830000	24.662575
9.840000	24.662575
9.850000	24.662575
9.860000	24.662575
9.870000	24.662575
9.880000	24.662575
9.890000	24.662575
9.900000	24.662575
9.910000	24.662575
9.920000	24.662575
9.930000	24.662575
9.940000	24.662575
9.950000	24.662575
9.960000	24.662575
9.970000	24.662575
9.980000	24.662575
9.990000	24.662575
10.000000	24.657632
10.010000	24.657632
10.020000	24.657632
10.030000	24.657632
10.040000	24.657632
10.050000	24.657632
10.060000	24.657632
10.070000	24.657632
10.080000	24.657632
10.090000	24.657632
10.100000	24.657632
10.110000	24.657632
10.120000	24.657632
10.130000	24.657632
10.140000	24.657632
10.150000	24.657632
10.160000	24.657632
10.170000	24.657632
10.180000	24.657632
10.190000	24.657632
10.200000	24.657632
10.210000	24.657632
10.220000	24.657632
10.230000	24.657632
10.240000	24.657632
10.250000	24.657632
10.260000	24.657632
10.270000	24.657632
10.280000	24.657632
10.290000	24.657632
10.300000	24.657632
10.310000	24.657632
10.320000	24.657632
10.330000	24.657632
10.340000	24.657632
10.350000	24.657632
10.360000	24.657632
10.370000	24.657632
10.380000	24.657632
10.390000	24.657632
10.400000	24.657632
10.410000	24.657632
10.420000	24.657632
10.430000	24.657632
10.440000	24.657632
10.450000	24.657632
10.460000	24.657632
10.470000	24.657632
10.480000	24.657632
10.490000	24.657632
10.500000	24.652184
10.510000	24.652184
10.520000	24.652184
10.530000	24.652184
10.540000	24.652184
10.550000	24.652184
10.560000	24.652184
10.570000	24.652184
10.580000	24.652184
10.590000	24.652184
10.600000	24.652184
10.610000	24.652184
10.620000	24.652184
10.630000	24.652184
10.640000	24.652184
10.650000	24.652184
10.660000	24.652184
10.670000	24.652184
10.680000	24.652184
10.690000	24.652184
10.700000	24.652184
10.710000	24.652184
10.720000	24.652184
10.730000	24.652184
10.740000	24.652184
10.750000	24.652184
10.760000	24.652184
10.770000	24.652184
10.780000	24.652184
10.790000	24.652184
10.800000	24.652184
10.810000	24.652184
10.820000	24.652184
10.830000	24.652184
10.840000	24.652184
10.850000	24.652184
10.860000	24.652184
10.870000	24.652184
10.880000	24.652184
10.890000	24.652184
10.900000	24.652184
10.910000	24.652184
10.920000	24.652184
10.930000	24.652184
10.940000	24.652184
10.950000	24.652184
10.960000	24.652184
10.970000	24.652184
10.980000	24.652184
10.990000	24.652184
11.000000	24.646379
11.010000	24.646379
11.020000	24.646379
11.030000	24.646379
11.040000	24.646379
11.050000	24.646379
11.060000	24.646379
11.070000	24.646379
11.080000	24.646379
11.090000	24.646379
11.100000	24.646379
11.110000	24.646379
11.120000	24.646379
11.130000	24.646379
11.140000	24.646379
11.150000	24.646379
11.160000	24.646379
11.170000	24.646379
11.180000	24.646379
11.190000	24.646379
11.200000	24.646379
11.210000	24.646379
11.220000	24.646379
11.230000	24.646379
11.240000	24.646379
11.250000	24.646379
11.260000	24.646379
11.270000	24.646379
11.280000	24.646379
11.290000	24.646379
11.300000	24.646379
11.310000	24.646379
11.320000	24.646379
11.330000	24.646379
11.340000	24.646379
11.350000	24.646379
11.360000	24.646379
11.370000	24.646379
11.380000	24.646379
11.390000	24.646379
11.400000	24.646379
11.410000	24.646379
11.420000	24.646379
11.430000	24.646379
11.440000	24.646379
11.450000	24.646379
11.460000	24.646379
11.470000	24.646379
11.480000	24.646379
11.490000	24.646379
11.500000	24.639844
11.510000	24.639844
11.520000	24.639844
11.530000	24.639844
11.540000	24.639844
11.550000	24.639844
11.560000	24.639844
11.570000	24.639844
11.580000	24.639844
11.590000	24.639844
11.600000	24.639844
11.610000	24.639844
11.620000	24.639844
11.630000	24.639844
11.640000	24.639844
11.650000	24.639844
11.660000	24.639844
11.670000	24.639844
11.680000	24.639844
11.690000	24.639844
11.700000	24.639844
11.710000	24.639844
11.720000	24.639844
11.730000	24.639844
11.740000	24.639844
11.750000	24.639844
11.760000	24.639844
11.770000	24.639844
11.780000	24.639844
11.790000	24.639844
11.800000	24.639844
11.810000	24.639844
11.820000	24.639844
11.830000	24.639844
11.840000	24.639844
11.850000	24.639844
11.860000	24.639844
11.870000	24.639844
11.880000	24.639844
11.890000	24.639844
11.900000	24.639844
11.910000	24.639844
11.920000	24.639844
11.930000	24.639844
11.940000	24.639844
11.950000	24.639844
11.960000	24.639844
11.970000	24.639844
11.980000	24.639844
11.990000	24.639844
12.000000	24.633055
12.010000	24.633055
12.020000	24.633055
12.030000	24.633055
12.040000	24.633055
12.050000	24.633055
12.060000	24.633055
12.070000	24.633055
12.080000	24.633055
12.090000	24.633055
12.100000	24.633055
12.110000	24.633055
12.120000	24.633055
12.130000	24.633055
12.140000	24.633055
12.150000	24.633055
12.160000	24.633055
12.170000	24.633055
12.180000	24.633055
12.190000	24.633055
12.200000	24.633055
12.210000	24.633055
12.220000	24.633055
12.230000	24.633055
12.240000	24.633055
12.250000	24.633055
12.260000	24.633055
12.270000	24.633055
12.280000	24.633055
12.290000	24.633055
12.300000	24.633055
12.310000	24.633055
12.320000	24.633055
12.330000	24.633055
12.340000	24.633055
12.350000	24.633055
12.360000	24.633055
12.370000	24.633055
12.380000	24.633055
12.390000	24.633055
12.400000	24.633055
12.410000	24.633055
12.420000	24.633055
12.430000	24.633055
12.440000	24.633055
12.450000	24.633055
12.460000	24.633055
12.470000	24.633055
12.480000	24.633055
12.490000	24.633055
12.500000	24.625570
12.510000	24.625570
12.520000	24.625570
12.530000	24.625570
12.540000	24.625570
12.550000	24.625570
12.560000	24.625570
12.570000	24.625570
12.580000	24.625570
12.590000	24.625570
12.600000	24.625570
12.610000	24.625570
12.620000	24.625570
12.630000	24.625570
12.640000	24.625570
12.650000	24.625570
12.660000	24.625570
12.670000	24.625570
12.680000	24.625570
12.690000	24.625570
12.700000	24.625570
12.710000	24.625570
12.720000	24.625570
12.730000	24.625570
12.740000	24.625570
12.750000	24.625570
12.760000	24.625570
12.770000	24.625570
12.780000	24.625570
12.790000	24.625570
12.800000	24.625570
12.810000	24.625570
12.820000	24.625570
12.830000	24.625570
12.840000	24.625570
12.850000	24.625570
12.860000	24.625570
12.870000	24.625570
12.880000	24.625570
12.890000	24.625570
12.900000	24.625570
12.910000	24.625570
12.920000	24.625570
12.930000	24.625570
12.940000	24.625570
12.950000	24.625570
12.960000	24.625570
12.970000	24.625570
12.980000	24.625570
12.990000	24.625570
13.000000	24.618727
13.010000	24.618727
13.020000	24.618727
13.030000	24.618727
13.040000	24.618727
13.050000	24.618727
13.060000	24.618727
13.070000	24.618727
13.080000	24.618727
13.090000	24.618727
13.100000	24.618727
13.110000	24.618727
13.120000	24.618727
13.130000	24.618727
13.140000	24.618727
13.150000	24.618727
13.160000	24.618727
13.170000	24.618727
13.180000	24.618727
13.190000	24.618727
13.200000	24.618727
13.210000	24.618727
13.220000	24.618727
13.230000	24.618727
13.240000	24.618727
13.250000	24.618727
13.260000	24.618727
13.270000	24.618727
13.280000	24.618727
13.290000	24.618727
13.300000	24.618727
13.310000	24.618727
13.320000	24.618727
13.330000	24.618727
13.340000	24.618727
13.350000	24.618727
13.360000	24.618727
13.370000	24.618727
13.380000	24.618727
13.390000	24.618727
13.400000	24.618727
13.410000	24.618727
13.420000	24.618727
13.430000	24.618727
13.440000	24.618727
13.450000	24.618727
13.460000	24.618727
13.470000	24.618727
13.480000	24.618727
13.490000	24.618727
13.500000	24.611762
13.510000	24.611762
13.520000	24.611762
13.530000	24.611762
13.540000	24.611762
13.550000	24.611762
13.560000	24.611762
13.570000	24.611762
13.580000	24.611762
13.590000	24.611762
13.600000	24.611762
13.610000	24.611762
13.620000	24.611762
13.630000	24.611762
13.640000	24.611762
13.650000	24.611762
13.660000	24.611762
13.670000	24.611762
13.680000	24.611762
13.690000	24.611762
13.700000	24.611762
13.710000	24.611762
13.720000	24.611762
13.730000	24.611762
13.740000	24.611762
13.750000	24.611762
13.760000	24.611762
13.770000	24.611762
13.780000	24.611762
13.790000	24.611762
13.800000	24.611762
13.810000	24.611762
13.820000	24.611762
13.830000	24.611762
13.840000	24.611762
13.850000	24.611762
13.860000	24.611762
13.870000	24.611762
13.880000	24.611762
13.890000	24.611762
13.900000	24.611762
13.910000	24.611762
13.920000	24.611762
13.930000	24.611762
13.940000	24.611762
13.950000	24.611762
13.960000	24.611762
13.970000	24.611762
13.980000	24.611762
13.990000	24.611762
14.000000	24.604473
14.010000	24.604473
14.020000	24.604473
14.030000	24.604473
14.040000	24.604473
14.050000	24.604473
14.060000	24.604473
14.070000	24.604473
14.080000	24.604473
14.090000	24.604473
14.100000	24.604473
14.110000	24.604473
14.120000	24.604473
14.130000	24.604473
14.140000	24.604473
14.150000	24.604473
14.160000	24.604473
14.170000	24.604473
14.180000	24.604473
14.190000	24.604473
14.200000	24.604473
14.210000	24.604473
14.220000	24.604473
14.230000	24.604473
14.240000	24.604473
14.250000	24.604473
14.260000	24.604473
14.270000	24.604473
14.280000	24.604473
14.290000	24.604473
14.300000	24.604473
14.310000	24.604473
14.320000	24.604473
14.330000	24.604473
14.340000	24.604473
14.350000	24.604473
14.360000	24.604473
14.370000	24.604473
14.380000	24.604473
14.390000	24.604473
14.400000	24.604473
14.410000	24.604473
14.420000	24.604473
14.430000	24.604473
14.440000	24.604473
14.450000	24.604473
14.460000	24.604473
14.470000	24.604473
14.480000	24.604473
14.490000	24.604473
14.500000	24.597332
14.510000	24.597332
14.520000	24.597332
14.530000	24.597332
14.540000	24.597332
14.550000	24.597332
14.560000	24.597332
14.570000	24.597332
14.580000	24.597332
14.590000	24.597332
14.600000	24.597332
14.610000	24.597332
14.620000	24.597332
14.630000	24.597332
14.640000	24.597332
14.650000	24.597332
14.660000	24.597332
14.670000	24.597332
14.680000	24.597332
14.690000	24.597332
14.700000	24.597332
14.710000	24.597332
14.720000	24.597332
14.730000	24.597332
14.740000	24.597332
14.750000	24.597332
14.760000	24.597332
14.770000	24.597332
14.780000	24.597332
14.790000	24.597332
14.800000	24.597332
14.810000	24.597332
14.820000	24.597332
14.830000	24.597332
14.840000	24.597332
14.850000	24.597332
14.860000	24.597332
14.870000	24.597332
14.880000	24.597332
14.890000	24.597332
14.900000	24.597332
14.910000	24.597332
14.920000	24.597332
14.930000	24.597332
14.940000	24.597332
14.950000	24.597332
14.960000	24.597332
14.970000	24.597332
14.980000	24.597332
14.990000	24.597332
15.000000	24.589719
15.010000	24.589719
15.020000	24.589719
15.030000	24.589719
15.040000	24.589719
15.050000	24.589719
15.060000	24.589719
15.070000	24.589719
15.080000	24.589719
15.090000	24.589719
15.100000	24.589719
15.110000	24.589719
15.120000	24.589719
15.130000	24.589719
15.140000	24.589719
15.150000	24.589719
15.160000	24.589719
15.170000	24.589719
15.180000	24.589719
15.190000	24.589719
15.200000	24.589719
15.210000	24.589719
15.220000	24.589719
15.230000	24.589719
15.240000	24.589719
15.250000	24.589719
15.260000	24.589719
15.270000	24.589719
15.280000	24.589719
15.290000	24.589719
15.300000	24.589719
15.310000	24.589719
15.320000	24.589719
15.330000	24.589719
15.340000	24.589719
15.350000	24.589719
15.360000	24.589719
15.370000	24.589719
15.380000	24.589719
15.390000	24.589719
15.400000	24.589719
15.410000	24.589719
15.420000	24.589719
15.430000	24.589719
15.440000	24.589719
15.450000	24.589719
15.460000	24.589719
15.470000	24.589719
15.480000	24.589719
15.490000	24.589719
15.500000	24.583158
15.510000	24.583158
15.520000	24.583158
15.530000	24.583158
15.540000	24.583158
15.550000	24.583158
15.560000	24.583158
15.570000	24.583158
15.580000	24.583158
15.590000	24.583158
15.600000	24.583158
15.610000	24.583158
15.620000	24.583158
15.630000	24.583158
15.640000	24.583158
15.650000	24.583158
15.660000	24.583158
15.670000	24.583158
15.680000	24.583158
15.690000	24.583158
15.700000	24.583158
15.710000	24.583158
15.720000	24.583158
15.730000	24.583158
15.740000	24.583158
15.750000	24.583158
15.760000	24.583158
15.770000	24.583158
15.780000	24.583158
15.790000	24.583158
15.800000	24.583158
15.810000	24.583158
15.820000	24.583158
15.830000	24.583158
15.840000	24.583158
15.850000	24.583158
15.860000	24.583158
15.870000	24.583158
15.880000	24.583158
15.890000	24.583158
15.900000	24.583158
15.910000	24.583158
15.920000	24.583158
15.930000	24.583158
15.940000	24.583158
15.950000	24.583158
15.960000	24.583158
15.970000	24.583158
15.980000	24.583158
15.990000	24.583158
16.000000	24.576135
16.010000	24.576135
16.020000	24.576135
16.030000	24.576135
16.040000	24.576135
16.050000	24.576135
16.060000	24.576135
16.070000	24.576135
16.080000	24.576135
16.090000	24.576135
16.100000	24.576135
16.110000	24.576135
16.120000	24.576135
16.130000	24.576135
16.140000	24.576135
16.150000	24.576135
16.160000	24.576135
16.170000	24.576135
16.180000	24.576135
16.190000	24.576135
16.200000	24.576135
16.210000	24.576135
16.220000	24.576135
16.230000	24.576135
16.240000	24.576135
16.250000	24.576135
16.260000	24.576135
16.270000	24.576135
16.280000	24.576135
16.290000	24.576135
16.300000	24.576135
16.310000	24.576135
16.320000	24.576135
16.330000	24.576135
16.340000	24.576135
16.350000	24.576135
16.360000	24.576135
16.370000	24.576135
16.380000	24.576135
16.390000	24.576135
16.400000	24.576135
16.410000	24.576135
16.420000	24.576135
16.430000	24.576135
16.440000	24.576135
16.450000	24.576135
16.460000	24.576135
16.470000	24.576135
16.480000	24.576135
16.490000	24.576135
16.500000	24.569468
16.510000	24.569468
16.520000	24.569468
16.530000	24.569468
16.540000	24.569468
16.550000	24.569468
16.560000	24.569468
16.570000	24.569468
16.580000	24.569468
16.590000	24.569468
16.600000	24.569468
16.610000	24.569468
16.620000	24.569468
16.630000	24.569468
16.640000	24.569468
16.650000	24.569468
16.660000	24.569468
16.670000	24.569468
16.680000	24.569468
16.690000	24.569468
16.700000	24.569468
16.710000	24.569468
16.720000	24.569468
16.730000	24.569468
16.740000	24.569468
16.750000	24.569468
16.760000	24.569468
16.770000	24.569468
16.780000	24.569468
16.790000	24.569468
16.800000	24.569468
16.810000	24.569468
16.820000	24.569468
16.830000	24.569468
16.840000	24.569468
16.850000	24.569468
16.860000	24.569468
16.870000	24.569468
16.880000	24.569468
16.890000	24.569468
16.900000	24.569468
16.910000	24.569468
16.920000	24.569468
16.930000	24.569468
16.940000	24.569468
16.950000	24.569468
16.960000	24.569468
16.970000	24.569468
16.980000	24.569468
16.990000	24.569468
17.000000	24.562617
17.010000	24.562617
17.020000	24.562617
17.030000	24.562617
17.040000	24.562617
17.050000	24.562617
17.060000	24.562617
17.070000	24.562617
17.080000	24.562617
17.090000	24.562617
17.100000	24.562617
17.110000	24.562617
17.120000	24.562617
17.130000	24.562617
17.140000	24.562617
17.150000	24.562617
17.160000	24.562617
17.170000	24.562617
17.180000	24.562617
17.190000	24.562617
17.200000	24.562617
17.210000	24.562617
17.220000	24.562617
17.230000	24.562617
17.240000	24.562617
17.250000	24.562617
17.260000	24.562617
17.270000	24.562617
17.280000	24.562617
17.290000	24.562617
17.300000	24.562617
17.310000	24.562617
17.320000	24.562617
17.330000	24.562617
17.340000	24.562617
17.350000	24.562617
17.360000	24.562617
17.370000	24.562617
17.380000	24.562617
17.390000	24.562617
17.400000	24.562617
17.410000	24.562617
17.420000	24.562617
17.430000	24.562617
17.440000	24.562617
17.450000	24.562617
17.460000	24.562617
17.470000	24.562617
17.480000	24.562617
17.490000	24.562617
17.500000	24.556610
17.510000	24.556610
17.520000	24.556610
17.530000	24.556610
17.540000	24.556610
17.550000	24.556610
17.560000	24.556610
17.570000	24.556610
17.580000	24.556610
17.590000	24.556610
17.600000	24.556610
17.610000	24.556610
17.620000	24.556610
17.630000	24.556610
17.640000	24.556610
17.650000	24.556610
17.660000	24.556610
17.670000	24.556610
17.680000	24.556610
17.690000	24.556610
17.700000	24.556610
17.710000	24.556610
17.720000	24.556610
17.730000	24.556610
17.740000	24.556610
17.750000	24.556610
17.760000	24.556610
17.770000	24.556610
17.780000	24.556610
17.790000	24.556610
17.800000	24.556610
17.810000	24.556610
17.820000	24.556610
17.830000	24.556610
17.840000	24.556610
17.850000	24.556610
17.860000	24.556610
17.870000	24.556610
17.880000	24.556610
17.890000	24.556610
17.900000	24.556610
17.910000	24.556610
17.920000	24.556610
17.930000	24.556610
17.940000	24.556610
17.950000	24.556610
17.960000	24.556610
17.970000	24.556610
17.980000	24.556610
17.990000	24.556610
