LabVIEW Measurement	
Writer_Version	2
Reader_Version	2
Separator	Tab
Decimal_Separator	.
Multi_Headings	No
X_Columns	One
Time_Pref	Absolute
Operator	biomech-dyno
Date	2023/05/24
Time	15:19:49.9492761999999796612
***End_of_Header***	
	
Channels	1	
Samples	10	
Date	2023/05/24	
Time	15:32:08.4008279999997458503	
X_Dimension	Time	
X0	0.0000000000000000E+0	
Delta_X	0.010000	
***End_of_Header***		
X_Value	Untitled	Comment
0.000000	24.807132
0.010000	24.807132
0.020000	24.807132
0.030000	24.807132
0.040000	24.807132
0.050000	24.807132
0.060000	24.807132
0.070000	24.807132
0.080000	24.807132
0.090000	24.807132
0.100000	24.807132
0.110000	24.807132
0.120000	24.807132
0.130000	24.807132
0.140000	24.807132
0.150000	24.807132
0.160000	24.807132
0.170000	24.807132
0.180000	24.807132
0.190000	24.807132
0.200000	24.807132
0.210000	24.807132
0.220000	24.807132
0.230000	24.807132
0.240000	24.807132
0.250000	24.807132
0.260000	24.807132
0.270000	24.807132
0.280000	24.807132
0.290000	24.807132
0.300000	24.807132
0.310000	24.807132
0.320000	24.807132
0.330000	24.807132
0.340000	24.807132
0.350000	24.807132
0.360000	24.807132
0.370000	24.807132
0.380000	24.807132
0.390000	24.807132
0.400000	24.807132
0.410000	24.807132
0.420000	24.807132
0.430000	24.807132
0.440000	24.807132
0.450000	24.807132
0.460000	24.807132
0.470000	24.807132
0.480000	24.807132
0.490000	24.807132
0.500000	24.816199
0.510000	24.816199
0.520000	24.816199
0.530000	24.816199
0.540000	24.816199
0.550000	24.816199
0.560000	24.816199
0.570000	24.816199
0.580000	24.816199
0.590000	24.816199
0.600000	24.816199
0.610000	24.816199
0.620000	24.816199
0.630000	24.816199
0.640000	24.816199
0.650000	24.816199
0.660000	24.816199
0.670000	24.816199
0.680000	24.816199
0.690000	24.816199
0.700000	24.816199
0.710000	24.816199
0.720000	24.816199
0.730000	24.816199
0.740000	24.816199
0.750000	24.816199
0.760000	24.816199
0.770000	24.816199
0.780000	24.816199
0.790000	24.816199
0.800000	24.816199
0.810000	24.816199
0.820000	24.816199
0.830000	24.816199
0.840000	24.816199
0.850000	24.816199
0.860000	24.816199
0.870000	24.816199
0.880000	24.816199
0.890000	24.816199
0.900000	24.816199
0.910000	24.816199
0.920000	24.816199
0.930000	24.816199
0.940000	24.816199
0.950000	24.816199
0.960000	24.816199
0.970000	24.816199
0.980000	24.816199
0.990000	24.816199
1.000000	24.824079
1.010000	24.824079
1.020000	24.824079
1.030000	24.824079
1.040000	24.824079
1.050000	24.824079
1.060000	24.824079
1.070000	24.824079
1.080000	24.824079
1.090000	24.824079
1.100000	24.824079
1.110000	24.824079
1.120000	24.824079
1.130000	24.824079
1.140000	24.824079
1.150000	24.824079
1.160000	24.824079
1.170000	24.824079
1.180000	24.824079
1.190000	24.824079
1.200000	24.824079
1.210000	24.824079
1.220000	24.824079
1.230000	24.824079
1.240000	24.824079
1.250000	24.824079
1.260000	24.824079
1.270000	24.824079
1.280000	24.824079
1.290000	24.824079
1.300000	24.824079
1.310000	24.824079
1.320000	24.824079
1.330000	24.824079
1.340000	24.824079
1.350000	24.824079
1.360000	24.824079
1.370000	24.824079
1.380000	24.824079
1.390000	24.824079
1.400000	24.824079
1.410000	24.824079
1.420000	24.824079
1.430000	24.824079
1.440000	24.824079
1.450000	24.824079
1.460000	24.824079
1.470000	24.824079
1.480000	24.824079
1.490000	24.824079
1.500000	24.832615
1.510000	24.832615
1.520000	24.832615
1.530000	24.832615
1.540000	24.832615
1.550000	24.832615
1.560000	24.832615
1.570000	24.832615
1.580000	24.832615
1.590000	24.832615
1.600000	24.832615
1.610000	24.832615
1.620000	24.832615
1.630000	24.832615
1.640000	24.832615
1.650000	24.832615
1.660000	24.832615
1.670000	24.832615
1.680000	24.832615
1.690000	24.832615
1.700000	24.832615
1.710000	24.832615
1.720000	24.832615
1.730000	24.832615
1.740000	24.832615
1.750000	24.832615
1.760000	24.832615
1.770000	24.832615
1.780000	24.832615
1.790000	24.832615
1.800000	24.832615
1.810000	24.832615
1.820000	24.832615
1.830000	24.832615
1.840000	24.832615
1.850000	24.832615
1.860000	24.832615
1.870000	24.832615
1.880000	24.832615
1.890000	24.832615
1.900000	24.832615
1.910000	24.832615
1.920000	24.832615
1.930000	24.832615
1.940000	24.832615
1.950000	24.832615
1.960000	24.832615
1.970000	24.832615
1.980000	24.832615
1.990000	24.832615
2.000000	24.844118
2.010000	24.844118
2.020000	24.844118
2.030000	24.844118
2.040000	24.844118
2.050000	24.844118
2.060000	24.844118
2.070000	24.844118
2.080000	24.844118
2.090000	24.844118
2.100000	24.844118
2.110000	24.844118
2.120000	24.844118
2.130000	24.844118
2.140000	24.844118
2.150000	24.844118
2.160000	24.844118
2.170000	24.844118
2.180000	24.844118
2.190000	24.844118
2.200000	24.844118
2.210000	24.844118
2.220000	24.844118
2.230000	24.844118
2.240000	24.844118
2.250000	24.844118
2.260000	24.844118
2.270000	24.844118
2.280000	24.844118
2.290000	24.844118
2.300000	24.844118
2.310000	24.844118
2.320000	24.844118
2.330000	24.844118
2.340000	24.844118
2.350000	24.844118
2.360000	24.844118
2.370000	24.844118
2.380000	24.844118
2.390000	24.844118
2.400000	24.844118
2.410000	24.844118
2.420000	24.844118
2.430000	24.844118
2.440000	24.844118
2.450000	24.844118
2.460000	24.844118
2.470000	24.844118
2.480000	24.844118
2.490000	24.844118
2.500000	24.858015
2.510000	24.858015
2.520000	24.858015
2.530000	24.858015
2.540000	24.858015
2.550000	24.858015
2.560000	24.858015
2.570000	24.858015
2.580000	24.858015
2.590000	24.858015
2.600000	24.858015
2.610000	24.858015
2.620000	24.858015
2.630000	24.858015
2.640000	24.858015
2.650000	24.858015
2.660000	24.858015
2.670000	24.858015
2.680000	24.858015
2.690000	24.858015
2.700000	24.858015
2.710000	24.858015
2.720000	24.858015
2.730000	24.858015
2.740000	24.858015
2.750000	24.858015
2.760000	24.858015
2.770000	24.858015
2.780000	24.858015
2.790000	24.858015
2.800000	24.858015
2.810000	24.858015
2.820000	24.858015
2.830000	24.858015
2.840000	24.858015
2.850000	24.858015
2.860000	24.858015
2.870000	24.858015
2.880000	24.858015
2.890000	24.858015
2.900000	24.858015
2.910000	24.858015
2.920000	24.858015
2.930000	24.858015
2.940000	24.858015
2.950000	24.858015
2.960000	24.858015
2.970000	24.858015
2.980000	24.858015
2.990000	24.858015
3.000000	24.870584
3.010000	24.870584
3.020000	24.870584
3.030000	24.870584
3.040000	24.870584
3.050000	24.870584
3.060000	24.870584
3.070000	24.870584
3.080000	24.870584
3.090000	24.870584
3.100000	24.870584
3.110000	24.870584
3.120000	24.870584
3.130000	24.870584
3.140000	24.870584
3.150000	24.870584
3.160000	24.870584
3.170000	24.870584
3.180000	24.870584
3.190000	24.870584
3.200000	24.870584
3.210000	24.870584
3.220000	24.870584
3.230000	24.870584
3.240000	24.870584
3.250000	24.870584
3.260000	24.870584
3.270000	24.870584
3.280000	24.870584
3.290000	24.870584
3.300000	24.870584
3.310000	24.870584
3.320000	24.870584
3.330000	24.870584
3.340000	24.870584
3.350000	24.870584
3.360000	24.870584
3.370000	24.870584
3.380000	24.870584
3.390000	24.870584
3.400000	24.870584
3.410000	24.870584
3.420000	24.870584
3.430000	24.870584
3.440000	24.870584
3.450000	24.870584
3.460000	24.870584
3.470000	24.870584
3.480000	24.870584
3.490000	24.870584
3.500000	24.884794
3.510000	24.884794
3.520000	24.884794
3.530000	24.884794
3.540000	24.884794
3.550000	24.884794
3.560000	24.884794
3.570000	24.884794
3.580000	24.884794
3.590000	24.884794
3.600000	24.884794
3.610000	24.884794
3.620000	24.884794
3.630000	24.884794
3.640000	24.884794
3.650000	24.884794
3.660000	24.884794
3.670000	24.884794
3.680000	24.884794
3.690000	24.884794
3.700000	24.884794
3.710000	24.884794
3.720000	24.884794
3.730000	24.884794
3.740000	24.884794
3.750000	24.884794
3.760000	24.884794
3.770000	24.884794
3.780000	24.884794
3.790000	24.884794
3.800000	24.884794
3.810000	24.884794
3.820000	24.884794
3.830000	24.884794
3.840000	24.884794
3.850000	24.884794
3.860000	24.884794
3.870000	24.884794
3.880000	24.884794
3.890000	24.884794
3.900000	24.884794
3.910000	24.884794
3.920000	24.884794
3.930000	24.884794
3.940000	24.884794
3.950000	24.884794
3.960000	24.884794
3.970000	24.884794
3.980000	24.884794
3.990000	24.884794
4.000000	24.898575
4.010000	24.898575
4.020000	24.898575
4.030000	24.898575
4.040000	24.898575
4.050000	24.898575
4.060000	24.898575
4.070000	24.898575
4.080000	24.898575
4.090000	24.898575
4.100000	24.898575
4.110000	24.898575
4.120000	24.898575
4.130000	24.898575
4.140000	24.898575
4.150000	24.898575
4.160000	24.898575
4.170000	24.898575
4.180000	24.898575
4.190000	24.898575
4.200000	24.898575
4.210000	24.898575
4.220000	24.898575
4.230000	24.898575
4.240000	24.898575
4.250000	24.898575
4.260000	24.898575
4.270000	24.898575
4.280000	24.898575
4.290000	24.898575
4.300000	24.898575
4.310000	24.898575
4.320000	24.898575
4.330000	24.898575
4.340000	24.898575
4.350000	24.898575
4.360000	24.898575
4.370000	24.898575
4.380000	24.898575
4.390000	24.898575
4.400000	24.898575
4.410000	24.898575
4.420000	24.898575
4.430000	24.898575
4.440000	24.898575
4.450000	24.898575
4.460000	24.898575
4.470000	24.898575
4.480000	24.898575
4.490000	24.898575
4.500000	24.912024
4.510000	24.912024
4.520000	24.912024
4.530000	24.912024
4.540000	24.912024
4.550000	24.912024
4.560000	24.912024
4.570000	24.912024
4.580000	24.912024
4.590000	24.912024
4.600000	24.912024
4.610000	24.912024
4.620000	24.912024
4.630000	24.912024
4.640000	24.912024
4.650000	24.912024
4.660000	24.912024
4.670000	24.912024
4.680000	24.912024
4.690000	24.912024
4.700000	24.912024
4.710000	24.912024
4.720000	24.912024
4.730000	24.912024
4.740000	24.912024
4.750000	24.912024
4.760000	24.912024
4.770000	24.912024
4.780000	24.912024
4.790000	24.912024
4.800000	24.912024
4.810000	24.912024
4.820000	24.912024
4.830000	24.912024
4.840000	24.912024
4.850000	24.912024
4.860000	24.912024
4.870000	24.912024
4.880000	24.912024
4.890000	24.912024
4.900000	24.912024
4.910000	24.912024
4.920000	24.912024
4.930000	24.912024
4.940000	24.912024
4.950000	24.912024
4.960000	24.912024
4.970000	24.912024
4.980000	24.912024
4.990000	24.912024
5.000000	24.924761
5.010000	24.924761
5.020000	24.924761
5.030000	24.924761
5.040000	24.924761
5.050000	24.924761
5.060000	24.924761
5.070000	24.924761
5.080000	24.924761
5.090000	24.924761
5.100000	24.924761
5.110000	24.924761
5.120000	24.924761
5.130000	24.924761
5.140000	24.924761
5.150000	24.924761
5.160000	24.924761
5.170000	24.924761
5.180000	24.924761
5.190000	24.924761
5.200000	24.924761
5.210000	24.924761
5.220000	24.924761
5.230000	24.924761
5.240000	24.924761
5.250000	24.924761
5.260000	24.924761
5.270000	24.924761
5.280000	24.924761
5.290000	24.924761
5.300000	24.924761
5.310000	24.924761
5.320000	24.924761
5.330000	24.924761
5.340000	24.924761
5.350000	24.924761
5.360000	24.924761
5.370000	24.924761
5.380000	24.924761
5.390000	24.924761
5.400000	24.924761
5.410000	24.924761
5.420000	24.924761
5.430000	24.924761
5.440000	24.924761
5.450000	24.924761
5.460000	24.924761
5.470000	24.924761
5.480000	24.924761
5.490000	24.924761
5.500000	24.935327
5.510000	24.935327
5.520000	24.935327
5.530000	24.935327
5.540000	24.935327
5.550000	24.935327
5.560000	24.935327
5.570000	24.935327
5.580000	24.935327
5.590000	24.935327
5.600000	24.935327
5.610000	24.935327
5.620000	24.935327
5.630000	24.935327
5.640000	24.935327
5.650000	24.935327
5.660000	24.935327
5.670000	24.935327
5.680000	24.935327
5.690000	24.935327
5.700000	24.935327
5.710000	24.935327
5.720000	24.935327
5.730000	24.935327
5.740000	24.935327
5.750000	24.935327
5.760000	24.935327
5.770000	24.935327
5.780000	24.935327
5.790000	24.935327
5.800000	24.935327
5.810000	24.935327
5.820000	24.935327
5.830000	24.935327
5.840000	24.935327
5.850000	24.935327
5.860000	24.935327
5.870000	24.935327
5.880000	24.935327
5.890000	24.935327
5.900000	24.935327
5.910000	24.935327
5.920000	24.935327
5.930000	24.935327
5.940000	24.935327
5.950000	24.935327
5.960000	24.935327
5.970000	24.935327
5.980000	24.935327
5.990000	24.935327
6.000000	24.944802
6.010000	24.944802
6.020000	24.944802
6.030000	24.944802
6.040000	24.944802
6.050000	24.944802
6.060000	24.944802
6.070000	24.944802
6.080000	24.944802
6.090000	24.944802
6.100000	24.944802
6.110000	24.944802
6.120000	24.944802
6.130000	24.944802
6.140000	24.944802
6.150000	24.944802
6.160000	24.944802
6.170000	24.944802
6.180000	24.944802
6.190000	24.944802
6.200000	24.944802
6.210000	24.944802
6.220000	24.944802
6.230000	24.944802
6.240000	24.944802
6.250000	24.944802
6.260000	24.944802
6.270000	24.944802
6.280000	24.944802
6.290000	24.944802
6.300000	24.944802
6.310000	24.944802
6.320000	24.944802
6.330000	24.944802
6.340000	24.944802
6.350000	24.944802
6.360000	24.944802
6.370000	24.944802
6.380000	24.944802
6.390000	24.944802
6.400000	24.944802
6.410000	24.944802
6.420000	24.944802
6.430000	24.944802
6.440000	24.944802
6.450000	24.944802
6.460000	24.944802
6.470000	24.944802
6.480000	24.944802
6.490000	24.944802
6.500000	24.952496
6.510000	24.952496
6.520000	24.952496
6.530000	24.952496
6.540000	24.952496
6.550000	24.952496
6.560000	24.952496
6.570000	24.952496
6.580000	24.952496
6.590000	24.952496
6.600000	24.952496
6.610000	24.952496
6.620000	24.952496
6.630000	24.952496
6.640000	24.952496
6.650000	24.952496
6.660000	24.952496
6.670000	24.952496
6.680000	24.952496
6.690000	24.952496
6.700000	24.952496
6.710000	24.952496
6.720000	24.952496
6.730000	24.952496
6.740000	24.952496
6.750000	24.952496
6.760000	24.952496
6.770000	24.952496
6.780000	24.952496
6.790000	24.952496
6.800000	24.952496
6.810000	24.952496
6.820000	24.952496
6.830000	24.952496
6.840000	24.952496
6.850000	24.952496
6.860000	24.952496
6.870000	24.952496
6.880000	24.952496
6.890000	24.952496
6.900000	24.952496
6.910000	24.952496
6.920000	24.952496
6.930000	24.952496
6.940000	24.952496
6.950000	24.952496
6.960000	24.952496
6.970000	24.952496
6.980000	24.952496
6.990000	24.952496
7.000000	24.958652
7.010000	24.958652
7.020000	24.958652
7.030000	24.958652
7.040000	24.958652
7.050000	24.958652
7.060000	24.958652
7.070000	24.958652
7.080000	24.958652
7.090000	24.958652
7.100000	24.958652
7.110000	24.958652
7.120000	24.958652
7.130000	24.958652
7.140000	24.958652
7.150000	24.958652
7.160000	24.958652
7.170000	24.958652
7.180000	24.958652
7.190000	24.958652
7.200000	24.958652
7.210000	24.958652
7.220000	24.958652
7.230000	24.958652
7.240000	24.958652
7.250000	24.958652
7.260000	24.958652
7.270000	24.958652
7.280000	24.958652
7.290000	24.958652
7.300000	24.958652
7.310000	24.958652
7.320000	24.958652
7.330000	24.958652
7.340000	24.958652
7.350000	24.958652
7.360000	24.958652
7.370000	24.958652
7.380000	24.958652
7.390000	24.958652
7.400000	24.958652
7.410000	24.958652
7.420000	24.958652
7.430000	24.958652
7.440000	24.958652
7.450000	24.958652
7.460000	24.958652
7.470000	24.958652
7.480000	24.958652
7.490000	24.958652
7.500000	24.963901
7.510000	24.963901
7.520000	24.963901
7.530000	24.963901
7.540000	24.963901
7.550000	24.963901
7.560000	24.963901
7.570000	24.963901
7.580000	24.963901
7.590000	24.963901
7.600000	24.963901
7.610000	24.963901
7.620000	24.963901
7.630000	24.963901
7.640000	24.963901
7.650000	24.963901
7.660000	24.963901
7.670000	24.963901
7.680000	24.963901
7.690000	24.963901
7.700000	24.963901
7.710000	24.963901
7.720000	24.963901
7.730000	24.963901
7.740000	24.963901
7.750000	24.963901
7.760000	24.963901
7.770000	24.963901
7.780000	24.963901
7.790000	24.963901
7.800000	24.963901
7.810000	24.963901
7.820000	24.963901
7.830000	24.963901
7.840000	24.963901
7.850000	24.963901
7.860000	24.963901
7.870000	24.963901
7.880000	24.963901
7.890000	24.963901
7.900000	24.963901
7.910000	24.963901
7.920000	24.963901
7.930000	24.963901
7.940000	24.963901
7.950000	24.963901
7.960000	24.963901
7.970000	24.963901
7.980000	24.963901
7.990000	24.963901
8.000000	24.968002
8.010000	24.968002
8.020000	24.968002
8.030000	24.968002
8.040000	24.968002
8.050000	24.968002
8.060000	24.968002
8.070000	24.968002
8.080000	24.968002
8.090000	24.968002
8.100000	24.968002
8.110000	24.968002
8.120000	24.968002
8.130000	24.968002
8.140000	24.968002
8.150000	24.968002
8.160000	24.968002
8.170000	24.968002
8.180000	24.968002
8.190000	24.968002
8.200000	24.968002
8.210000	24.968002
8.220000	24.968002
8.230000	24.968002
8.240000	24.968002
8.250000	24.968002
8.260000	24.968002
8.270000	24.968002
8.280000	24.968002
8.290000	24.968002
8.300000	24.968002
8.310000	24.968002
8.320000	24.968002
8.330000	24.968002
8.340000	24.968002
8.350000	24.968002
8.360000	24.968002
8.370000	24.968002
8.380000	24.968002
8.390000	24.968002
8.400000	24.968002
8.410000	24.968002
8.420000	24.968002
8.430000	24.968002
8.440000	24.968002
8.450000	24.968002
8.460000	24.968002
8.470000	24.968002
8.480000	24.968002
8.490000	24.968002
8.500000	24.971722
8.510000	24.971722
8.520000	24.971722
8.530000	24.971722
8.540000	24.971722
8.550000	24.971722
8.560000	24.971722
8.570000	24.971722
8.580000	24.971722
8.590000	24.971722
8.600000	24.971722
8.610000	24.971722
8.620000	24.971722
8.630000	24.971722
8.640000	24.971722
8.650000	24.971722
8.660000	24.971722
8.670000	24.971722
8.680000	24.971722
8.690000	24.971722
8.700000	24.971722
8.710000	24.971722
8.720000	24.971722
8.730000	24.971722
8.740000	24.971722
8.750000	24.971722
8.760000	24.971722
8.770000	24.971722
8.780000	24.971722
8.790000	24.971722
8.800000	24.971722
8.810000	24.971722
8.820000	24.971722
8.830000	24.971722
8.840000	24.971722
8.850000	24.971722
8.860000	24.971722
8.870000	24.971722
8.880000	24.971722
8.890000	24.971722
8.900000	24.971722
8.910000	24.971722
8.920000	24.971722
8.930000	24.971722
8.940000	24.971722
8.950000	24.971722
8.960000	24.971722
8.970000	24.971722
8.980000	24.971722
8.990000	24.971722
9.000000	24.974139
9.010000	24.974139
9.020000	24.974139
9.030000	24.974139
9.040000	24.974139
9.050000	24.974139
9.060000	24.974139
9.070000	24.974139
9.080000	24.974139
9.090000	24.974139
9.100000	24.974139
9.110000	24.974139
9.120000	24.974139
9.130000	24.974139
9.140000	24.974139
9.150000	24.974139
9.160000	24.974139
9.170000	24.974139
9.180000	24.974139
9.190000	24.974139
9.200000	24.974139
9.210000	24.974139
9.220000	24.974139
9.230000	24.974139
9.240000	24.974139
9.250000	24.974139
9.260000	24.974139
9.270000	24.974139
9.280000	24.974139
9.290000	24.974139
9.300000	24.974139
9.310000	24.974139
9.320000	24.974139
9.330000	24.974139
9.340000	24.974139
9.350000	24.974139
9.360000	24.974139
9.370000	24.974139
9.380000	24.974139
9.390000	24.974139
9.400000	24.974139
9.410000	24.974139
9.420000	24.974139
9.430000	24.974139
9.440000	24.974139
9.450000	24.974139
9.460000	24.974139
9.470000	24.974139
9.480000	24.974139
9.490000	24.974139
9.500000	24.975183
9.510000	24.975183
9.520000	24.975183
9.530000	24.975183
9.540000	24.975183
9.550000	24.975183
9.560000	24.975183
9.570000	24.975183
9.580000	24.975183
9.590000	24.975183
9.600000	24.975183
9.610000	24.975183
9.620000	24.975183
9.630000	24.975183
9.640000	24.975183
9.650000	24.975183
9.660000	24.975183
9.670000	24.975183
9.680000	24.975183
9.690000	24.975183
9.700000	24.975183
9.710000	24.975183
9.720000	24.975183
9.730000	24.975183
9.740000	24.975183
9.750000	24.975183
9.760000	24.975183
9.770000	24.975183
9.780000	24.975183
9.790000	24.975183
9.800000	24.975183
9.810000	24.975183
9.820000	24.975183
9.830000	24.975183
9.840000	24.975183
9.850000	24.975183
9.860000	24.975183
9.870000	24.975183
9.880000	24.975183
9.890000	24.975183
9.900000	24.975183
9.910000	24.975183
9.920000	24.975183
9.930000	24.975183
9.940000	24.975183
9.950000	24.975183
9.960000	24.975183
9.970000	24.975183
9.980000	24.975183
9.990000	24.975183
10.000000	24.975615
10.010000	24.975615
10.020000	24.975615
10.030000	24.975615
10.040000	24.975615
10.050000	24.975615
10.060000	24.975615
10.070000	24.975615
10.080000	24.975615
10.090000	24.975615
10.100000	24.975615
10.110000	24.975615
10.120000	24.975615
10.130000	24.975615
10.140000	24.975615
10.150000	24.975615
10.160000	24.975615
10.170000	24.975615
10.180000	24.975615
10.190000	24.975615
10.200000	24.975615
10.210000	24.975615
10.220000	24.975615
10.230000	24.975615
10.240000	24.975615
10.250000	24.975615
10.260000	24.975615
10.270000	24.975615
10.280000	24.975615
10.290000	24.975615
10.300000	24.975615
10.310000	24.975615
10.320000	24.975615
10.330000	24.975615
10.340000	24.975615
10.350000	24.975615
10.360000	24.975615
10.370000	24.975615
10.380000	24.975615
10.390000	24.975615
10.400000	24.975615
10.410000	24.975615
10.420000	24.975615
10.430000	24.975615
10.440000	24.975615
10.450000	24.975615
10.460000	24.975615
10.470000	24.975615
10.480000	24.975615
10.490000	24.975615
10.500000	24.975874
10.510000	24.975874
10.520000	24.975874
10.530000	24.975874
10.540000	24.975874
10.550000	24.975874
10.560000	24.975874
10.570000	24.975874
10.580000	24.975874
10.590000	24.975874
10.600000	24.975874
10.610000	24.975874
10.620000	24.975874
10.630000	24.975874
10.640000	24.975874
10.650000	24.975874
10.660000	24.975874
10.670000	24.975874
10.680000	24.975874
10.690000	24.975874
10.700000	24.975874
10.710000	24.975874
10.720000	24.975874
10.730000	24.975874
10.740000	24.975874
10.750000	24.975874
10.760000	24.975874
10.770000	24.975874
10.780000	24.975874
10.790000	24.975874
10.800000	24.975874
10.810000	24.975874
10.820000	24.975874
10.830000	24.975874
10.840000	24.975874
10.850000	24.975874
10.860000	24.975874
10.870000	24.975874
10.880000	24.975874
10.890000	24.975874
10.900000	24.975874
10.910000	24.975874
10.920000	24.975874
10.930000	24.975874
10.940000	24.975874
10.950000	24.975874
10.960000	24.975874
10.970000	24.975874
10.980000	24.975874
10.990000	24.975874
11.000000	24.976089
11.010000	24.976089
11.020000	24.976089
11.030000	24.976089
11.040000	24.976089
11.050000	24.976089
11.060000	24.976089
11.070000	24.976089
11.080000	24.976089
11.090000	24.976089
11.100000	24.976089
11.110000	24.976089
11.120000	24.976089
11.130000	24.976089
11.140000	24.976089
11.150000	24.976089
11.160000	24.976089
11.170000	24.976089
11.180000	24.976089
11.190000	24.976089
11.200000	24.976089
11.210000	24.976089
11.220000	24.976089
11.230000	24.976089
11.240000	24.976089
11.250000	24.976089
11.260000	24.976089
11.270000	24.976089
11.280000	24.976089
11.290000	24.976089
11.300000	24.976089
11.310000	24.976089
11.320000	24.976089
11.330000	24.976089
11.340000	24.976089
11.350000	24.976089
11.360000	24.976089
11.370000	24.976089
11.380000	24.976089
11.390000	24.976089
11.400000	24.976089
11.410000	24.976089
11.420000	24.976089
11.430000	24.976089
11.440000	24.976089
11.450000	24.976089
11.460000	24.976089
11.470000	24.976089
11.480000	24.976089
11.490000	24.976089
11.500000	24.975477
11.510000	24.975477
11.520000	24.975477
11.530000	24.975477
11.540000	24.975477
11.550000	24.975477
11.560000	24.975477
11.570000	24.975477
11.580000	24.975477
11.590000	24.975477
11.600000	24.975477
11.610000	24.975477
11.620000	24.975477
11.630000	24.975477
11.640000	24.975477
11.650000	24.975477
11.660000	24.975477
11.670000	24.975477
11.680000	24.975477
11.690000	24.975477
11.700000	24.975477
11.710000	24.975477
11.720000	24.975477
11.730000	24.975477
11.740000	24.975477
11.750000	24.975477
11.760000	24.975477
11.770000	24.975477
11.780000	24.975477
11.790000	24.975477
11.800000	24.975477
11.810000	24.975477
11.820000	24.975477
11.830000	24.975477
11.840000	24.975477
11.850000	24.975477
11.860000	24.975477
11.870000	24.975477
11.880000	24.975477
11.890000	24.975477
11.900000	24.975477
11.910000	24.975477
11.920000	24.975477
11.930000	24.975477
11.940000	24.975477
11.950000	24.975477
11.960000	24.975477
11.970000	24.975477
11.980000	24.975477
11.990000	24.975477
12.000000	24.974510
12.010000	24.974510
12.020000	24.974510
12.030000	24.974510
12.040000	24.974510
12.050000	24.974510
12.060000	24.974510
12.070000	24.974510
12.080000	24.974510
12.090000	24.974510
12.100000	24.974510
12.110000	24.974510
12.120000	24.974510
12.130000	24.974510
12.140000	24.974510
12.150000	24.974510
12.160000	24.974510
12.170000	24.974510
12.180000	24.974510
12.190000	24.974510
12.200000	24.974510
12.210000	24.974510
12.220000	24.974510
12.230000	24.974510
12.240000	24.974510
12.250000	24.974510
12.260000	24.974510
12.270000	24.974510
12.280000	24.974510
12.290000	24.974510
12.300000	24.974510
12.310000	24.974510
12.320000	24.974510
12.330000	24.974510
12.340000	24.974510
12.350000	24.974510
12.360000	24.974510
12.370000	24.974510
12.380000	24.974510
12.390000	24.974510
12.400000	24.974510
12.410000	24.974510
12.420000	24.974510
12.430000	24.974510
12.440000	24.974510
12.450000	24.974510
12.460000	24.974510
12.470000	24.974510
12.480000	24.974510
12.490000	24.974510
12.500000	24.973284
12.510000	24.973284
12.520000	24.973284
12.530000	24.973284
12.540000	24.973284
12.550000	24.973284
12.560000	24.973284
12.570000	24.973284
12.580000	24.973284
12.590000	24.973284
12.600000	24.973284
12.610000	24.973284
12.620000	24.973284
12.630000	24.973284
12.640000	24.973284
12.650000	24.973284
12.660000	24.973284
12.670000	24.973284
12.680000	24.973284
12.690000	24.973284
12.700000	24.973284
12.710000	24.973284
12.720000	24.973284
12.730000	24.973284
12.740000	24.973284
12.750000	24.973284
12.760000	24.973284
12.770000	24.973284
12.780000	24.973284
12.790000	24.973284
12.800000	24.973284
12.810000	24.973284
12.820000	24.973284
12.830000	24.973284
12.840000	24.973284
12.850000	24.973284
12.860000	24.973284
12.870000	24.973284
12.880000	24.973284
12.890000	24.973284
12.900000	24.973284
12.910000	24.973284
12.920000	24.973284
12.930000	24.973284
12.940000	24.973284
12.950000	24.973284
12.960000	24.973284
12.970000	24.973284
12.980000	24.973284
12.990000	24.973284
13.000000	24.971912
13.010000	24.971912
13.020000	24.971912
13.030000	24.971912
13.040000	24.971912
13.050000	24.971912
13.060000	24.971912
13.070000	24.971912
13.080000	24.971912
13.090000	24.971912
13.100000	24.971912
13.110000	24.971912
13.120000	24.971912
13.130000	24.971912
13.140000	24.971912
13.150000	24.971912
13.160000	24.971912
13.170000	24.971912
13.180000	24.971912
13.190000	24.971912
13.200000	24.971912
13.210000	24.971912
13.220000	24.971912
13.230000	24.971912
13.240000	24.971912
13.250000	24.971912
13.260000	24.971912
13.270000	24.971912
13.280000	24.971912
13.290000	24.971912
13.300000	24.971912
13.310000	24.971912
13.320000	24.971912
13.330000	24.971912
13.340000	24.971912
13.350000	24.971912
13.360000	24.971912
13.370000	24.971912
13.380000	24.971912
13.390000	24.971912
13.400000	24.971912
13.410000	24.971912
13.420000	24.971912
13.430000	24.971912
13.440000	24.971912
13.450000	24.971912
13.460000	24.971912
13.470000	24.971912
13.480000	24.971912
13.490000	24.971912
13.500000	24.970358
13.510000	24.970358
13.520000	24.970358
13.530000	24.970358
13.540000	24.970358
13.550000	24.970358
13.560000	24.970358
13.570000	24.970358
13.580000	24.970358
13.590000	24.970358
13.600000	24.970358
13.610000	24.970358
13.620000	24.970358
13.630000	24.970358
13.640000	24.970358
13.650000	24.970358
13.660000	24.970358
13.670000	24.970358
13.680000	24.970358
13.690000	24.970358
13.700000	24.970358
13.710000	24.970358
13.720000	24.970358
13.730000	24.970358
13.740000	24.970358
13.750000	24.970358
13.760000	24.970358
13.770000	24.970358
13.780000	24.970358
13.790000	24.970358
13.800000	24.970358
13.810000	24.970358
13.820000	24.970358
13.830000	24.970358
13.840000	24.970358
13.850000	24.970358
13.860000	24.970358
13.870000	24.970358
13.880000	24.970358
13.890000	24.970358
13.900000	24.970358
13.910000	24.970358
13.920000	24.970358
13.930000	24.970358
13.940000	24.970358
13.950000	24.970358
13.960000	24.970358
13.970000	24.970358
13.980000	24.970358
13.990000	24.970358
14.000000	24.968373
14.010000	24.968373
14.020000	24.968373
14.030000	24.968373
14.040000	24.968373
14.050000	24.968373
14.060000	24.968373
14.070000	24.968373
14.080000	24.968373
14.090000	24.968373
14.100000	24.968373
14.110000	24.968373
14.120000	24.968373
14.130000	24.968373
14.140000	24.968373
14.150000	24.968373
14.160000	24.968373
14.170000	24.968373
14.180000	24.968373
14.190000	24.968373
14.200000	24.968373
14.210000	24.968373
14.220000	24.968373
14.230000	24.968373
14.240000	24.968373
14.250000	24.968373
14.260000	24.968373
14.270000	24.968373
14.280000	24.968373
14.290000	24.968373
14.300000	24.968373
14.310000	24.968373
14.320000	24.968373
14.330000	24.968373
14.340000	24.968373
14.350000	24.968373
14.360000	24.968373
14.370000	24.968373
14.380000	24.968373
14.390000	24.968373
14.400000	24.968373
14.410000	24.968373
14.420000	24.968373
14.430000	24.968373
14.440000	24.968373
14.450000	24.968373
14.460000	24.968373
14.470000	24.968373
14.480000	24.968373
14.490000	24.968373
14.500000	24.966336
14.510000	24.966336
14.520000	24.966336
14.530000	24.966336
14.540000	24.966336
14.550000	24.966336
14.560000	24.966336
14.570000	24.966336
14.580000	24.966336
14.590000	24.966336
14.600000	24.966336
14.610000	24.966336
14.620000	24.966336
14.630000	24.966336
14.640000	24.966336
14.650000	24.966336
14.660000	24.966336
14.670000	24.966336
14.680000	24.966336
14.690000	24.966336
14.700000	24.966336
14.710000	24.966336
14.720000	24.966336
14.730000	24.966336
14.740000	24.966336
14.750000	24.966336
14.760000	24.966336
14.770000	24.966336
14.780000	24.966336
14.790000	24.966336
14.800000	24.966336
14.810000	24.966336
14.820000	24.966336
14.830000	24.966336
14.840000	24.966336
14.850000	24.966336
14.860000	24.966336
14.870000	24.966336
14.880000	24.966336
14.890000	24.966336
14.900000	24.966336
14.910000	24.966336
14.920000	24.966336
14.930000	24.966336
14.940000	24.966336
14.950000	24.966336
14.960000	24.966336
14.970000	24.966336
14.980000	24.966336
14.990000	24.966336
15.000000	24.963271
15.010000	24.963271
15.020000	24.963271
15.030000	24.963271
15.040000	24.963271
15.050000	24.963271
15.060000	24.963271
15.070000	24.963271
15.080000	24.963271
15.090000	24.963271
15.100000	24.963271
15.110000	24.963271
15.120000	24.963271
15.130000	24.963271
15.140000	24.963271
15.150000	24.963271
15.160000	24.963271
15.170000	24.963271
15.180000	24.963271
15.190000	24.963271
15.200000	24.963271
15.210000	24.963271
15.220000	24.963271
15.230000	24.963271
15.240000	24.963271
15.250000	24.963271
15.260000	24.963271
15.270000	24.963271
15.280000	24.963271
15.290000	24.963271
15.300000	24.963271
15.310000	24.963271
15.320000	24.963271
15.330000	24.963271
15.340000	24.963271
15.350000	24.963271
15.360000	24.963271
15.370000	24.963271
15.380000	24.963271
15.390000	24.963271
15.400000	24.963271
15.410000	24.963271
15.420000	24.963271
15.430000	24.963271
15.440000	24.963271
15.450000	24.963271
15.460000	24.963271
15.470000	24.963271
15.480000	24.963271
15.490000	24.963271
15.500000	24.960258
15.510000	24.960258
15.520000	24.960258
15.530000	24.960258
15.540000	24.960258
15.550000	24.960258
15.560000	24.960258
15.570000	24.960258
15.580000	24.960258
15.590000	24.960258
15.600000	24.960258
15.610000	24.960258
15.620000	24.960258
15.630000	24.960258
15.640000	24.960258
15.650000	24.960258
15.660000	24.960258
15.670000	24.960258
15.680000	24.960258
15.690000	24.960258
15.700000	24.960258
15.710000	24.960258
15.720000	24.960258
15.730000	24.960258
15.740000	24.960258
15.750000	24.960258
15.760000	24.960258
15.770000	24.960258
15.780000	24.960258
15.790000	24.960258
15.800000	24.960258
15.810000	24.960258
15.820000	24.960258
15.830000	24.960258
15.840000	24.960258
15.850000	24.960258
15.860000	24.960258
15.870000	24.960258
15.880000	24.960258
15.890000	24.960258
15.900000	24.960258
15.910000	24.960258
15.920000	24.960258
15.930000	24.960258
15.940000	24.960258
15.950000	24.960258
15.960000	24.960258
15.970000	24.960258
15.980000	24.960258
15.990000	24.960258
16.000000	24.956969
16.010000	24.956969
16.020000	24.956969
16.030000	24.956969
16.040000	24.956969
16.050000	24.956969
16.060000	24.956969
16.070000	24.956969
16.080000	24.956969
16.090000	24.956969
16.100000	24.956969
16.110000	24.956969
16.120000	24.956969
16.130000	24.956969
16.140000	24.956969
16.150000	24.956969
16.160000	24.956969
16.170000	24.956969
16.180000	24.956969
16.190000	24.956969
16.200000	24.956969
16.210000	24.956969
16.220000	24.956969
16.230000	24.956969
16.240000	24.956969
16.250000	24.956969
16.260000	24.956969
16.270000	24.956969
16.280000	24.956969
16.290000	24.956969
16.300000	24.956969
16.310000	24.956969
16.320000	24.956969
16.330000	24.956969
16.340000	24.956969
16.350000	24.956969
16.360000	24.956969
16.370000	24.956969
16.380000	24.956969
16.390000	24.956969
16.400000	24.956969
16.410000	24.956969
16.420000	24.956969
16.430000	24.956969
16.440000	24.956969
16.450000	24.956969
16.460000	24.956969
16.470000	24.956969
16.480000	24.956969
16.490000	24.956969
16.500000	24.953446
16.510000	24.953446
16.520000	24.953446
16.530000	24.953446
16.540000	24.953446
16.550000	24.953446
16.560000	24.953446
16.570000	24.953446
16.580000	24.953446
16.590000	24.953446
16.600000	24.953446
16.610000	24.953446
16.620000	24.953446
16.630000	24.953446
16.640000	24.953446
16.650000	24.953446
16.660000	24.953446
16.670000	24.953446
16.680000	24.953446
16.690000	24.953446
16.700000	24.953446
16.710000	24.953446
16.720000	24.953446
16.730000	24.953446
16.740000	24.953446
16.750000	24.953446
16.760000	24.953446
16.770000	24.953446
16.780000	24.953446
16.790000	24.953446
16.800000	24.953446
16.810000	24.953446
16.820000	24.953446
16.830000	24.953446
16.840000	24.953446
16.850000	24.953446
16.860000	24.953446
16.870000	24.953446
16.880000	24.953446
16.890000	24.953446
16.900000	24.953446
16.910000	24.953446
16.920000	24.953446
16.930000	24.953446
16.940000	24.953446
16.950000	24.953446
16.960000	24.953446
16.970000	24.953446
16.980000	24.953446
16.990000	24.953446
17.000000	24.950441
17.010000	24.950441
17.020000	24.950441
17.030000	24.950441
17.040000	24.950441
17.050000	24.950441
17.060000	24.950441
17.070000	24.950441
17.080000	24.950441
17.090000	24.950441
17.100000	24.950441
17.110000	24.950441
17.120000	24.950441
17.130000	24.950441
17.140000	24.950441
17.150000	24.950441
17.160000	24.950441
17.170000	24.950441
17.180000	24.950441
17.190000	24.950441
17.200000	24.950441
17.210000	24.950441
17.220000	24.950441
17.230000	24.950441
17.240000	24.950441
17.250000	24.950441
17.260000	24.950441
17.270000	24.950441
17.280000	24.950441
17.290000	24.950441
17.300000	24.950441
17.310000	24.950441
17.320000	24.950441
17.330000	24.950441
17.340000	24.950441
17.350000	24.950441
17.360000	24.950441
17.370000	24.950441
17.380000	24.950441
17.390000	24.950441
17.400000	24.950441
17.410000	24.950441
17.420000	24.950441
17.430000	24.950441
17.440000	24.950441
17.450000	24.950441
17.460000	24.950441
17.470000	24.950441
17.480000	24.950441
17.490000	24.950441
17.500000	24.945976
17.510000	24.945976
17.520000	24.945976
17.530000	24.945976
17.540000	24.945976
17.550000	24.945976
17.560000	24.945976
17.570000	24.945976
17.580000	24.945976
17.590000	24.945976
17.600000	24.945976
17.610000	24.945976
17.620000	24.945976
17.630000	24.945976
17.640000	24.945976
17.650000	24.945976
17.660000	24.945976
17.670000	24.945976
17.680000	24.945976
17.690000	24.945976
17.700000	24.945976
17.710000	24.945976
17.720000	24.945976
17.730000	24.945976
17.740000	24.945976
17.750000	24.945976
17.760000	24.945976
17.770000	24.945976
17.780000	24.945976
17.790000	24.945976
17.800000	24.945976
17.810000	24.945976
17.820000	24.945976
17.830000	24.945976
17.840000	24.945976
17.850000	24.945976
17.860000	24.945976
17.870000	24.945976
17.880000	24.945976
17.890000	24.945976
17.900000	24.945976
17.910000	24.945976
17.920000	24.945976
17.930000	24.945976
17.940000	24.945976
17.950000	24.945976
17.960000	24.945976
17.970000	24.945976
17.980000	24.945976
17.990000	24.945976
