LabVIEW Measurement	
Writer_Version	2
Reader_Version	2
Separator	Tab
Decimal_Separator	.
Multi_Headings	No
X_Columns	One
Time_Pref	Absolute
Operator	biomech-dyno
Date	2023/05/24
Time	15:19:49.9492761999999796612
***End_of_Header***	
	
Channels	1	
Samples	10	
Date	2023/05/24	
Time	15:34:24.1166062999998930186	
X_Dimension	Time	
X0	0.0000000000000000E+0	
Delta_X	0.010000	
***End_of_Header***		
X_Value	Untitled	Comment
0.000000	24.537599
0.010000	24.537599
0.020000	24.537599
0.030000	24.537599
0.040000	24.537599
0.050000	24.537599
0.060000	24.537599
0.070000	24.537599
0.080000	24.537599
0.090000	24.537599
0.100000	24.537599
0.110000	24.537599
0.120000	24.537599
0.130000	24.537599
0.140000	24.537599
0.150000	24.537599
0.160000	24.537599
0.170000	24.537599
0.180000	24.537599
0.190000	24.537599
0.200000	24.537599
0.210000	24.537599
0.220000	24.537599
0.230000	24.537599
0.240000	24.537599
0.250000	24.537599
0.260000	24.537599
0.270000	24.537599
0.280000	24.537599
0.290000	24.537599
0.300000	24.537599
0.310000	24.537599
0.320000	24.537599
0.330000	24.537599
0.340000	24.537599
0.350000	24.537599
0.360000	24.537599
0.370000	24.537599
0.380000	24.537599
0.390000	24.537599
0.400000	24.537599
0.410000	24.537599
0.420000	24.537599
0.430000	24.537599
0.440000	24.537599
0.450000	24.537599
0.460000	24.537599
0.470000	24.537599
0.480000	24.537599
0.490000	24.537599
0.500000	24.550471
0.510000	24.550471
0.520000	24.550471
0.530000	24.550471
0.540000	24.550471
0.550000	24.550471
0.560000	24.550471
0.570000	24.550471
0.580000	24.550471
0.590000	24.550471
0.600000	24.550471
0.610000	24.550471
0.620000	24.550471
0.630000	24.550471
0.640000	24.550471
0.650000	24.550471
0.660000	24.550471
0.670000	24.550471
0.680000	24.550471
0.690000	24.550471
0.700000	24.550471
0.710000	24.550471
0.720000	24.550471
0.730000	24.550471
0.740000	24.550471
0.750000	24.550471
0.760000	24.550471
0.770000	24.550471
0.780000	24.550471
0.790000	24.550471
0.800000	24.550471
0.810000	24.550471
0.820000	24.550471
0.830000	24.550471
0.840000	24.550471
0.850000	24.550471
0.860000	24.550471
0.870000	24.550471
0.880000	24.550471
0.890000	24.550471
0.900000	24.550471
0.910000	24.550471
0.920000	24.550471
0.930000	24.550471
0.940000	24.550471
0.950000	24.550471
0.960000	24.550471
0.970000	24.550471
0.980000	24.550471
0.990000	24.550471
1.000000	24.621214
1.010000	24.621214
1.020000	24.621214
1.030000	24.621214
1.040000	24.621214
1.050000	24.621214
1.060000	24.621214
1.070000	24.621214
1.080000	24.621214
1.090000	24.621214
1.100000	24.621214
1.110000	24.621214
1.120000	24.621214
1.130000	24.621214
1.140000	24.621214
1.150000	24.621214
1.160000	24.621214
1.170000	24.621214
1.180000	24.621214
1.190000	24.621214
1.200000	24.621214
1.210000	24.621214
1.220000	24.621214
1.230000	24.621214
1.240000	24.621214
1.250000	24.621214
1.260000	24.621214
1.270000	24.621214
1.280000	24.621214
1.290000	24.621214
1.300000	24.621214
1.310000	24.621214
1.320000	24.621214
1.330000	24.621214
1.340000	24.621214
1.350000	24.621214
1.360000	24.621214
1.370000	24.621214
1.380000	24.621214
1.390000	24.621214
1.400000	24.621214
1.410000	24.621214
1.420000	24.621214
1.430000	24.621214
1.440000	24.621214
1.450000	24.621214
1.460000	24.621214
1.470000	24.621214
1.480000	24.621214
1.490000	24.621214
1.500000	24.780847
1.510000	24.780847
1.520000	24.780847
1.530000	24.780847
1.540000	24.780847
1.550000	24.780847
1.560000	24.780847
1.570000	24.780847
1.580000	24.780847
1.590000	24.780847
1.600000	24.780847
1.610000	24.780847
1.620000	24.780847
1.630000	24.780847
1.640000	24.780847
1.650000	24.780847
1.660000	24.780847
1.670000	24.780847
1.680000	24.780847
1.690000	24.780847
1.700000	24.780847
1.710000	24.780847
1.720000	24.780847
1.730000	24.780847
1.740000	24.780847
1.750000	24.780847
1.760000	24.780847
1.770000	24.780847
1.780000	24.780847
1.790000	24.780847
1.800000	24.780847
1.810000	24.780847
1.820000	24.780847
1.830000	24.780847
1.840000	24.780847
1.850000	24.780847
1.860000	24.780847
1.870000	24.780847
1.880000	24.780847
1.890000	24.780847
1.900000	24.780847
1.910000	24.780847
1.920000	24.780847
1.930000	24.780847
1.940000	24.780847
1.950000	24.780847
1.960000	24.780847
1.970000	24.780847
1.980000	24.780847
1.990000	24.780847
2.000000	25.014515
2.010000	25.014515
2.020000	25.014515
2.030000	25.014515
2.040000	25.014515
2.050000	25.014515
2.060000	25.014515
2.070000	25.014515
2.080000	25.014515
2.090000	25.014515
2.100000	25.014515
2.110000	25.014515
2.120000	25.014515
2.130000	25.014515
2.140000	25.014515
2.150000	25.014515
2.160000	25.014515
2.170000	25.014515
2.180000	25.014515
2.190000	25.014515
2.200000	25.014515
2.210000	25.014515
2.220000	25.014515
2.230000	25.014515
2.240000	25.014515
2.250000	25.014515
2.260000	25.014515
2.270000	25.014515
2.280000	25.014515
2.290000	25.014515
2.300000	25.014515
2.310000	25.014515
2.320000	25.014515
2.330000	25.014515
2.340000	25.014515
2.350000	25.014515
2.360000	25.014515
2.370000	25.014515
2.380000	25.014515
2.390000	25.014515
2.400000	25.014515
2.410000	25.014515
2.420000	25.014515
2.430000	25.014515
2.440000	25.014515
2.450000	25.014515
2.460000	25.014515
2.470000	25.014515
2.480000	25.014515
2.490000	25.014515
2.500000	25.301773
2.510000	25.301773
2.520000	25.301773
2.530000	25.301773
2.540000	25.301773
2.550000	25.301773
2.560000	25.301773
2.570000	25.301773
2.580000	25.301773
2.590000	25.301773
2.600000	25.301773
2.610000	25.301773
2.620000	25.301773
2.630000	25.301773
2.640000	25.301773
2.650000	25.301773
2.660000	25.301773
2.670000	25.301773
2.680000	25.301773
2.690000	25.301773
2.700000	25.301773
2.710000	25.301773
2.720000	25.301773
2.730000	25.301773
2.740000	25.301773
2.750000	25.301773
2.760000	25.301773
2.770000	25.301773
2.780000	25.301773
2.790000	25.301773
2.800000	25.301773
2.810000	25.301773
2.820000	25.301773
2.830000	25.301773
2.840000	25.301773
2.850000	25.301773
2.860000	25.301773
2.870000	25.301773
2.880000	25.301773
2.890000	25.301773
2.900000	25.301773
2.910000	25.301773
2.920000	25.301773
2.930000	25.301773
2.940000	25.301773
2.950000	25.301773
2.960000	25.301773
2.970000	25.301773
2.980000	25.301773
2.990000	25.301773
3.000000	25.629807
3.010000	25.629807
3.020000	25.629807
3.030000	25.629807
3.040000	25.629807
3.050000	25.629807
3.060000	25.629807
3.070000	25.629807
3.080000	25.629807
3.090000	25.629807
3.100000	25.629807
3.110000	25.629807
3.120000	25.629807
3.130000	25.629807
3.140000	25.629807
3.150000	25.629807
3.160000	25.629807
3.170000	25.629807
3.180000	25.629807
3.190000	25.629807
3.200000	25.629807
3.210000	25.629807
3.220000	25.629807
3.230000	25.629807
3.240000	25.629807
3.250000	25.629807
3.260000	25.629807
3.270000	25.629807
3.280000	25.629807
3.290000	25.629807
3.300000	25.629807
3.310000	25.629807
3.320000	25.629807
3.330000	25.629807
3.340000	25.629807
3.350000	25.629807
3.360000	25.629807
3.370000	25.629807
3.380000	25.629807
3.390000	25.629807
3.400000	25.629807
3.410000	25.629807
3.420000	25.629807
3.430000	25.629807
3.440000	25.629807
3.450000	25.629807
3.460000	25.629807
3.470000	25.629807
3.480000	25.629807
3.490000	25.629807
3.500000	25.971303
3.510000	25.971303
3.520000	25.971303
3.530000	25.971303
3.540000	25.971303
3.550000	25.971303
3.560000	25.971303
3.570000	25.971303
3.580000	25.971303
3.590000	25.971303
3.600000	25.971303
3.610000	25.971303
3.620000	25.971303
3.630000	25.971303
3.640000	25.971303
3.650000	25.971303
3.660000	25.971303
3.670000	25.971303
3.680000	25.971303
3.690000	25.971303
3.700000	25.971303
3.710000	25.971303
3.720000	25.971303
3.730000	25.971303
3.740000	25.971303
3.750000	25.971303
3.760000	25.971303
3.770000	25.971303
3.780000	25.971303
3.790000	25.971303
3.800000	25.971303
3.810000	25.971303
3.820000	25.971303
3.830000	25.971303
3.840000	25.971303
3.850000	25.971303
3.860000	25.971303
3.870000	25.971303
3.880000	25.971303
3.890000	25.971303
3.900000	25.971303
3.910000	25.971303
3.920000	25.971303
3.930000	25.971303
3.940000	25.971303
3.950000	25.971303
3.960000	25.971303
3.970000	25.971303
3.980000	25.971303
3.990000	25.971303
4.000000	26.251248
4.010000	26.251248
4.020000	26.251248
4.030000	26.251248
4.040000	26.251248
4.050000	26.251248
4.060000	26.251248
4.070000	26.251248
4.080000	26.251248
4.090000	26.251248
4.100000	26.251248
4.110000	26.251248
4.120000	26.251248
4.130000	26.251248
4.140000	26.251248
4.150000	26.251248
4.160000	26.251248
4.170000	26.251248
4.180000	26.251248
4.190000	26.251248
4.200000	26.251248
4.210000	26.251248
4.220000	26.251248
4.230000	26.251248
4.240000	26.251248
4.250000	26.251248
4.260000	26.251248
4.270000	26.251248
4.280000	26.251248
4.290000	26.251248
4.300000	26.251248
4.310000	26.251248
4.320000	26.251248
4.330000	26.251248
4.340000	26.251248
4.350000	26.251248
4.360000	26.251248
4.370000	26.251248
4.380000	26.251248
4.390000	26.251248
4.400000	26.251248
4.410000	26.251248
4.420000	26.251248
4.430000	26.251248
4.440000	26.251248
4.450000	26.251248
4.460000	26.251248
4.470000	26.251248
4.480000	26.251248
4.490000	26.251248
4.500000	26.459524
4.510000	26.459524
4.520000	26.459524
4.530000	26.459524
4.540000	26.459524
4.550000	26.459524
4.560000	26.459524
4.570000	26.459524
4.580000	26.459524
4.590000	26.459524
4.600000	26.459524
4.610000	26.459524
4.620000	26.459524
4.630000	26.459524
4.640000	26.459524
4.650000	26.459524
4.660000	26.459524
4.670000	26.459524
4.680000	26.459524
4.690000	26.459524
4.700000	26.459524
4.710000	26.459524
4.720000	26.459524
4.730000	26.459524
4.740000	26.459524
4.750000	26.459524
4.760000	26.459524
4.770000	26.459524
4.780000	26.459524
4.790000	26.459524
4.800000	26.459524
4.810000	26.459524
4.820000	26.459524
4.830000	26.459524
4.840000	26.459524
4.850000	26.459524
4.860000	26.459524
4.870000	26.459524
4.880000	26.459524
4.890000	26.459524
4.900000	26.459524
4.910000	26.459524
4.920000	26.459524
4.930000	26.459524
4.940000	26.459524
4.950000	26.459524
4.960000	26.459524
4.970000	26.459524
4.980000	26.459524
4.990000	26.459524
5.000000	26.610096
5.010000	26.610096
5.020000	26.610096
5.030000	26.610096
5.040000	26.610096
5.050000	26.610096
5.060000	26.610096
5.070000	26.610096
5.080000	26.610096
5.090000	26.610096
5.100000	26.610096
5.110000	26.610096
5.120000	26.610096
5.130000	26.610096
5.140000	26.610096
5.150000	26.610096
5.160000	26.610096
5.170000	26.610096
5.180000	26.610096
5.190000	26.610096
5.200000	26.610096
5.210000	26.610096
5.220000	26.610096
5.230000	26.610096
5.240000	26.610096
5.250000	26.610096
5.260000	26.610096
5.270000	26.610096
5.280000	26.610096
5.290000	26.610096
5.300000	26.610096
5.310000	26.610096
5.320000	26.610096
5.330000	26.610096
5.340000	26.610096
5.350000	26.610096
5.360000	26.610096
5.370000	26.610096
5.380000	26.610096
5.390000	26.610096
5.400000	26.610096
5.410000	26.610096
5.420000	26.610096
5.430000	26.610096
5.440000	26.610096
5.450000	26.610096
5.460000	26.610096
5.470000	26.610096
5.480000	26.610096
5.490000	26.610096
5.500000	26.713935
5.510000	26.713935
5.520000	26.713935
5.530000	26.713935
5.540000	26.713935
5.550000	26.713935
5.560000	26.713935
5.570000	26.713935
5.580000	26.713935
5.590000	26.713935
5.600000	26.713935
5.610000	26.713935
5.620000	26.713935
5.630000	26.713935
5.640000	26.713935
5.650000	26.713935
5.660000	26.713935
5.670000	26.713935
5.680000	26.713935
5.690000	26.713935
5.700000	26.713935
5.710000	26.713935
5.720000	26.713935
5.730000	26.713935
5.740000	26.713935
5.750000	26.713935
5.760000	26.713935
5.770000	26.713935
5.780000	26.713935
5.790000	26.713935
5.800000	26.713935
5.810000	26.713935
5.820000	26.713935
5.830000	26.713935
5.840000	26.713935
5.850000	26.713935
5.860000	26.713935
5.870000	26.713935
5.880000	26.713935
5.890000	26.713935
5.900000	26.713935
5.910000	26.713935
5.920000	26.713935
5.930000	26.713935
5.940000	26.713935
5.950000	26.713935
5.960000	26.713935
5.970000	26.713935
5.980000	26.713935
5.990000	26.713935
6.000000	26.782520
6.010000	26.782520
6.020000	26.782520
6.030000	26.782520
6.040000	26.782520
6.050000	26.782520
6.060000	26.782520
6.070000	26.782520
6.080000	26.782520
6.090000	26.782520
6.100000	26.782520
6.110000	26.782520
6.120000	26.782520
6.130000	26.782520
6.140000	26.782520
6.150000	26.782520
6.160000	26.782520
6.170000	26.782520
6.180000	26.782520
6.190000	26.782520
6.200000	26.782520
6.210000	26.782520
6.220000	26.782520
6.230000	26.782520
6.240000	26.782520
6.250000	26.782520
6.260000	26.782520
6.270000	26.782520
6.280000	26.782520
6.290000	26.782520
6.300000	26.782520
6.310000	26.782520
6.320000	26.782520
6.330000	26.782520
6.340000	26.782520
6.350000	26.782520
6.360000	26.782520
6.370000	26.782520
6.380000	26.782520
6.390000	26.782520
6.400000	26.782520
6.410000	26.782520
6.420000	26.782520
6.430000	26.782520
6.440000	26.782520
6.450000	26.782520
6.460000	26.782520
6.470000	26.782520
6.480000	26.782520
6.490000	26.782520
6.500000	26.823511
6.510000	26.823511
6.520000	26.823511
6.530000	26.823511
6.540000	26.823511
6.550000	26.823511
6.560000	26.823511
6.570000	26.823511
6.580000	26.823511
6.590000	26.823511
6.600000	26.823511
6.610000	26.823511
6.620000	26.823511
6.630000	26.823511
6.640000	26.823511
6.650000	26.823511
6.660000	26.823511
6.670000	26.823511
6.680000	26.823511
6.690000	26.823511
6.700000	26.823511
6.710000	26.823511
6.720000	26.823511
6.730000	26.823511
6.740000	26.823511
6.750000	26.823511
6.760000	26.823511
6.770000	26.823511
6.780000	26.823511
6.790000	26.823511
6.800000	26.823511
6.810000	26.823511
6.820000	26.823511
6.830000	26.823511
6.840000	26.823511
6.850000	26.823511
6.860000	26.823511
6.870000	26.823511
6.880000	26.823511
6.890000	26.823511
6.900000	26.823511
6.910000	26.823511
6.920000	26.823511
6.930000	26.823511
6.940000	26.823511
6.950000	26.823511
6.960000	26.823511
6.970000	26.823511
6.980000	26.823511
6.990000	26.823511
7.000000	26.843982
7.010000	26.843982
7.020000	26.843982
7.030000	26.843982
7.040000	26.843982
7.050000	26.843982
7.060000	26.843982
7.070000	26.843982
7.080000	26.843982
7.090000	26.843982
7.100000	26.843982
7.110000	26.843982
7.120000	26.843982
7.130000	26.843982
7.140000	26.843982
7.150000	26.843982
7.160000	26.843982
7.170000	26.843982
7.180000	26.843982
7.190000	26.843982
7.200000	26.843982
7.210000	26.843982
7.220000	26.843982
7.230000	26.843982
7.240000	26.843982
7.250000	26.843982
7.260000	26.843982
7.270000	26.843982
7.280000	26.843982
7.290000	26.843982
7.300000	26.843982
7.310000	26.843982
7.320000	26.843982
7.330000	26.843982
7.340000	26.843982
7.350000	26.843982
7.360000	26.843982
7.370000	26.843982
7.380000	26.843982
7.390000	26.843982
7.400000	26.843982
7.410000	26.843982
7.420000	26.843982
7.430000	26.843982
7.440000	26.843982
7.450000	26.843982
7.460000	26.843982
7.470000	26.843982
7.480000	26.843982
7.490000	26.843982
7.500000	26.849351
7.510000	26.849351
7.520000	26.849351
7.530000	26.849351
7.540000	26.849351
7.550000	26.849351
7.560000	26.849351
7.570000	26.849351
7.580000	26.849351
7.590000	26.849351
7.600000	26.849351
7.610000	26.849351
7.620000	26.849351
7.630000	26.849351
7.640000	26.849351
7.650000	26.849351
7.660000	26.849351
7.670000	26.849351
7.680000	26.849351
7.690000	26.849351
7.700000	26.849351
7.710000	26.849351
7.720000	26.849351
7.730000	26.849351
7.740000	26.849351
7.750000	26.849351
7.760000	26.849351
7.770000	26.849351
7.780000	26.849351
7.790000	26.849351
7.800000	26.849351
7.810000	26.849351
7.820000	26.849351
7.830000	26.849351
7.840000	26.849351
7.850000	26.849351
7.860000	26.849351
7.870000	26.849351
7.880000	26.849351
7.890000	26.849351
7.900000	26.849351
7.910000	26.849351
7.920000	26.849351
7.930000	26.849351
7.940000	26.849351
7.950000	26.849351
7.960000	26.849351
7.970000	26.849351
7.980000	26.849351
7.990000	26.849351
8.000000	26.842568
8.010000	26.842568
8.020000	26.842568
8.030000	26.842568
8.040000	26.842568
8.050000	26.842568
8.060000	26.842568
8.070000	26.842568
8.080000	26.842568
8.090000	26.842568
8.100000	26.842568
8.110000	26.842568
8.120000	26.842568
8.130000	26.842568
8.140000	26.842568
8.150000	26.842568
8.160000	26.842568
8.170000	26.842568
8.180000	26.842568
8.190000	26.842568
8.200000	26.842568
8.210000	26.842568
8.220000	26.842568
8.230000	26.842568
8.240000	26.842568
8.250000	26.842568
8.260000	26.842568
8.270000	26.842568
8.280000	26.842568
8.290000	26.842568
8.300000	26.842568
8.310000	26.842568
8.320000	26.842568
8.330000	26.842568
8.340000	26.842568
8.350000	26.842568
8.360000	26.842568
8.370000	26.842568
8.380000	26.842568
8.390000	26.842568
8.400000	26.842568
8.410000	26.842568
8.420000	26.842568
8.430000	26.842568
8.440000	26.842568
8.450000	26.842568
8.460000	26.842568
8.470000	26.842568
8.480000	26.842568
8.490000	26.842568
8.500000	26.827769
8.510000	26.827769
8.520000	26.827769
8.530000	26.827769
8.540000	26.827769
8.550000	26.827769
8.560000	26.827769
8.570000	26.827769
8.580000	26.827769
8.590000	26.827769
8.600000	26.827769
8.610000	26.827769
8.620000	26.827769
8.630000	26.827769
8.640000	26.827769
8.650000	26.827769
8.660000	26.827769
8.670000	26.827769
8.680000	26.827769
8.690000	26.827769
8.700000	26.827769
8.710000	26.827769
8.720000	26.827769
8.730000	26.827769
8.740000	26.827769
8.750000	26.827769
8.760000	26.827769
8.770000	26.827769
8.780000	26.827769
8.790000	26.827769
8.800000	26.827769
8.810000	26.827769
8.820000	26.827769
8.830000	26.827769
8.840000	26.827769
8.850000	26.827769
8.860000	26.827769
8.870000	26.827769
8.880000	26.827769
8.890000	26.827769
8.900000	26.827769
8.910000	26.827769
8.920000	26.827769
8.930000	26.827769
8.940000	26.827769
8.950000	26.827769
8.960000	26.827769
8.970000	26.827769
8.980000	26.827769
8.990000	26.827769
9.000000	26.805162
9.010000	26.805162
9.020000	26.805162
9.030000	26.805162
9.040000	26.805162
9.050000	26.805162
9.060000	26.805162
9.070000	26.805162
9.080000	26.805162
9.090000	26.805162
9.100000	26.805162
9.110000	26.805162
9.120000	26.805162
9.130000	26.805162
9.140000	26.805162
9.150000	26.805162
9.160000	26.805162
9.170000	26.805162
9.180000	26.805162
9.190000	26.805162
9.200000	26.805162
9.210000	26.805162
9.220000	26.805162
9.230000	26.805162
9.240000	26.805162
9.250000	26.805162
9.260000	26.805162
9.270000	26.805162
9.280000	26.805162
9.290000	26.805162
9.300000	26.805162
9.310000	26.805162
9.320000	26.805162
9.330000	26.805162
9.340000	26.805162
9.350000	26.805162
9.360000	26.805162
9.370000	26.805162
9.380000	26.805162
9.390000	26.805162
9.400000	26.805162
9.410000	26.805162
9.420000	26.805162
9.430000	26.805162
9.440000	26.805162
9.450000	26.805162
9.460000	26.805162
9.470000	26.805162
9.480000	26.805162
9.490000	26.805162
9.500000	26.776352
9.510000	26.776352
9.520000	26.776352
9.530000	26.776352
9.540000	26.776352
9.550000	26.776352
9.560000	26.776352
9.570000	26.776352
9.580000	26.776352
9.590000	26.776352
9.600000	26.776352
9.610000	26.776352
9.620000	26.776352
9.630000	26.776352
9.640000	26.776352
9.650000	26.776352
9.660000	26.776352
9.670000	26.776352
9.680000	26.776352
9.690000	26.776352
9.700000	26.776352
9.710000	26.776352
9.720000	26.776352
9.730000	26.776352
9.740000	26.776352
9.750000	26.776352
9.760000	26.776352
9.770000	26.776352
9.780000	26.776352
9.790000	26.776352
9.800000	26.776352
9.810000	26.776352
9.820000	26.776352
9.830000	26.776352
9.840000	26.776352
9.850000	26.776352
9.860000	26.776352
9.870000	26.776352
9.880000	26.776352
9.890000	26.776352
9.900000	26.776352
9.910000	26.776352
9.920000	26.776352
9.930000	26.776352
9.940000	26.776352
9.950000	26.776352
9.960000	26.776352
9.970000	26.776352
9.980000	26.776352
9.990000	26.776352
10.000000	26.744437
10.010000	26.744437
10.020000	26.744437
10.030000	26.744437
10.040000	26.744437
10.050000	26.744437
10.060000	26.744437
10.070000	26.744437
10.080000	26.744437
10.090000	26.744437
10.100000	26.744437
10.110000	26.744437
10.120000	26.744437
10.130000	26.744437
10.140000	26.744437
10.150000	26.744437
10.160000	26.744437
10.170000	26.744437
10.180000	26.744437
10.190000	26.744437
10.200000	26.744437
10.210000	26.744437
10.220000	26.744437
10.230000	26.744437
10.240000	26.744437
10.250000	26.744437
10.260000	26.744437
10.270000	26.744437
10.280000	26.744437
10.290000	26.744437
10.300000	26.744437
10.310000	26.744437
10.320000	26.744437
10.330000	26.744437
10.340000	26.744437
10.350000	26.744437
10.360000	26.744437
10.370000	26.744437
10.380000	26.744437
10.390000	26.744437
10.400000	26.744437
10.410000	26.744437
10.420000	26.744437
10.430000	26.744437
10.440000	26.744437
10.450000	26.744437
10.460000	26.744437
10.470000	26.744437
10.480000	26.744437
10.490000	26.744437
10.500000	26.709893
10.510000	26.709893
10.520000	26.709893
10.530000	26.709893
10.540000	26.709893
10.550000	26.709893
10.560000	26.709893
10.570000	26.709893
10.580000	26.709893
10.590000	26.709893
10.600000	26.709893
10.610000	26.709893
10.620000	26.709893
10.630000	26.709893
10.640000	26.709893
10.650000	26.709893
10.660000	26.709893
10.670000	26.709893
10.680000	26.709893
10.690000	26.709893
10.700000	26.709893
10.710000	26.709893
10.720000	26.709893
10.730000	26.709893
10.740000	26.709893
10.750000	26.709893
10.760000	26.709893
10.770000	26.709893
10.780000	26.709893
10.790000	26.709893
10.800000	26.709893
10.810000	26.709893
10.820000	26.709893
10.830000	26.709893
10.840000	26.709893
10.850000	26.709893
10.860000	26.709893
10.870000	26.709893
10.880000	26.709893
10.890000	26.709893
10.900000	26.709893
10.910000	26.709893
10.920000	26.709893
10.930000	26.709893
10.940000	26.709893
10.950000	26.709893
10.960000	26.709893
10.970000	26.709893
10.980000	26.709893
10.990000	26.709893
11.000000	26.672490
11.010000	26.672490
11.020000	26.672490
11.030000	26.672490
11.040000	26.672490
11.050000	26.672490
11.060000	26.672490
11.070000	26.672490
11.080000	26.672490
11.090000	26.672490
11.100000	26.672490
11.110000	26.672490
11.120000	26.672490
11.130000	26.672490
11.140000	26.672490
11.150000	26.672490
11.160000	26.672490
11.170000	26.672490
11.180000	26.672490
11.190000	26.672490
11.200000	26.672490
11.210000	26.672490
11.220000	26.672490
11.230000	26.672490
11.240000	26.672490
11.250000	26.672490
11.260000	26.672490
11.270000	26.672490
11.280000	26.672490
11.290000	26.672490
11.300000	26.672490
11.310000	26.672490
11.320000	26.672490
11.330000	26.672490
11.340000	26.672490
11.350000	26.672490
11.360000	26.672490
11.370000	26.672490
11.380000	26.672490
11.390000	26.672490
11.400000	26.672490
11.410000	26.672490
11.420000	26.672490
11.430000	26.672490
11.440000	26.672490
11.450000	26.672490
11.460000	26.672490
11.470000	26.672490
11.480000	26.672490
11.490000	26.672490
11.500000	26.633699
11.510000	26.633699
11.520000	26.633699
11.530000	26.633699
11.540000	26.633699
11.550000	26.633699
11.560000	26.633699
11.570000	26.633699
11.580000	26.633699
11.590000	26.633699
11.600000	26.633699
11.610000	26.633699
11.620000	26.633699
11.630000	26.633699
11.640000	26.633699
11.650000	26.633699
11.660000	26.633699
11.670000	26.633699
11.680000	26.633699
11.690000	26.633699
11.700000	26.633699
11.710000	26.633699
11.720000	26.633699
11.730000	26.633699
11.740000	26.633699
11.750000	26.633699
11.760000	26.633699
11.770000	26.633699
11.780000	26.633699
11.790000	26.633699
11.800000	26.633699
11.810000	26.633699
11.820000	26.633699
11.830000	26.633699
11.840000	26.633699
11.850000	26.633699
11.860000	26.633699
11.870000	26.633699
11.880000	26.633699
11.890000	26.633699
11.900000	26.633699
11.910000	26.633699
11.920000	26.633699
11.930000	26.633699
11.940000	26.633699
11.950000	26.633699
11.960000	26.633699
11.970000	26.633699
11.980000	26.633699
11.990000	26.633699
12.000000	26.593977
12.010000	26.593977
12.020000	26.593977
12.030000	26.593977
12.040000	26.593977
12.050000	26.593977
12.060000	26.593977
12.070000	26.593977
12.080000	26.593977
12.090000	26.593977
12.100000	26.593977
12.110000	26.593977
12.120000	26.593977
12.130000	26.593977
12.140000	26.593977
12.150000	26.593977
12.160000	26.593977
12.170000	26.593977
12.180000	26.593977
12.190000	26.593977
12.200000	26.593977
12.210000	26.593977
12.220000	26.593977
12.230000	26.593977
12.240000	26.593977
12.250000	26.593977
12.260000	26.593977
12.270000	26.593977
12.280000	26.593977
12.290000	26.593977
12.300000	26.593977
12.310000	26.593977
12.320000	26.593977
12.330000	26.593977
12.340000	26.593977
12.350000	26.593977
12.360000	26.593977
12.370000	26.593977
12.380000	26.593977
12.390000	26.593977
12.400000	26.593977
12.410000	26.593977
12.420000	26.593977
12.430000	26.593977
12.440000	26.593977
12.450000	26.593977
12.460000	26.593977
12.470000	26.593977
12.480000	26.593977
12.490000	26.593977
12.500000	26.553997
12.510000	26.553997
12.520000	26.553997
12.530000	26.553997
12.540000	26.553997
12.550000	26.553997
12.560000	26.553997
12.570000	26.553997
12.580000	26.553997
12.590000	26.553997
12.600000	26.553997
12.610000	26.553997
12.620000	26.553997
12.630000	26.553997
12.640000	26.553997
12.650000	26.553997
12.660000	26.553997
12.670000	26.553997
12.680000	26.553997
12.690000	26.553997
12.700000	26.553997
12.710000	26.553997
12.720000	26.553997
12.730000	26.553997
12.740000	26.553997
12.750000	26.553997
12.760000	26.553997
12.770000	26.553997
12.780000	26.553997
12.790000	26.553997
12.800000	26.553997
12.810000	26.553997
12.820000	26.553997
12.830000	26.553997
12.840000	26.553997
12.850000	26.553997
12.860000	26.553997
12.870000	26.553997
12.880000	26.553997
12.890000	26.553997
12.900000	26.553997
12.910000	26.553997
12.920000	26.553997
12.930000	26.553997
12.940000	26.553997
12.950000	26.553997
12.960000	26.553997
12.970000	26.553997
12.980000	26.553997
12.990000	26.553997
13.000000	26.513510
13.010000	26.513510
13.020000	26.513510
13.030000	26.513510
13.040000	26.513510
13.050000	26.513510
13.060000	26.513510
13.070000	26.513510
13.080000	26.513510
13.090000	26.513510
13.100000	26.513510
13.110000	26.513510
13.120000	26.513510
13.130000	26.513510
13.140000	26.513510
13.150000	26.513510
13.160000	26.513510
13.170000	26.513510
13.180000	26.513510
13.190000	26.513510
13.200000	26.513510
13.210000	26.513510
13.220000	26.513510
13.230000	26.513510
13.240000	26.513510
13.250000	26.513510
13.260000	26.513510
13.270000	26.513510
13.280000	26.513510
13.290000	26.513510
13.300000	26.513510
13.310000	26.513510
13.320000	26.513510
13.330000	26.513510
13.340000	26.513510
13.350000	26.513510
13.360000	26.513510
13.370000	26.513510
13.380000	26.513510
13.390000	26.513510
13.400000	26.513510
13.410000	26.513510
13.420000	26.513510
13.430000	26.513510
13.440000	26.513510
13.450000	26.513510
13.460000	26.513510
13.470000	26.513510
13.480000	26.513510
13.490000	26.513510
13.500000	26.471014
13.510000	26.471014
13.520000	26.471014
13.530000	26.471014
13.540000	26.471014
13.550000	26.471014
13.560000	26.471014
13.570000	26.471014
13.580000	26.471014
13.590000	26.471014
13.600000	26.471014
13.610000	26.471014
13.620000	26.471014
13.630000	26.471014
13.640000	26.471014
13.650000	26.471014
13.660000	26.471014
13.670000	26.471014
13.680000	26.471014
13.690000	26.471014
13.700000	26.471014
13.710000	26.471014
13.720000	26.471014
13.730000	26.471014
13.740000	26.471014
13.750000	26.471014
13.760000	26.471014
13.770000	26.471014
13.780000	26.471014
13.790000	26.471014
13.800000	26.471014
13.810000	26.471014
13.820000	26.471014
13.830000	26.471014
13.840000	26.471014
13.850000	26.471014
13.860000	26.471014
13.870000	26.471014
13.880000	26.471014
13.890000	26.471014
13.900000	26.471014
13.910000	26.471014
13.920000	26.471014
13.930000	26.471014
13.940000	26.471014
13.950000	26.471014
13.960000	26.471014
13.970000	26.471014
13.980000	26.471014
13.990000	26.471014
14.000000	26.430520
14.010000	26.430520
14.020000	26.430520
14.030000	26.430520
14.040000	26.430520
14.050000	26.430520
14.060000	26.430520
14.070000	26.430520
14.080000	26.430520
14.090000	26.430520
14.100000	26.430520
14.110000	26.430520
14.120000	26.430520
14.130000	26.430520
14.140000	26.430520
14.150000	26.430520
14.160000	26.430520
14.170000	26.430520
14.180000	26.430520
14.190000	26.430520
14.200000	26.430520
14.210000	26.430520
14.220000	26.430520
14.230000	26.430520
14.240000	26.430520
14.250000	26.430520
14.260000	26.430520
14.270000	26.430520
14.280000	26.430520
14.290000	26.430520
14.300000	26.430520
14.310000	26.430520
14.320000	26.430520
14.330000	26.430520
14.340000	26.430520
14.350000	26.430520
14.360000	26.430520
14.370000	26.430520
14.380000	26.430520
14.390000	26.430520
14.400000	26.430520
14.410000	26.430520
14.420000	26.430520
14.430000	26.430520
14.440000	26.430520
14.450000	26.430520
14.460000	26.430520
14.470000	26.430520
14.480000	26.430520
14.490000	26.430520
14.500000	26.391108
14.510000	26.391108
14.520000	26.391108
14.530000	26.391108
14.540000	26.391108
14.550000	26.391108
14.560000	26.391108
14.570000	26.391108
14.580000	26.391108
14.590000	26.391108
14.600000	26.391108
14.610000	26.391108
14.620000	26.391108
14.630000	26.391108
14.640000	26.391108
14.650000	26.391108
14.660000	26.391108
14.670000	26.391108
14.680000	26.391108
14.690000	26.391108
14.700000	26.391108
14.710000	26.391108
14.720000	26.391108
14.730000	26.391108
14.740000	26.391108
14.750000	26.391108
14.760000	26.391108
14.770000	26.391108
14.780000	26.391108
14.790000	26.391108
14.800000	26.391108
14.810000	26.391108
14.820000	26.391108
14.830000	26.391108
14.840000	26.391108
14.850000	26.391108
14.860000	26.391108
14.870000	26.391108
14.880000	26.391108
14.890000	26.391108
14.900000	26.391108
14.910000	26.391108
14.920000	26.391108
14.930000	26.391108
14.940000	26.391108
14.950000	26.391108
14.960000	26.391108
14.970000	26.391108
14.980000	26.391108
14.990000	26.391108
15.000000	26.352111
15.010000	26.352111
15.020000	26.352111
15.030000	26.352111
15.040000	26.352111
15.050000	26.352111
15.060000	26.352111
15.070000	26.352111
15.080000	26.352111
15.090000	26.352111
15.100000	26.352111
15.110000	26.352111
15.120000	26.352111
15.130000	26.352111
15.140000	26.352111
15.150000	26.352111
15.160000	26.352111
15.170000	26.352111
15.180000	26.352111
15.190000	26.352111
15.200000	26.352111
15.210000	26.352111
15.220000	26.352111
15.230000	26.352111
15.240000	26.352111
15.250000	26.352111
15.260000	26.352111
15.270000	26.352111
15.280000	26.352111
15.290000	26.352111
15.300000	26.352111
15.310000	26.352111
15.320000	26.352111
15.330000	26.352111
15.340000	26.352111
15.350000	26.352111
15.360000	26.352111
15.370000	26.352111
15.380000	26.352111
15.390000	26.352111
15.400000	26.352111
15.410000	26.352111
15.420000	26.352111
15.430000	26.352111
15.440000	26.352111
15.450000	26.352111
15.460000	26.352111
15.470000	26.352111
15.480000	26.352111
15.490000	26.352111
15.500000	26.313369
15.510000	26.313369
15.520000	26.313369
15.530000	26.313369
15.540000	26.313369
15.550000	26.313369
15.560000	26.313369
15.570000	26.313369
15.580000	26.313369
15.590000	26.313369
15.600000	26.313369
15.610000	26.313369
15.620000	26.313369
15.630000	26.313369
15.640000	26.313369
15.650000	26.313369
15.660000	26.313369
15.670000	26.313369
15.680000	26.313369
15.690000	26.313369
15.700000	26.313369
15.710000	26.313369
15.720000	26.313369
15.730000	26.313369
15.740000	26.313369
15.750000	26.313369
15.760000	26.313369
15.770000	26.313369
15.780000	26.313369
15.790000	26.313369
15.800000	26.313369
15.810000	26.313369
15.820000	26.313369
15.830000	26.313369
15.840000	26.313369
15.850000	26.313369
15.860000	26.313369
15.870000	26.313369
15.880000	26.313369
15.890000	26.313369
15.900000	26.313369
15.910000	26.313369
15.920000	26.313369
15.930000	26.313369
15.940000	26.313369
15.950000	26.313369
15.960000	26.313369
15.970000	26.313369
15.980000	26.313369
15.990000	26.313369
16.000000	26.275858
16.010000	26.275858
16.020000	26.275858
16.030000	26.275858
16.040000	26.275858
16.050000	26.275858
16.060000	26.275858
16.070000	26.275858
16.080000	26.275858
16.090000	26.275858
16.100000	26.275858
16.110000	26.275858
16.120000	26.275858
16.130000	26.275858
16.140000	26.275858
16.150000	26.275858
16.160000	26.275858
16.170000	26.275858
16.180000	26.275858
16.190000	26.275858
16.200000	26.275858
16.210000	26.275858
16.220000	26.275858
16.230000	26.275858
16.240000	26.275858
16.250000	26.275858
16.260000	26.275858
16.270000	26.275858
16.280000	26.275858
16.290000	26.275858
16.300000	26.275858
16.310000	26.275858
16.320000	26.275858
16.330000	26.275858
16.340000	26.275858
16.350000	26.275858
16.360000	26.275858
16.370000	26.275858
16.380000	26.275858
16.390000	26.275858
16.400000	26.275858
16.410000	26.275858
16.420000	26.275858
16.430000	26.275858
16.440000	26.275858
16.450000	26.275858
16.460000	26.275858
16.470000	26.275858
16.480000	26.275858
16.490000	26.275858
16.500000	26.239312
16.510000	26.239312
16.520000	26.239312
16.530000	26.239312
16.540000	26.239312
16.550000	26.239312
16.560000	26.239312
16.570000	26.239312
16.580000	26.239312
16.590000	26.239312
16.600000	26.239312
16.610000	26.239312
16.620000	26.239312
16.630000	26.239312
16.640000	26.239312
16.650000	26.239312
16.660000	26.239312
16.670000	26.239312
16.680000	26.239312
16.690000	26.239312
16.700000	26.239312
16.710000	26.239312
16.720000	26.239312
16.730000	26.239312
16.740000	26.239312
16.750000	26.239312
16.760000	26.239312
16.770000	26.239312
16.780000	26.239312
16.790000	26.239312
16.800000	26.239312
16.810000	26.239312
16.820000	26.239312
16.830000	26.239312
16.840000	26.239312
16.850000	26.239312
16.860000	26.239312
16.870000	26.239312
16.880000	26.239312
16.890000	26.239312
16.900000	26.239312
16.910000	26.239312
16.920000	26.239312
16.930000	26.239312
16.940000	26.239312
16.950000	26.239312
16.960000	26.239312
16.970000	26.239312
16.980000	26.239312
16.990000	26.239312
17.000000	26.203506
17.010000	26.203506
17.020000	26.203506
17.030000	26.203506
17.040000	26.203506
17.050000	26.203506
17.060000	26.203506
17.070000	26.203506
17.080000	26.203506
17.090000	26.203506
17.100000	26.203506
17.110000	26.203506
17.120000	26.203506
17.130000	26.203506
17.140000	26.203506
17.150000	26.203506
17.160000	26.203506
17.170000	26.203506
17.180000	26.203506
17.190000	26.203506
17.200000	26.203506
17.210000	26.203506
17.220000	26.203506
17.230000	26.203506
17.240000	26.203506
17.250000	26.203506
17.260000	26.203506
17.270000	26.203506
17.280000	26.203506
17.290000	26.203506
17.300000	26.203506
17.310000	26.203506
17.320000	26.203506
17.330000	26.203506
17.340000	26.203506
17.350000	26.203506
17.360000	26.203506
17.370000	26.203506
17.380000	26.203506
17.390000	26.203506
17.400000	26.203506
17.410000	26.203506
17.420000	26.203506
17.430000	26.203506
17.440000	26.203506
17.450000	26.203506
17.460000	26.203506
17.470000	26.203506
17.480000	26.203506
17.490000	26.203506
17.500000	26.168735
17.510000	26.168735
17.520000	26.168735
17.530000	26.168735
17.540000	26.168735
17.550000	26.168735
17.560000	26.168735
17.570000	26.168735
17.580000	26.168735
17.590000	26.168735
17.600000	26.168735
17.610000	26.168735
17.620000	26.168735
17.630000	26.168735
17.640000	26.168735
17.650000	26.168735
17.660000	26.168735
17.670000	26.168735
17.680000	26.168735
17.690000	26.168735
17.700000	26.168735
17.710000	26.168735
17.720000	26.168735
17.730000	26.168735
17.740000	26.168735
17.750000	26.168735
17.760000	26.168735
17.770000	26.168735
17.780000	26.168735
17.790000	26.168735
17.800000	26.168735
17.810000	26.168735
17.820000	26.168735
17.830000	26.168735
17.840000	26.168735
17.850000	26.168735
17.860000	26.168735
17.870000	26.168735
17.880000	26.168735
17.890000	26.168735
17.900000	26.168735
17.910000	26.168735
17.920000	26.168735
17.930000	26.168735
17.940000	26.168735
17.950000	26.168735
17.960000	26.168735
17.970000	26.168735
17.980000	26.168735
17.990000	26.168735
