LabVIEW Measurement	
Writer_Version	2
Reader_Version	2
Separator	Tab
Decimal_Separator	.
Multi_Headings	No
X_Columns	One
Time_Pref	Absolute
Operator	biomech-dyno
Date	2023/05/24
Time	15:19:49.9492761999999796612
***End_of_Header***	
	
Channels	1	
Samples	10	
Date	2023/05/24	
Time	15:32:42.1871000999998565173	
X_Dimension	Time	
X0	0.0000000000000000E+0	
Delta_X	0.010000	
***End_of_Header***		
X_Value	Untitled	Comment
0.000000	24.612579
0.010000	24.612579
0.020000	24.612579
0.030000	24.612579
0.040000	24.612579
0.050000	24.612579
0.060000	24.612579
0.070000	24.612579
0.080000	24.612579
0.090000	24.612579
0.100000	24.612579
0.110000	24.612579
0.120000	24.612579
0.130000	24.612579
0.140000	24.612579
0.150000	24.612579
0.160000	24.612579
0.170000	24.612579
0.180000	24.612579
0.190000	24.612579
0.200000	24.612579
0.210000	24.612579
0.220000	24.612579
0.230000	24.612579
0.240000	24.612579
0.250000	24.612579
0.260000	24.612579
0.270000	24.612579
0.280000	24.612579
0.290000	24.612579
0.300000	24.612579
0.310000	24.612579
0.320000	24.612579
0.330000	24.612579
0.340000	24.612579
0.350000	24.612579
0.360000	24.612579
0.370000	24.612579
0.380000	24.612579
0.390000	24.612579
0.400000	24.612579
0.410000	24.612579
0.420000	24.612579
0.430000	24.612579
0.440000	24.612579
0.450000	24.612579
0.460000	24.612579
0.470000	24.612579
0.480000	24.612579
0.490000	24.612579
0.500000	24.619892
0.510000	24.619892
0.520000	24.619892
0.530000	24.619892
0.540000	24.619892
0.550000	24.619892
0.560000	24.619892
0.570000	24.619892
0.580000	24.619892
0.590000	24.619892
0.600000	24.619892
0.610000	24.619892
0.620000	24.619892
0.630000	24.619892
0.640000	24.619892
0.650000	24.619892
0.660000	24.619892
0.670000	24.619892
0.680000	24.619892
0.690000	24.619892
0.700000	24.619892
0.710000	24.619892
0.720000	24.619892
0.730000	24.619892
0.740000	24.619892
0.750000	24.619892
0.760000	24.619892
0.770000	24.619892
0.780000	24.619892
0.790000	24.619892
0.800000	24.619892
0.810000	24.619892
0.820000	24.619892
0.830000	24.619892
0.840000	24.619892
0.850000	24.619892
0.860000	24.619892
0.870000	24.619892
0.880000	24.619892
0.890000	24.619892
0.900000	24.619892
0.910000	24.619892
0.920000	24.619892
0.930000	24.619892
0.940000	24.619892
0.950000	24.619892
0.960000	24.619892
0.970000	24.619892
0.980000	24.619892
0.990000	24.619892
1.000000	24.630830
1.010000	24.630830
1.020000	24.630830
1.030000	24.630830
1.040000	24.630830
1.050000	24.630830
1.060000	24.630830
1.070000	24.630830
1.080000	24.630830
1.090000	24.630830
1.100000	24.630830
1.110000	24.630830
1.120000	24.630830
1.130000	24.630830
1.140000	24.630830
1.150000	24.630830
1.160000	24.630830
1.170000	24.630830
1.180000	24.630830
1.190000	24.630830
1.200000	24.630830
1.210000	24.630830
1.220000	24.630830
1.230000	24.630830
1.240000	24.630830
1.250000	24.630830
1.260000	24.630830
1.270000	24.630830
1.280000	24.630830
1.290000	24.630830
1.300000	24.630830
1.310000	24.630830
1.320000	24.630830
1.330000	24.630830
1.340000	24.630830
1.350000	24.630830
1.360000	24.630830
1.370000	24.630830
1.380000	24.630830
1.390000	24.630830
1.400000	24.630830
1.410000	24.630830
1.420000	24.630830
1.430000	24.630830
1.440000	24.630830
1.450000	24.630830
1.460000	24.630830
1.470000	24.630830
1.480000	24.630830
1.490000	24.630830
1.500000	24.647422
1.510000	24.647422
1.520000	24.647422
1.530000	24.647422
1.540000	24.647422
1.550000	24.647422
1.560000	24.647422
1.570000	24.647422
1.580000	24.647422
1.590000	24.647422
1.600000	24.647422
1.610000	24.647422
1.620000	24.647422
1.630000	24.647422
1.640000	24.647422
1.650000	24.647422
1.660000	24.647422
1.670000	24.647422
1.680000	24.647422
1.690000	24.647422
1.700000	24.647422
1.710000	24.647422
1.720000	24.647422
1.730000	24.647422
1.740000	24.647422
1.750000	24.647422
1.760000	24.647422
1.770000	24.647422
1.780000	24.647422
1.790000	24.647422
1.800000	24.647422
1.810000	24.647422
1.820000	24.647422
1.830000	24.647422
1.840000	24.647422
1.850000	24.647422
1.860000	24.647422
1.870000	24.647422
1.880000	24.647422
1.890000	24.647422
1.900000	24.647422
1.910000	24.647422
1.920000	24.647422
1.930000	24.647422
1.940000	24.647422
1.950000	24.647422
1.960000	24.647422
1.970000	24.647422
1.980000	24.647422
1.990000	24.647422
2.000000	24.670324
2.010000	24.670324
2.020000	24.670324
2.030000	24.670324
2.040000	24.670324
2.050000	24.670324
2.060000	24.670324
2.070000	24.670324
2.080000	24.670324
2.090000	24.670324
2.100000	24.670324
2.110000	24.670324
2.120000	24.670324
2.130000	24.670324
2.140000	24.670324
2.150000	24.670324
2.160000	24.670324
2.170000	24.670324
2.180000	24.670324
2.190000	24.670324
2.200000	24.670324
2.210000	24.670324
2.220000	24.670324
2.230000	24.670324
2.240000	24.670324
2.250000	24.670324
2.260000	24.670324
2.270000	24.670324
2.280000	24.670324
2.290000	24.670324
2.300000	24.670324
2.310000	24.670324
2.320000	24.670324
2.330000	24.670324
2.340000	24.670324
2.350000	24.670324
2.360000	24.670324
2.370000	24.670324
2.380000	24.670324
2.390000	24.670324
2.400000	24.670324
2.410000	24.670324
2.420000	24.670324
2.430000	24.670324
2.440000	24.670324
2.450000	24.670324
2.460000	24.670324
2.470000	24.670324
2.480000	24.670324
2.490000	24.670324
2.500000	24.698215
2.510000	24.698215
2.520000	24.698215
2.530000	24.698215
2.540000	24.698215
2.550000	24.698215
2.560000	24.698215
2.570000	24.698215
2.580000	24.698215
2.590000	24.698215
2.600000	24.698215
2.610000	24.698215
2.620000	24.698215
2.630000	24.698215
2.640000	24.698215
2.650000	24.698215
2.660000	24.698215
2.670000	24.698215
2.680000	24.698215
2.690000	24.698215
2.700000	24.698215
2.710000	24.698215
2.720000	24.698215
2.730000	24.698215
2.740000	24.698215
2.750000	24.698215
2.760000	24.698215
2.770000	24.698215
2.780000	24.698215
2.790000	24.698215
2.800000	24.698215
2.810000	24.698215
2.820000	24.698215
2.830000	24.698215
2.840000	24.698215
2.850000	24.698215
2.860000	24.698215
2.870000	24.698215
2.880000	24.698215
2.890000	24.698215
2.900000	24.698215
2.910000	24.698215
2.920000	24.698215
2.930000	24.698215
2.940000	24.698215
2.950000	24.698215
2.960000	24.698215
2.970000	24.698215
2.980000	24.698215
2.990000	24.698215
3.000000	24.728970
3.010000	24.728970
3.020000	24.728970
3.030000	24.728970
3.040000	24.728970
3.050000	24.728970
3.060000	24.728970
3.070000	24.728970
3.080000	24.728970
3.090000	24.728970
3.100000	24.728970
3.110000	24.728970
3.120000	24.728970
3.130000	24.728970
3.140000	24.728970
3.150000	24.728970
3.160000	24.728970
3.170000	24.728970
3.180000	24.728970
3.190000	24.728970
3.200000	24.728970
3.210000	24.728970
3.220000	24.728970
3.230000	24.728970
3.240000	24.728970
3.250000	24.728970
3.260000	24.728970
3.270000	24.728970
3.280000	24.728970
3.290000	24.728970
3.300000	24.728970
3.310000	24.728970
3.320000	24.728970
3.330000	24.728970
3.340000	24.728970
3.350000	24.728970
3.360000	24.728970
3.370000	24.728970
3.380000	24.728970
3.390000	24.728970
3.400000	24.728970
3.410000	24.728970
3.420000	24.728970
3.430000	24.728970
3.440000	24.728970
3.450000	24.728970
3.460000	24.728970
3.470000	24.728970
3.480000	24.728970
3.490000	24.728970
3.500000	24.761214
3.510000	24.761214
3.520000	24.761214
3.530000	24.761214
3.540000	24.761214
3.550000	24.761214
3.560000	24.761214
3.570000	24.761214
3.580000	24.761214
3.590000	24.761214
3.600000	24.761214
3.610000	24.761214
3.620000	24.761214
3.630000	24.761214
3.640000	24.761214
3.650000	24.761214
3.660000	24.761214
3.670000	24.761214
3.680000	24.761214
3.690000	24.761214
3.700000	24.761214
3.710000	24.761214
3.720000	24.761214
3.730000	24.761214
3.740000	24.761214
3.750000	24.761214
3.760000	24.761214
3.770000	24.761214
3.780000	24.761214
3.790000	24.761214
3.800000	24.761214
3.810000	24.761214
3.820000	24.761214
3.830000	24.761214
3.840000	24.761214
3.850000	24.761214
3.860000	24.761214
3.870000	24.761214
3.880000	24.761214
3.890000	24.761214
3.900000	24.761214
3.910000	24.761214
3.920000	24.761214
3.930000	24.761214
3.940000	24.761214
3.950000	24.761214
3.960000	24.761214
3.970000	24.761214
3.980000	24.761214
3.990000	24.761214
4.000000	24.789052
4.010000	24.789052
4.020000	24.789052
4.030000	24.789052
4.040000	24.789052
4.050000	24.789052
4.060000	24.789052
4.070000	24.789052
4.080000	24.789052
4.090000	24.789052
4.100000	24.789052
4.110000	24.789052
4.120000	24.789052
4.130000	24.789052
4.140000	24.789052
4.150000	24.789052
4.160000	24.789052
4.170000	24.789052
4.180000	24.789052
4.190000	24.789052
4.200000	24.789052
4.210000	24.789052
4.220000	24.789052
4.230000	24.789052
4.240000	24.789052
4.250000	24.789052
4.260000	24.789052
4.270000	24.789052
4.280000	24.789052
4.290000	24.789052
4.300000	24.789052
4.310000	24.789052
4.320000	24.789052
4.330000	24.789052
4.340000	24.789052
4.350000	24.789052
4.360000	24.789052
4.370000	24.789052
4.380000	24.789052
4.390000	24.789052
4.400000	24.789052
4.410000	24.789052
4.420000	24.789052
4.430000	24.789052
4.440000	24.789052
4.450000	24.789052
4.460000	24.789052
4.470000	24.789052
4.480000	24.789052
4.490000	24.789052
4.500000	24.812164
4.510000	24.812164
4.520000	24.812164
4.530000	24.812164
4.540000	24.812164
4.550000	24.812164
4.560000	24.812164
4.570000	24.812164
4.580000	24.812164
4.590000	24.812164
4.600000	24.812164
4.610000	24.812164
4.620000	24.812164
4.630000	24.812164
4.640000	24.812164
4.650000	24.812164
4.660000	24.812164
4.670000	24.812164
4.680000	24.812164
4.690000	24.812164
4.700000	24.812164
4.710000	24.812164
4.720000	24.812164
4.730000	24.812164
4.740000	24.812164
4.750000	24.812164
4.760000	24.812164
4.770000	24.812164
4.780000	24.812164
4.790000	24.812164
4.800000	24.812164
4.810000	24.812164
4.820000	24.812164
4.830000	24.812164
4.840000	24.812164
4.850000	24.812164
4.860000	24.812164
4.870000	24.812164
4.880000	24.812164
4.890000	24.812164
4.900000	24.812164
4.910000	24.812164
4.920000	24.812164
4.930000	24.812164
4.940000	24.812164
4.950000	24.812164
4.960000	24.812164
4.970000	24.812164
4.980000	24.812164
4.990000	24.812164
5.000000	24.831645
5.010000	24.831645
5.020000	24.831645
5.030000	24.831645
5.040000	24.831645
5.050000	24.831645
5.060000	24.831645
5.070000	24.831645
5.080000	24.831645
5.090000	24.831645
5.100000	24.831645
5.110000	24.831645
5.120000	24.831645
5.130000	24.831645
5.140000	24.831645
5.150000	24.831645
5.160000	24.831645
5.170000	24.831645
5.180000	24.831645
5.190000	24.831645
5.200000	24.831645
5.210000	24.831645
5.220000	24.831645
5.230000	24.831645
5.240000	24.831645
5.250000	24.831645
5.260000	24.831645
5.270000	24.831645
5.280000	24.831645
5.290000	24.831645
5.300000	24.831645
5.310000	24.831645
5.320000	24.831645
5.330000	24.831645
5.340000	24.831645
5.350000	24.831645
5.360000	24.831645
5.370000	24.831645
5.380000	24.831645
5.390000	24.831645
5.400000	24.831645
5.410000	24.831645
5.420000	24.831645
5.430000	24.831645
5.440000	24.831645
5.450000	24.831645
5.460000	24.831645
5.470000	24.831645
5.480000	24.831645
5.490000	24.831645
5.500000	24.847199
5.510000	24.847199
5.520000	24.847199
5.530000	24.847199
5.540000	24.847199
5.550000	24.847199
5.560000	24.847199
5.570000	24.847199
5.580000	24.847199
5.590000	24.847199
5.600000	24.847199
5.610000	24.847199
5.620000	24.847199
5.630000	24.847199
5.640000	24.847199
5.650000	24.847199
5.660000	24.847199
5.670000	24.847199
5.680000	24.847199
5.690000	24.847199
5.700000	24.847199
5.710000	24.847199
5.720000	24.847199
5.730000	24.847199
5.740000	24.847199
5.750000	24.847199
5.760000	24.847199
5.770000	24.847199
5.780000	24.847199
5.790000	24.847199
5.800000	24.847199
5.810000	24.847199
5.820000	24.847199
5.830000	24.847199
5.840000	24.847199
5.850000	24.847199
5.860000	24.847199
5.870000	24.847199
5.880000	24.847199
5.890000	24.847199
5.900000	24.847199
5.910000	24.847199
5.920000	24.847199
5.930000	24.847199
5.940000	24.847199
5.950000	24.847199
5.960000	24.847199
5.970000	24.847199
5.980000	24.847199
5.990000	24.847199
6.000000	24.859823
6.010000	24.859823
6.020000	24.859823
6.030000	24.859823
6.040000	24.859823
6.050000	24.859823
6.060000	24.859823
6.070000	24.859823
6.080000	24.859823
6.090000	24.859823
6.100000	24.859823
6.110000	24.859823
6.120000	24.859823
6.130000	24.859823
6.140000	24.859823
6.150000	24.859823
6.160000	24.859823
6.170000	24.859823
6.180000	24.859823
6.190000	24.859823
6.200000	24.859823
6.210000	24.859823
6.220000	24.859823
6.230000	24.859823
6.240000	24.859823
6.250000	24.859823
6.260000	24.859823
6.270000	24.859823
6.280000	24.859823
6.290000	24.859823
6.300000	24.859823
6.310000	24.859823
6.320000	24.859823
6.330000	24.859823
6.340000	24.859823
6.350000	24.859823
6.360000	24.859823
6.370000	24.859823
6.380000	24.859823
6.390000	24.859823
6.400000	24.859823
6.410000	24.859823
6.420000	24.859823
6.430000	24.859823
6.440000	24.859823
6.450000	24.859823
6.460000	24.859823
6.470000	24.859823
6.480000	24.859823
6.490000	24.859823
6.500000	24.868958
6.510000	24.868958
6.520000	24.868958
6.530000	24.868958
6.540000	24.868958
6.550000	24.868958
6.560000	24.868958
6.570000	24.868958
6.580000	24.868958
6.590000	24.868958
6.600000	24.868958
6.610000	24.868958
6.620000	24.868958
6.630000	24.868958
6.640000	24.868958
6.650000	24.868958
6.660000	24.868958
6.670000	24.868958
6.680000	24.868958
6.690000	24.868958
6.700000	24.868958
6.710000	24.868958
6.720000	24.868958
6.730000	24.868958
6.740000	24.868958
6.750000	24.868958
6.760000	24.868958
6.770000	24.868958
6.780000	24.868958
6.790000	24.868958
6.800000	24.868958
6.810000	24.868958
6.820000	24.868958
6.830000	24.868958
6.840000	24.868958
6.850000	24.868958
6.860000	24.868958
6.870000	24.868958
6.880000	24.868958
6.890000	24.868958
6.900000	24.868958
6.910000	24.868958
6.920000	24.868958
6.930000	24.868958
6.940000	24.868958
6.950000	24.868958
6.960000	24.868958
6.970000	24.868958
6.980000	24.868958
6.990000	24.868958
7.000000	24.875757
7.010000	24.875757
7.020000	24.875757
7.030000	24.875757
7.040000	24.875757
7.050000	24.875757
7.060000	24.875757
7.070000	24.875757
7.080000	24.875757
7.090000	24.875757
7.100000	24.875757
7.110000	24.875757
7.120000	24.875757
7.130000	24.875757
7.140000	24.875757
7.150000	24.875757
7.160000	24.875757
7.170000	24.875757
7.180000	24.875757
7.190000	24.875757
7.200000	24.875757
7.210000	24.875757
7.220000	24.875757
7.230000	24.875757
7.240000	24.875757
7.250000	24.875757
7.260000	24.875757
7.270000	24.875757
7.280000	24.875757
7.290000	24.875757
7.300000	24.875757
7.310000	24.875757
7.320000	24.875757
7.330000	24.875757
7.340000	24.875757
7.350000	24.875757
7.360000	24.875757
7.370000	24.875757
7.380000	24.875757
7.390000	24.875757
7.400000	24.875757
7.410000	24.875757
7.420000	24.875757
7.430000	24.875757
7.440000	24.875757
7.450000	24.875757
7.460000	24.875757
7.470000	24.875757
7.480000	24.875757
7.490000	24.875757
7.500000	24.881032
7.510000	24.881032
7.520000	24.881032
7.530000	24.881032
7.540000	24.881032
7.550000	24.881032
7.560000	24.881032
7.570000	24.881032
7.580000	24.881032
7.590000	24.881032
7.600000	24.881032
7.610000	24.881032
7.620000	24.881032
7.630000	24.881032
7.640000	24.881032
7.650000	24.881032
7.660000	24.881032
7.670000	24.881032
7.680000	24.881032
7.690000	24.881032
7.700000	24.881032
7.710000	24.881032
7.720000	24.881032
7.730000	24.881032
7.740000	24.881032
7.750000	24.881032
7.760000	24.881032
7.770000	24.881032
7.780000	24.881032
7.790000	24.881032
7.800000	24.881032
7.810000	24.881032
7.820000	24.881032
7.830000	24.881032
7.840000	24.881032
7.850000	24.881032
7.860000	24.881032
7.870000	24.881032
7.880000	24.881032
7.890000	24.881032
7.900000	24.881032
7.910000	24.881032
7.920000	24.881032
7.930000	24.881032
7.940000	24.881032
7.950000	24.881032
7.960000	24.881032
7.970000	24.881032
7.980000	24.881032
7.990000	24.881032
8.000000	24.884370
8.010000	24.884370
8.020000	24.884370
8.030000	24.884370
8.040000	24.884370
8.050000	24.884370
8.060000	24.884370
8.070000	24.884370
8.080000	24.884370
8.090000	24.884370
8.100000	24.884370
8.110000	24.884370
8.120000	24.884370
8.130000	24.884370
8.140000	24.884370
8.150000	24.884370
8.160000	24.884370
8.170000	24.884370
8.180000	24.884370
8.190000	24.884370
8.200000	24.884370
8.210000	24.884370
8.220000	24.884370
8.230000	24.884370
8.240000	24.884370
8.250000	24.884370
8.260000	24.884370
8.270000	24.884370
8.280000	24.884370
8.290000	24.884370
8.300000	24.884370
8.310000	24.884370
8.320000	24.884370
8.330000	24.884370
8.340000	24.884370
8.350000	24.884370
8.360000	24.884370
8.370000	24.884370
8.380000	24.884370
8.390000	24.884370
8.400000	24.884370
8.410000	24.884370
8.420000	24.884370
8.430000	24.884370
8.440000	24.884370
8.450000	24.884370
8.460000	24.884370
8.470000	24.884370
8.480000	24.884370
8.490000	24.884370
8.500000	24.886419
8.510000	24.886419
8.520000	24.886419
8.530000	24.886419
8.540000	24.886419
8.550000	24.886419
8.560000	24.886419
8.570000	24.886419
8.580000	24.886419
8.590000	24.886419
8.600000	24.886419
8.610000	24.886419
8.620000	24.886419
8.630000	24.886419
8.640000	24.886419
8.650000	24.886419
8.660000	24.886419
8.670000	24.886419
8.680000	24.886419
8.690000	24.886419
8.700000	24.886419
8.710000	24.886419
8.720000	24.886419
8.730000	24.886419
8.740000	24.886419
8.750000	24.886419
8.760000	24.886419
8.770000	24.886419
8.780000	24.886419
8.790000	24.886419
8.800000	24.886419
8.810000	24.886419
8.820000	24.886419
8.830000	24.886419
8.840000	24.886419
8.850000	24.886419
8.860000	24.886419
8.870000	24.886419
8.880000	24.886419
8.890000	24.886419
8.900000	24.886419
8.910000	24.886419
8.920000	24.886419
8.930000	24.886419
8.940000	24.886419
8.950000	24.886419
8.960000	24.886419
8.970000	24.886419
8.980000	24.886419
8.990000	24.886419
9.000000	24.886817
9.010000	24.886817
9.020000	24.886817
9.030000	24.886817
9.040000	24.886817
9.050000	24.886817
9.060000	24.886817
9.070000	24.886817
9.080000	24.886817
9.090000	24.886817
9.100000	24.886817
9.110000	24.886817
9.120000	24.886817
9.130000	24.886817
9.140000	24.886817
9.150000	24.886817
9.160000	24.886817
9.170000	24.886817
9.180000	24.886817
9.190000	24.886817
9.200000	24.886817
9.210000	24.886817
9.220000	24.886817
9.230000	24.886817
9.240000	24.886817
9.250000	24.886817
9.260000	24.886817
9.270000	24.886817
9.280000	24.886817
9.290000	24.886817
9.300000	24.886817
9.310000	24.886817
9.320000	24.886817
9.330000	24.886817
9.340000	24.886817
9.350000	24.886817
9.360000	24.886817
9.370000	24.886817
9.380000	24.886817
9.390000	24.886817
9.400000	24.886817
9.410000	24.886817
9.420000	24.886817
9.430000	24.886817
9.440000	24.886817
9.450000	24.886817
9.460000	24.886817
9.470000	24.886817
9.480000	24.886817
9.490000	24.886817
9.500000	24.886947
9.510000	24.886947
9.520000	24.886947
9.530000	24.886947
9.540000	24.886947
9.550000	24.886947
9.560000	24.886947
9.570000	24.886947
9.580000	24.886947
9.590000	24.886947
9.600000	24.886947
9.610000	24.886947
9.620000	24.886947
9.630000	24.886947
9.640000	24.886947
9.650000	24.886947
9.660000	24.886947
9.670000	24.886947
9.680000	24.886947
9.690000	24.886947
9.700000	24.886947
9.710000	24.886947
9.720000	24.886947
9.730000	24.886947
9.740000	24.886947
9.750000	24.886947
9.760000	24.886947
9.770000	24.886947
9.780000	24.886947
9.790000	24.886947
9.800000	24.886947
9.810000	24.886947
9.820000	24.886947
9.830000	24.886947
9.840000	24.886947
9.850000	24.886947
9.860000	24.886947
9.870000	24.886947
9.880000	24.886947
9.890000	24.886947
9.900000	24.886947
9.910000	24.886947
9.920000	24.886947
9.930000	24.886947
9.940000	24.886947
9.950000	24.886947
9.960000	24.886947
9.970000	24.886947
9.980000	24.886947
9.990000	24.886947
10.000000	24.885849
10.010000	24.885849
10.020000	24.885849
10.030000	24.885849
10.040000	24.885849
10.050000	24.885849
10.060000	24.885849
10.070000	24.885849
10.080000	24.885849
10.090000	24.885849
10.100000	24.885849
10.110000	24.885849
10.120000	24.885849
10.130000	24.885849
10.140000	24.885849
10.150000	24.885849
10.160000	24.885849
10.170000	24.885849
10.180000	24.885849
10.190000	24.885849
10.200000	24.885849
10.210000	24.885849
10.220000	24.885849
10.230000	24.885849
10.240000	24.885849
10.250000	24.885849
10.260000	24.885849
10.270000	24.885849
10.280000	24.885849
10.290000	24.885849
10.300000	24.885849
10.310000	24.885849
10.320000	24.885849
10.330000	24.885849
10.340000	24.885849
10.350000	24.885849
10.360000	24.885849
10.370000	24.885849
10.380000	24.885849
10.390000	24.885849
10.400000	24.885849
10.410000	24.885849
10.420000	24.885849
10.430000	24.885849
10.440000	24.885849
10.450000	24.885849
10.460000	24.885849
10.470000	24.885849
10.480000	24.885849
10.490000	24.885849
10.500000	24.884214
10.510000	24.884214
10.520000	24.884214
10.530000	24.884214
10.540000	24.884214
10.550000	24.884214
10.560000	24.884214
10.570000	24.884214
10.580000	24.884214
10.590000	24.884214
10.600000	24.884214
10.610000	24.884214
10.620000	24.884214
10.630000	24.884214
10.640000	24.884214
10.650000	24.884214
10.660000	24.884214
10.670000	24.884214
10.680000	24.884214
10.690000	24.884214
10.700000	24.884214
10.710000	24.884214
10.720000	24.884214
10.730000	24.884214
10.740000	24.884214
10.750000	24.884214
10.760000	24.884214
10.770000	24.884214
10.780000	24.884214
10.790000	24.884214
10.800000	24.884214
10.810000	24.884214
10.820000	24.884214
10.830000	24.884214
10.840000	24.884214
10.850000	24.884214
10.860000	24.884214
10.870000	24.884214
10.880000	24.884214
10.890000	24.884214
10.900000	24.884214
10.910000	24.884214
10.920000	24.884214
10.930000	24.884214
10.940000	24.884214
10.950000	24.884214
10.960000	24.884214
10.970000	24.884214
10.980000	24.884214
10.990000	24.884214
11.000000	24.881914
11.010000	24.881914
11.020000	24.881914
11.030000	24.881914
11.040000	24.881914
11.050000	24.881914
11.060000	24.881914
11.070000	24.881914
11.080000	24.881914
11.090000	24.881914
11.100000	24.881914
11.110000	24.881914
11.120000	24.881914
11.130000	24.881914
11.140000	24.881914
11.150000	24.881914
11.160000	24.881914
11.170000	24.881914
11.180000	24.881914
11.190000	24.881914
11.200000	24.881914
11.210000	24.881914
11.220000	24.881914
11.230000	24.881914
11.240000	24.881914
11.250000	24.881914
11.260000	24.881914
11.270000	24.881914
11.280000	24.881914
11.290000	24.881914
11.300000	24.881914
11.310000	24.881914
11.320000	24.881914
11.330000	24.881914
11.340000	24.881914
11.350000	24.881914
11.360000	24.881914
11.370000	24.881914
11.380000	24.881914
11.390000	24.881914
11.400000	24.881914
11.410000	24.881914
11.420000	24.881914
11.430000	24.881914
11.440000	24.881914
11.450000	24.881914
11.460000	24.881914
11.470000	24.881914
11.480000	24.881914
11.490000	24.881914
11.500000	24.879095
11.510000	24.879095
11.520000	24.879095
11.530000	24.879095
11.540000	24.879095
11.550000	24.879095
11.560000	24.879095
11.570000	24.879095
11.580000	24.879095
11.590000	24.879095
11.600000	24.879095
11.610000	24.879095
11.620000	24.879095
11.630000	24.879095
11.640000	24.879095
11.650000	24.879095
11.660000	24.879095
11.670000	24.879095
11.680000	24.879095
11.690000	24.879095
11.700000	24.879095
11.710000	24.879095
11.720000	24.879095
11.730000	24.879095
11.740000	24.879095
11.750000	24.879095
11.760000	24.879095
11.770000	24.879095
11.780000	24.879095
11.790000	24.879095
11.800000	24.879095
11.810000	24.879095
11.820000	24.879095
11.830000	24.879095
11.840000	24.879095
11.850000	24.879095
11.860000	24.879095
11.870000	24.879095
11.880000	24.879095
11.890000	24.879095
11.900000	24.879095
11.910000	24.879095
11.920000	24.879095
11.930000	24.879095
11.940000	24.879095
11.950000	24.879095
11.960000	24.879095
11.970000	24.879095
11.980000	24.879095
11.990000	24.879095
12.000000	24.876241
12.010000	24.876241
12.020000	24.876241
12.030000	24.876241
12.040000	24.876241
12.050000	24.876241
12.060000	24.876241
12.070000	24.876241
12.080000	24.876241
12.090000	24.876241
12.100000	24.876241
12.110000	24.876241
12.120000	24.876241
12.130000	24.876241
12.140000	24.876241
12.150000	24.876241
12.160000	24.876241
12.170000	24.876241
12.180000	24.876241
12.190000	24.876241
12.200000	24.876241
12.210000	24.876241
12.220000	24.876241
12.230000	24.876241
12.240000	24.876241
12.250000	24.876241
12.260000	24.876241
12.270000	24.876241
12.280000	24.876241
12.290000	24.876241
12.300000	24.876241
12.310000	24.876241
12.320000	24.876241
12.330000	24.876241
12.340000	24.876241
12.350000	24.876241
12.360000	24.876241
12.370000	24.876241
12.380000	24.876241
12.390000	24.876241
12.400000	24.876241
12.410000	24.876241
12.420000	24.876241
12.430000	24.876241
12.440000	24.876241
12.450000	24.876241
12.460000	24.876241
12.470000	24.876241
12.480000	24.876241
12.490000	24.876241
12.500000	24.872911
12.510000	24.872911
12.520000	24.872911
12.530000	24.872911
12.540000	24.872911
12.550000	24.872911
12.560000	24.872911
12.570000	24.872911
12.580000	24.872911
12.590000	24.872911
12.600000	24.872911
12.610000	24.872911
12.620000	24.872911
12.630000	24.872911
12.640000	24.872911
12.650000	24.872911
12.660000	24.872911
12.670000	24.872911
12.680000	24.872911
12.690000	24.872911
12.700000	24.872911
12.710000	24.872911
12.720000	24.872911
12.730000	24.872911
12.740000	24.872911
12.750000	24.872911
12.760000	24.872911
12.770000	24.872911
12.780000	24.872911
12.790000	24.872911
12.800000	24.872911
12.810000	24.872911
12.820000	24.872911
12.830000	24.872911
12.840000	24.872911
12.850000	24.872911
12.860000	24.872911
12.870000	24.872911
12.880000	24.872911
12.890000	24.872911
12.900000	24.872911
12.910000	24.872911
12.920000	24.872911
12.930000	24.872911
12.940000	24.872911
12.950000	24.872911
12.960000	24.872911
12.970000	24.872911
12.980000	24.872911
12.990000	24.872911
13.000000	24.868517
13.010000	24.868517
13.020000	24.868517
13.030000	24.868517
13.040000	24.868517
13.050000	24.868517
13.060000	24.868517
13.070000	24.868517
13.080000	24.868517
13.090000	24.868517
13.100000	24.868517
13.110000	24.868517
13.120000	24.868517
13.130000	24.868517
13.140000	24.868517
13.150000	24.868517
13.160000	24.868517
13.170000	24.868517
13.180000	24.868517
13.190000	24.868517
13.200000	24.868517
13.210000	24.868517
13.220000	24.868517
13.230000	24.868517
13.240000	24.868517
13.250000	24.868517
13.260000	24.868517
13.270000	24.868517
13.280000	24.868517
13.290000	24.868517
13.300000	24.868517
13.310000	24.868517
13.320000	24.868517
13.330000	24.868517
13.340000	24.868517
13.350000	24.868517
13.360000	24.868517
13.370000	24.868517
13.380000	24.868517
13.390000	24.868517
13.400000	24.868517
13.410000	24.868517
13.420000	24.868517
13.430000	24.868517
13.440000	24.868517
13.450000	24.868517
13.460000	24.868517
13.470000	24.868517
13.480000	24.868517
13.490000	24.868517
13.500000	24.864166
13.510000	24.864166
13.520000	24.864166
13.530000	24.864166
13.540000	24.864166
13.550000	24.864166
13.560000	24.864166
13.570000	24.864166
13.580000	24.864166
13.590000	24.864166
13.600000	24.864166
13.610000	24.864166
13.620000	24.864166
13.630000	24.864166
13.640000	24.864166
13.650000	24.864166
13.660000	24.864166
13.670000	24.864166
13.680000	24.864166
13.690000	24.864166
13.700000	24.864166
13.710000	24.864166
13.720000	24.864166
13.730000	24.864166
13.740000	24.864166
13.750000	24.864166
13.760000	24.864166
13.770000	24.864166
13.780000	24.864166
13.790000	24.864166
13.800000	24.864166
13.810000	24.864166
13.820000	24.864166
13.830000	24.864166
13.840000	24.864166
13.850000	24.864166
13.860000	24.864166
13.870000	24.864166
13.880000	24.864166
13.890000	24.864166
13.900000	24.864166
13.910000	24.864166
13.920000	24.864166
13.930000	24.864166
13.940000	24.864166
13.950000	24.864166
13.960000	24.864166
13.970000	24.864166
13.980000	24.864166
13.990000	24.864166
14.000000	24.859503
14.010000	24.859503
14.020000	24.859503
14.030000	24.859503
14.040000	24.859503
14.050000	24.859503
14.060000	24.859503
14.070000	24.859503
14.080000	24.859503
14.090000	24.859503
14.100000	24.859503
14.110000	24.859503
14.120000	24.859503
14.130000	24.859503
14.140000	24.859503
14.150000	24.859503
14.160000	24.859503
14.170000	24.859503
14.180000	24.859503
14.190000	24.859503
14.200000	24.859503
14.210000	24.859503
14.220000	24.859503
14.230000	24.859503
14.240000	24.859503
14.250000	24.859503
14.260000	24.859503
14.270000	24.859503
14.280000	24.859503
14.290000	24.859503
14.300000	24.859503
14.310000	24.859503
14.320000	24.859503
14.330000	24.859503
14.340000	24.859503
14.350000	24.859503
14.360000	24.859503
14.370000	24.859503
14.380000	24.859503
14.390000	24.859503
14.400000	24.859503
14.410000	24.859503
14.420000	24.859503
14.430000	24.859503
14.440000	24.859503
14.450000	24.859503
14.460000	24.859503
14.470000	24.859503
14.480000	24.859503
14.490000	24.859503
14.500000	24.854987
14.510000	24.854987
14.520000	24.854987
14.530000	24.854987
14.540000	24.854987
14.550000	24.854987
14.560000	24.854987
14.570000	24.854987
14.580000	24.854987
14.590000	24.854987
14.600000	24.854987
14.610000	24.854987
14.620000	24.854987
14.630000	24.854987
14.640000	24.854987
14.650000	24.854987
14.660000	24.854987
14.670000	24.854987
14.680000	24.854987
14.690000	24.854987
14.700000	24.854987
14.710000	24.854987
14.720000	24.854987
14.730000	24.854987
14.740000	24.854987
14.750000	24.854987
14.760000	24.854987
14.770000	24.854987
14.780000	24.854987
14.790000	24.854987
14.800000	24.854987
14.810000	24.854987
14.820000	24.854987
14.830000	24.854987
14.840000	24.854987
14.850000	24.854987
14.860000	24.854987
14.870000	24.854987
14.880000	24.854987
14.890000	24.854987
14.900000	24.854987
14.910000	24.854987
14.920000	24.854987
14.930000	24.854987
14.940000	24.854987
14.950000	24.854987
14.960000	24.854987
14.970000	24.854987
14.980000	24.854987
14.990000	24.854987
15.000000	24.850054
15.010000	24.850054
15.020000	24.850054
15.030000	24.850054
15.040000	24.850054
15.050000	24.850054
15.060000	24.850054
15.070000	24.850054
15.080000	24.850054
15.090000	24.850054
15.100000	24.850054
15.110000	24.850054
15.120000	24.850054
15.130000	24.850054
15.140000	24.850054
15.150000	24.850054
15.160000	24.850054
15.170000	24.850054
15.180000	24.850054
15.190000	24.850054
15.200000	24.850054
15.210000	24.850054
15.220000	24.850054
15.230000	24.850054
15.240000	24.850054
15.250000	24.850054
15.260000	24.850054
15.270000	24.850054
15.280000	24.850054
15.290000	24.850054
15.300000	24.850054
15.310000	24.850054
15.320000	24.850054
15.330000	24.850054
15.340000	24.850054
15.350000	24.850054
15.360000	24.850054
15.370000	24.850054
15.380000	24.850054
15.390000	24.850054
15.400000	24.850054
15.410000	24.850054
15.420000	24.850054
15.430000	24.850054
15.440000	24.850054
15.450000	24.850054
15.460000	24.850054
15.470000	24.850054
15.480000	24.850054
15.490000	24.850054
15.500000	24.845745
15.510000	24.845745
15.520000	24.845745
15.530000	24.845745
15.540000	24.845745
15.550000	24.845745
15.560000	24.845745
15.570000	24.845745
15.580000	24.845745
15.590000	24.845745
15.600000	24.845745
15.610000	24.845745
15.620000	24.845745
15.630000	24.845745
15.640000	24.845745
15.650000	24.845745
15.660000	24.845745
15.670000	24.845745
15.680000	24.845745
15.690000	24.845745
15.700000	24.845745
15.710000	24.845745
15.720000	24.845745
15.730000	24.845745
15.740000	24.845745
15.750000	24.845745
15.760000	24.845745
15.770000	24.845745
15.780000	24.845745
15.790000	24.845745
15.800000	24.845745
15.810000	24.845745
15.820000	24.845745
15.830000	24.845745
15.840000	24.845745
15.850000	24.845745
15.860000	24.845745
15.870000	24.845745
15.880000	24.845745
15.890000	24.845745
15.900000	24.845745
15.910000	24.845745
15.920000	24.845745
15.930000	24.845745
15.940000	24.845745
15.950000	24.845745
15.960000	24.845745
15.970000	24.845745
15.980000	24.845745
15.990000	24.845745
16.000000	24.840015
16.010000	24.840015
16.020000	24.840015
16.030000	24.840015
16.040000	24.840015
16.050000	24.840015
16.060000	24.840015
16.070000	24.840015
16.080000	24.840015
16.090000	24.840015
16.100000	24.840015
16.110000	24.840015
16.120000	24.840015
16.130000	24.840015
16.140000	24.840015
16.150000	24.840015
16.160000	24.840015
16.170000	24.840015
16.180000	24.840015
16.190000	24.840015
16.200000	24.840015
16.210000	24.840015
16.220000	24.840015
16.230000	24.840015
16.240000	24.840015
16.250000	24.840015
16.260000	24.840015
16.270000	24.840015
16.280000	24.840015
16.290000	24.840015
16.300000	24.840015
16.310000	24.840015
16.320000	24.840015
16.330000	24.840015
16.340000	24.840015
16.350000	24.840015
16.360000	24.840015
16.370000	24.840015
16.380000	24.840015
16.390000	24.840015
16.400000	24.840015
16.410000	24.840015
16.420000	24.840015
16.430000	24.840015
16.440000	24.840015
16.450000	24.840015
16.460000	24.840015
16.470000	24.840015
16.480000	24.840015
16.490000	24.840015
16.500000	24.834502
16.510000	24.834502
16.520000	24.834502
16.530000	24.834502
16.540000	24.834502
16.550000	24.834502
16.560000	24.834502
16.570000	24.834502
16.580000	24.834502
16.590000	24.834502
16.600000	24.834502
16.610000	24.834502
16.620000	24.834502
16.630000	24.834502
16.640000	24.834502
16.650000	24.834502
16.660000	24.834502
16.670000	24.834502
16.680000	24.834502
16.690000	24.834502
16.700000	24.834502
16.710000	24.834502
16.720000	24.834502
16.730000	24.834502
16.740000	24.834502
16.750000	24.834502
16.760000	24.834502
16.770000	24.834502
16.780000	24.834502
16.790000	24.834502
16.800000	24.834502
16.810000	24.834502
16.820000	24.834502
16.830000	24.834502
16.840000	24.834502
16.850000	24.834502
16.860000	24.834502
16.870000	24.834502
16.880000	24.834502
16.890000	24.834502
16.900000	24.834502
16.910000	24.834502
16.920000	24.834502
16.930000	24.834502
16.940000	24.834502
16.950000	24.834502
16.960000	24.834502
16.970000	24.834502
16.980000	24.834502
16.990000	24.834502
17.000000	24.828806
17.010000	24.828806
17.020000	24.828806
17.030000	24.828806
17.040000	24.828806
17.050000	24.828806
17.060000	24.828806
17.070000	24.828806
17.080000	24.828806
17.090000	24.828806
17.100000	24.828806
17.110000	24.828806
17.120000	24.828806
17.130000	24.828806
17.140000	24.828806
17.150000	24.828806
17.160000	24.828806
17.170000	24.828806
17.180000	24.828806
17.190000	24.828806
17.200000	24.828806
17.210000	24.828806
17.220000	24.828806
17.230000	24.828806
17.240000	24.828806
17.250000	24.828806
17.260000	24.828806
17.270000	24.828806
17.280000	24.828806
17.290000	24.828806
17.300000	24.828806
17.310000	24.828806
17.320000	24.828806
17.330000	24.828806
17.340000	24.828806
17.350000	24.828806
17.360000	24.828806
17.370000	24.828806
17.380000	24.828806
17.390000	24.828806
17.400000	24.828806
17.410000	24.828806
17.420000	24.828806
17.430000	24.828806
17.440000	24.828806
17.450000	24.828806
17.460000	24.828806
17.470000	24.828806
17.480000	24.828806
17.490000	24.828806
17.500000	24.823550
17.510000	24.823550
17.520000	24.823550
17.530000	24.823550
17.540000	24.823550
17.550000	24.823550
17.560000	24.823550
17.570000	24.823550
17.580000	24.823550
17.590000	24.823550
17.600000	24.823550
17.610000	24.823550
17.620000	24.823550
17.630000	24.823550
17.640000	24.823550
17.650000	24.823550
17.660000	24.823550
17.670000	24.823550
17.680000	24.823550
17.690000	24.823550
17.700000	24.823550
17.710000	24.823550
17.720000	24.823550
17.730000	24.823550
17.740000	24.823550
17.750000	24.823550
17.760000	24.823550
17.770000	24.823550
17.780000	24.823550
17.790000	24.823550
17.800000	24.823550
17.810000	24.823550
17.820000	24.823550
17.830000	24.823550
17.840000	24.823550
17.850000	24.823550
17.860000	24.823550
17.870000	24.823550
17.880000	24.823550
17.890000	24.823550
17.900000	24.823550
17.910000	24.823550
17.920000	24.823550
17.930000	24.823550
17.940000	24.823550
17.950000	24.823550
17.960000	24.823550
17.970000	24.823550
17.980000	24.823550
17.990000	24.823550
