LabVIEW Measurement	
Writer_Version	2
Reader_Version	2
Separator	Tab
Decimal_Separator	.
Multi_Headings	No
X_Columns	One
Time_Pref	Absolute
Operator	biomech-dyno
Date	2023/05/24
Time	15:19:49.9492761999999796612
***End_of_Header***	
	
Channels	1	
Samples	10	
Date	2023/05/24	
Time	15:33:15.8806590999994973965	
X_Dimension	Time	
X0	0.0000000000000000E+0	
Delta_X	0.010000	
***End_of_Header***		
X_Value	Untitled	Comment
0.000000	24.510067
0.010000	24.510067
0.020000	24.510067
0.030000	24.510067
0.040000	24.510067
0.050000	24.510067
0.060000	24.510067
0.070000	24.510067
0.080000	24.510067
0.090000	24.510067
0.100000	24.510067
0.110000	24.510067
0.120000	24.510067
0.130000	24.510067
0.140000	24.510067
0.150000	24.510067
0.160000	24.510067
0.170000	24.510067
0.180000	24.510067
0.190000	24.510067
0.200000	24.510067
0.210000	24.510067
0.220000	24.510067
0.230000	24.510067
0.240000	24.510067
0.250000	24.510067
0.260000	24.510067
0.270000	24.510067
0.280000	24.510067
0.290000	24.510067
0.300000	24.510067
0.310000	24.510067
0.320000	24.510067
0.330000	24.510067
0.340000	24.510067
0.350000	24.510067
0.360000	24.510067
0.370000	24.510067
0.380000	24.510067
0.390000	24.510067
0.400000	24.510067
0.410000	24.510067
0.420000	24.510067
0.430000	24.510067
0.440000	24.510067
0.450000	24.510067
0.460000	24.510067
0.470000	24.510067
0.480000	24.510067
0.490000	24.510067
0.500000	24.514973
0.510000	24.514973
0.520000	24.514973
0.530000	24.514973
0.540000	24.514973
0.550000	24.514973
0.560000	24.514973
0.570000	24.514973
0.580000	24.514973
0.590000	24.514973
0.600000	24.514973
0.610000	24.514973
0.620000	24.514973
0.630000	24.514973
0.640000	24.514973
0.650000	24.514973
0.660000	24.514973
0.670000	24.514973
0.680000	24.514973
0.690000	24.514973
0.700000	24.514973
0.710000	24.514973
0.720000	24.514973
0.730000	24.514973
0.740000	24.514973
0.750000	24.514973
0.760000	24.514973
0.770000	24.514973
0.780000	24.514973
0.790000	24.514973
0.800000	24.514973
0.810000	24.514973
0.820000	24.514973
0.830000	24.514973
0.840000	24.514973
0.850000	24.514973
0.860000	24.514973
0.870000	24.514973
0.880000	24.514973
0.890000	24.514973
0.900000	24.514973
0.910000	24.514973
0.920000	24.514973
0.930000	24.514973
0.940000	24.514973
0.950000	24.514973
0.960000	24.514973
0.970000	24.514973
0.980000	24.514973
0.990000	24.514973
1.000000	24.526701
1.010000	24.526701
1.020000	24.526701
1.030000	24.526701
1.040000	24.526701
1.050000	24.526701
1.060000	24.526701
1.070000	24.526701
1.080000	24.526701
1.090000	24.526701
1.100000	24.526701
1.110000	24.526701
1.120000	24.526701
1.130000	24.526701
1.140000	24.526701
1.150000	24.526701
1.160000	24.526701
1.170000	24.526701
1.180000	24.526701
1.190000	24.526701
1.200000	24.526701
1.210000	24.526701
1.220000	24.526701
1.230000	24.526701
1.240000	24.526701
1.250000	24.526701
1.260000	24.526701
1.270000	24.526701
1.280000	24.526701
1.290000	24.526701
1.300000	24.526701
1.310000	24.526701
1.320000	24.526701
1.330000	24.526701
1.340000	24.526701
1.350000	24.526701
1.360000	24.526701
1.370000	24.526701
1.380000	24.526701
1.390000	24.526701
1.400000	24.526701
1.410000	24.526701
1.420000	24.526701
1.430000	24.526701
1.440000	24.526701
1.450000	24.526701
1.460000	24.526701
1.470000	24.526701
1.480000	24.526701
1.490000	24.526701
1.500000	24.549417
1.510000	24.549417
1.520000	24.549417
1.530000	24.549417
1.540000	24.549417
1.550000	24.549417
1.560000	24.549417
1.570000	24.549417
1.580000	24.549417
1.590000	24.549417
1.600000	24.549417
1.610000	24.549417
1.620000	24.549417
1.630000	24.549417
1.640000	24.549417
1.650000	24.549417
1.660000	24.549417
1.670000	24.549417
1.680000	24.549417
1.690000	24.549417
1.700000	24.549417
1.710000	24.549417
1.720000	24.549417
1.730000	24.549417
1.740000	24.549417
1.750000	24.549417
1.760000	24.549417
1.770000	24.549417
1.780000	24.549417
1.790000	24.549417
1.800000	24.549417
1.810000	24.549417
1.820000	24.549417
1.830000	24.549417
1.840000	24.549417
1.850000	24.549417
1.860000	24.549417
1.870000	24.549417
1.880000	24.549417
1.890000	24.549417
1.900000	24.549417
1.910000	24.549417
1.920000	24.549417
1.930000	24.549417
1.940000	24.549417
1.950000	24.549417
1.960000	24.549417
1.970000	24.549417
1.980000	24.549417
1.990000	24.549417
2.000000	24.580408
2.010000	24.580408
2.020000	24.580408
2.030000	24.580408
2.040000	24.580408
2.050000	24.580408
2.060000	24.580408
2.070000	24.580408
2.080000	24.580408
2.090000	24.580408
2.100000	24.580408
2.110000	24.580408
2.120000	24.580408
2.130000	24.580408
2.140000	24.580408
2.150000	24.580408
2.160000	24.580408
2.170000	24.580408
2.180000	24.580408
2.190000	24.580408
2.200000	24.580408
2.210000	24.580408
2.220000	24.580408
2.230000	24.580408
2.240000	24.580408
2.250000	24.580408
2.260000	24.580408
2.270000	24.580408
2.280000	24.580408
2.290000	24.580408
2.300000	24.580408
2.310000	24.580408
2.320000	24.580408
2.330000	24.580408
2.340000	24.580408
2.350000	24.580408
2.360000	24.580408
2.370000	24.580408
2.380000	24.580408
2.390000	24.580408
2.400000	24.580408
2.410000	24.580408
2.420000	24.580408
2.430000	24.580408
2.440000	24.580408
2.450000	24.580408
2.460000	24.580408
2.470000	24.580408
2.480000	24.580408
2.490000	24.580408
2.500000	24.618971
2.510000	24.618971
2.520000	24.618971
2.530000	24.618971
2.540000	24.618971
2.550000	24.618971
2.560000	24.618971
2.570000	24.618971
2.580000	24.618971
2.590000	24.618971
2.600000	24.618971
2.610000	24.618971
2.620000	24.618971
2.630000	24.618971
2.640000	24.618971
2.650000	24.618971
2.660000	24.618971
2.670000	24.618971
2.680000	24.618971
2.690000	24.618971
2.700000	24.618971
2.710000	24.618971
2.720000	24.618971
2.730000	24.618971
2.740000	24.618971
2.750000	24.618971
2.760000	24.618971
2.770000	24.618971
2.780000	24.618971
2.790000	24.618971
2.800000	24.618971
2.810000	24.618971
2.820000	24.618971
2.830000	24.618971
2.840000	24.618971
2.850000	24.618971
2.860000	24.618971
2.870000	24.618971
2.880000	24.618971
2.890000	24.618971
2.900000	24.618971
2.910000	24.618971
2.920000	24.618971
2.930000	24.618971
2.940000	24.618971
2.950000	24.618971
2.960000	24.618971
2.970000	24.618971
2.980000	24.618971
2.990000	24.618971
3.000000	24.662254
3.010000	24.662254
3.020000	24.662254
3.030000	24.662254
3.040000	24.662254
3.050000	24.662254
3.060000	24.662254
3.070000	24.662254
3.080000	24.662254
3.090000	24.662254
3.100000	24.662254
3.110000	24.662254
3.120000	24.662254
3.130000	24.662254
3.140000	24.662254
3.150000	24.662254
3.160000	24.662254
3.170000	24.662254
3.180000	24.662254
3.190000	24.662254
3.200000	24.662254
3.210000	24.662254
3.220000	24.662254
3.230000	24.662254
3.240000	24.662254
3.250000	24.662254
3.260000	24.662254
3.270000	24.662254
3.280000	24.662254
3.290000	24.662254
3.300000	24.662254
3.310000	24.662254
3.320000	24.662254
3.330000	24.662254
3.340000	24.662254
3.350000	24.662254
3.360000	24.662254
3.370000	24.662254
3.380000	24.662254
3.390000	24.662254
3.400000	24.662254
3.410000	24.662254
3.420000	24.662254
3.430000	24.662254
3.440000	24.662254
3.450000	24.662254
3.460000	24.662254
3.470000	24.662254
3.480000	24.662254
3.490000	24.662254
3.500000	24.706956
3.510000	24.706956
3.520000	24.706956
3.530000	24.706956
3.540000	24.706956
3.550000	24.706956
3.560000	24.706956
3.570000	24.706956
3.580000	24.706956
3.590000	24.706956
3.600000	24.706956
3.610000	24.706956
3.620000	24.706956
3.630000	24.706956
3.640000	24.706956
3.650000	24.706956
3.660000	24.706956
3.670000	24.706956
3.680000	24.706956
3.690000	24.706956
3.700000	24.706956
3.710000	24.706956
3.720000	24.706956
3.730000	24.706956
3.740000	24.706956
3.750000	24.706956
3.760000	24.706956
3.770000	24.706956
3.780000	24.706956
3.790000	24.706956
3.800000	24.706956
3.810000	24.706956
3.820000	24.706956
3.830000	24.706956
3.840000	24.706956
3.850000	24.706956
3.860000	24.706956
3.870000	24.706956
3.880000	24.706956
3.890000	24.706956
3.900000	24.706956
3.910000	24.706956
3.920000	24.706956
3.930000	24.706956
3.940000	24.706956
3.950000	24.706956
3.960000	24.706956
3.970000	24.706956
3.980000	24.706956
3.990000	24.706956
4.000000	24.745329
4.010000	24.745329
4.020000	24.745329
4.030000	24.745329
4.040000	24.745329
4.050000	24.745329
4.060000	24.745329
4.070000	24.745329
4.080000	24.745329
4.090000	24.745329
4.100000	24.745329
4.110000	24.745329
4.120000	24.745329
4.130000	24.745329
4.140000	24.745329
4.150000	24.745329
4.160000	24.745329
4.170000	24.745329
4.180000	24.745329
4.190000	24.745329
4.200000	24.745329
4.210000	24.745329
4.220000	24.745329
4.230000	24.745329
4.240000	24.745329
4.250000	24.745329
4.260000	24.745329
4.270000	24.745329
4.280000	24.745329
4.290000	24.745329
4.300000	24.745329
4.310000	24.745329
4.320000	24.745329
4.330000	24.745329
4.340000	24.745329
4.350000	24.745329
4.360000	24.745329
4.370000	24.745329
4.380000	24.745329
4.390000	24.745329
4.400000	24.745329
4.410000	24.745329
4.420000	24.745329
4.430000	24.745329
4.440000	24.745329
4.450000	24.745329
4.460000	24.745329
4.470000	24.745329
4.480000	24.745329
4.490000	24.745329
4.500000	24.777085
4.510000	24.777085
4.520000	24.777085
4.530000	24.777085
4.540000	24.777085
4.550000	24.777085
4.560000	24.777085
4.570000	24.777085
4.580000	24.777085
4.590000	24.777085
4.600000	24.777085
4.610000	24.777085
4.620000	24.777085
4.630000	24.777085
4.640000	24.777085
4.650000	24.777085
4.660000	24.777085
4.670000	24.777085
4.680000	24.777085
4.690000	24.777085
4.700000	24.777085
4.710000	24.777085
4.720000	24.777085
4.730000	24.777085
4.740000	24.777085
4.750000	24.777085
4.760000	24.777085
4.770000	24.777085
4.780000	24.777085
4.790000	24.777085
4.800000	24.777085
4.810000	24.777085
4.820000	24.777085
4.830000	24.777085
4.840000	24.777085
4.850000	24.777085
4.860000	24.777085
4.870000	24.777085
4.880000	24.777085
4.890000	24.777085
4.900000	24.777085
4.910000	24.777085
4.920000	24.777085
4.930000	24.777085
4.940000	24.777085
4.950000	24.777085
4.960000	24.777085
4.970000	24.777085
4.980000	24.777085
4.990000	24.777085
5.000000	24.801571
5.010000	24.801571
5.020000	24.801571
5.030000	24.801571
5.040000	24.801571
5.050000	24.801571
5.060000	24.801571
5.070000	24.801571
5.080000	24.801571
5.090000	24.801571
5.100000	24.801571
5.110000	24.801571
5.120000	24.801571
5.130000	24.801571
5.140000	24.801571
5.150000	24.801571
5.160000	24.801571
5.170000	24.801571
5.180000	24.801571
5.190000	24.801571
5.200000	24.801571
5.210000	24.801571
5.220000	24.801571
5.230000	24.801571
5.240000	24.801571
5.250000	24.801571
5.260000	24.801571
5.270000	24.801571
5.280000	24.801571
5.290000	24.801571
5.300000	24.801571
5.310000	24.801571
5.320000	24.801571
5.330000	24.801571
5.340000	24.801571
5.350000	24.801571
5.360000	24.801571
5.370000	24.801571
5.380000	24.801571
5.390000	24.801571
5.400000	24.801571
5.410000	24.801571
5.420000	24.801571
5.430000	24.801571
5.440000	24.801571
5.450000	24.801571
5.460000	24.801571
5.470000	24.801571
5.480000	24.801571
5.490000	24.801571
5.500000	24.820277
5.510000	24.820277
5.520000	24.820277
5.530000	24.820277
5.540000	24.820277
5.550000	24.820277
5.560000	24.820277
5.570000	24.820277
5.580000	24.820277
5.590000	24.820277
5.600000	24.820277
5.610000	24.820277
5.620000	24.820277
5.630000	24.820277
5.640000	24.820277
5.650000	24.820277
5.660000	24.820277
5.670000	24.820277
5.680000	24.820277
5.690000	24.820277
5.700000	24.820277
5.710000	24.820277
5.720000	24.820277
5.730000	24.820277
5.740000	24.820277
5.750000	24.820277
5.760000	24.820277
5.770000	24.820277
5.780000	24.820277
5.790000	24.820277
5.800000	24.820277
5.810000	24.820277
5.820000	24.820277
5.830000	24.820277
5.840000	24.820277
5.850000	24.820277
5.860000	24.820277
5.870000	24.820277
5.880000	24.820277
5.890000	24.820277
5.900000	24.820277
5.910000	24.820277
5.920000	24.820277
5.930000	24.820277
5.940000	24.820277
5.950000	24.820277
5.960000	24.820277
5.970000	24.820277
5.980000	24.820277
5.990000	24.820277
6.000000	24.834467
6.010000	24.834467
6.020000	24.834467
6.030000	24.834467
6.040000	24.834467
6.050000	24.834467
6.060000	24.834467
6.070000	24.834467
6.080000	24.834467
6.090000	24.834467
6.100000	24.834467
6.110000	24.834467
6.120000	24.834467
6.130000	24.834467
6.140000	24.834467
6.150000	24.834467
6.160000	24.834467
6.170000	24.834467
6.180000	24.834467
6.190000	24.834467
6.200000	24.834467
6.210000	24.834467
6.220000	24.834467
6.230000	24.834467
6.240000	24.834467
6.250000	24.834467
6.260000	24.834467
6.270000	24.834467
6.280000	24.834467
6.290000	24.834467
6.300000	24.834467
6.310000	24.834467
6.320000	24.834467
6.330000	24.834467
6.340000	24.834467
6.350000	24.834467
6.360000	24.834467
6.370000	24.834467
6.380000	24.834467
6.390000	24.834467
6.400000	24.834467
6.410000	24.834467
6.420000	24.834467
6.430000	24.834467
6.440000	24.834467
6.450000	24.834467
6.460000	24.834467
6.470000	24.834467
6.480000	24.834467
6.490000	24.834467
6.500000	24.844871
6.510000	24.844871
6.520000	24.844871
6.530000	24.844871
6.540000	24.844871
6.550000	24.844871
6.560000	24.844871
6.570000	24.844871
6.580000	24.844871
6.590000	24.844871
6.600000	24.844871
6.610000	24.844871
6.620000	24.844871
6.630000	24.844871
6.640000	24.844871
6.650000	24.844871
6.660000	24.844871
6.670000	24.844871
6.680000	24.844871
6.690000	24.844871
6.700000	24.844871
6.710000	24.844871
6.720000	24.844871
6.730000	24.844871
6.740000	24.844871
6.750000	24.844871
6.760000	24.844871
6.770000	24.844871
6.780000	24.844871
6.790000	24.844871
6.800000	24.844871
6.810000	24.844871
6.820000	24.844871
6.830000	24.844871
6.840000	24.844871
6.850000	24.844871
6.860000	24.844871
6.870000	24.844871
6.880000	24.844871
6.890000	24.844871
6.900000	24.844871
6.910000	24.844871
6.920000	24.844871
6.930000	24.844871
6.940000	24.844871
6.950000	24.844871
6.960000	24.844871
6.970000	24.844871
6.980000	24.844871
6.990000	24.844871
7.000000	24.852209
7.010000	24.852209
7.020000	24.852209
7.030000	24.852209
7.040000	24.852209
7.050000	24.852209
7.060000	24.852209
7.070000	24.852209
7.080000	24.852209
7.090000	24.852209
7.100000	24.852209
7.110000	24.852209
7.120000	24.852209
7.130000	24.852209
7.140000	24.852209
7.150000	24.852209
7.160000	24.852209
7.170000	24.852209
7.180000	24.852209
7.190000	24.852209
7.200000	24.852209
7.210000	24.852209
7.220000	24.852209
7.230000	24.852209
7.240000	24.852209
7.250000	24.852209
7.260000	24.852209
7.270000	24.852209
7.280000	24.852209
7.290000	24.852209
7.300000	24.852209
7.310000	24.852209
7.320000	24.852209
7.330000	24.852209
7.340000	24.852209
7.350000	24.852209
7.360000	24.852209
7.370000	24.852209
7.380000	24.852209
7.390000	24.852209
7.400000	24.852209
7.410000	24.852209
7.420000	24.852209
7.430000	24.852209
7.440000	24.852209
7.450000	24.852209
7.460000	24.852209
7.470000	24.852209
7.480000	24.852209
7.490000	24.852209
7.500000	24.856362
7.510000	24.856362
7.520000	24.856362
7.530000	24.856362
7.540000	24.856362
7.550000	24.856362
7.560000	24.856362
7.570000	24.856362
7.580000	24.856362
7.590000	24.856362
7.600000	24.856362
7.610000	24.856362
7.620000	24.856362
7.630000	24.856362
7.640000	24.856362
7.650000	24.856362
7.660000	24.856362
7.670000	24.856362
7.680000	24.856362
7.690000	24.856362
7.700000	24.856362
7.710000	24.856362
7.720000	24.856362
7.730000	24.856362
7.740000	24.856362
7.750000	24.856362
7.760000	24.856362
7.770000	24.856362
7.780000	24.856362
7.790000	24.856362
7.800000	24.856362
7.810000	24.856362
7.820000	24.856362
7.830000	24.856362
7.840000	24.856362
7.850000	24.856362
7.860000	24.856362
7.870000	24.856362
7.880000	24.856362
7.890000	24.856362
7.900000	24.856362
7.910000	24.856362
7.920000	24.856362
7.930000	24.856362
7.940000	24.856362
7.950000	24.856362
7.960000	24.856362
7.970000	24.856362
7.980000	24.856362
7.990000	24.856362
8.000000	24.859624
8.010000	24.859624
8.020000	24.859624
8.030000	24.859624
8.040000	24.859624
8.050000	24.859624
8.060000	24.859624
8.070000	24.859624
8.080000	24.859624
8.090000	24.859624
8.100000	24.859624
8.110000	24.859624
8.120000	24.859624
8.130000	24.859624
8.140000	24.859624
8.150000	24.859624
8.160000	24.859624
8.170000	24.859624
8.180000	24.859624
8.190000	24.859624
8.200000	24.859624
8.210000	24.859624
8.220000	24.859624
8.230000	24.859624
8.240000	24.859624
8.250000	24.859624
8.260000	24.859624
8.270000	24.859624
8.280000	24.859624
8.290000	24.859624
8.300000	24.859624
8.310000	24.859624
8.320000	24.859624
8.330000	24.859624
8.340000	24.859624
8.350000	24.859624
8.360000	24.859624
8.370000	24.859624
8.380000	24.859624
8.390000	24.859624
8.400000	24.859624
8.410000	24.859624
8.420000	24.859624
8.430000	24.859624
8.440000	24.859624
8.450000	24.859624
8.460000	24.859624
8.470000	24.859624
8.480000	24.859624
8.490000	24.859624
8.500000	24.860896
8.510000	24.860896
8.520000	24.860896
8.530000	24.860896
8.540000	24.860896
8.550000	24.860896
8.560000	24.860896
8.570000	24.860896
8.580000	24.860896
8.590000	24.860896
8.600000	24.860896
8.610000	24.860896
8.620000	24.860896
8.630000	24.860896
8.640000	24.860896
8.650000	24.860896
8.660000	24.860896
8.670000	24.860896
8.680000	24.860896
8.690000	24.860896
8.700000	24.860896
8.710000	24.860896
8.720000	24.860896
8.730000	24.860896
8.740000	24.860896
8.750000	24.860896
8.760000	24.860896
8.770000	24.860896
8.780000	24.860896
8.790000	24.860896
8.800000	24.860896
8.810000	24.860896
8.820000	24.860896
8.830000	24.860896
8.840000	24.860896
8.850000	24.860896
8.860000	24.860896
8.870000	24.860896
8.880000	24.860896
8.890000	24.860896
8.900000	24.860896
8.910000	24.860896
8.920000	24.860896
8.930000	24.860896
8.940000	24.860896
8.950000	24.860896
8.960000	24.860896
8.970000	24.860896
8.980000	24.860896
8.990000	24.860896
9.000000	24.860489
9.010000	24.860489
9.020000	24.860489
9.030000	24.860489
9.040000	24.860489
9.050000	24.860489
9.060000	24.860489
9.070000	24.860489
9.080000	24.860489
9.090000	24.860489
9.100000	24.860489
9.110000	24.860489
9.120000	24.860489
9.130000	24.860489
9.140000	24.860489
9.150000	24.860489
9.160000	24.860489
9.170000	24.860489
9.180000	24.860489
9.190000	24.860489
9.200000	24.860489
9.210000	24.860489
9.220000	24.860489
9.230000	24.860489
9.240000	24.860489
9.250000	24.860489
9.260000	24.860489
9.270000	24.860489
9.280000	24.860489
9.290000	24.860489
9.300000	24.860489
9.310000	24.860489
9.320000	24.860489
9.330000	24.860489
9.340000	24.860489
9.350000	24.860489
9.360000	24.860489
9.370000	24.860489
9.380000	24.860489
9.390000	24.860489
9.400000	24.860489
9.410000	24.860489
9.420000	24.860489
9.430000	24.860489
9.440000	24.860489
9.450000	24.860489
9.460000	24.860489
9.470000	24.860489
9.480000	24.860489
9.490000	24.860489
9.500000	24.859347
9.510000	24.859347
9.520000	24.859347
9.530000	24.859347
9.540000	24.859347
9.550000	24.859347
9.560000	24.859347
9.570000	24.859347
9.580000	24.859347
9.590000	24.859347
9.600000	24.859347
9.610000	24.859347
9.620000	24.859347
9.630000	24.859347
9.640000	24.859347
9.650000	24.859347
9.660000	24.859347
9.670000	24.859347
9.680000	24.859347
9.690000	24.859347
9.700000	24.859347
9.710000	24.859347
9.720000	24.859347
9.730000	24.859347
9.740000	24.859347
9.750000	24.859347
9.760000	24.859347
9.770000	24.859347
9.780000	24.859347
9.790000	24.859347
9.800000	24.859347
9.810000	24.859347
9.820000	24.859347
9.830000	24.859347
9.840000	24.859347
9.850000	24.859347
9.860000	24.859347
9.870000	24.859347
9.880000	24.859347
9.890000	24.859347
9.900000	24.859347
9.910000	24.859347
9.920000	24.859347
9.930000	24.859347
9.940000	24.859347
9.950000	24.859347
9.960000	24.859347
9.970000	24.859347
9.980000	24.859347
9.990000	24.859347
10.000000	24.857781
10.010000	24.857781
10.020000	24.857781
10.030000	24.857781
10.040000	24.857781
10.050000	24.857781
10.060000	24.857781
10.070000	24.857781
10.080000	24.857781
10.090000	24.857781
10.100000	24.857781
10.110000	24.857781
10.120000	24.857781
10.130000	24.857781
10.140000	24.857781
10.150000	24.857781
10.160000	24.857781
10.170000	24.857781
10.180000	24.857781
10.190000	24.857781
10.200000	24.857781
10.210000	24.857781
10.220000	24.857781
10.230000	24.857781
10.240000	24.857781
10.250000	24.857781
10.260000	24.857781
10.270000	24.857781
10.280000	24.857781
10.290000	24.857781
10.300000	24.857781
10.310000	24.857781
10.320000	24.857781
10.330000	24.857781
10.340000	24.857781
10.350000	24.857781
10.360000	24.857781
10.370000	24.857781
10.380000	24.857781
10.390000	24.857781
10.400000	24.857781
10.410000	24.857781
10.420000	24.857781
10.430000	24.857781
10.440000	24.857781
10.450000	24.857781
10.460000	24.857781
10.470000	24.857781
10.480000	24.857781
10.490000	24.857781
10.500000	24.854614
10.510000	24.854614
10.520000	24.854614
10.530000	24.854614
10.540000	24.854614
10.550000	24.854614
10.560000	24.854614
10.570000	24.854614
10.580000	24.854614
10.590000	24.854614
10.600000	24.854614
10.610000	24.854614
10.620000	24.854614
10.630000	24.854614
10.640000	24.854614
10.650000	24.854614
10.660000	24.854614
10.670000	24.854614
10.680000	24.854614
10.690000	24.854614
10.700000	24.854614
10.710000	24.854614
10.720000	24.854614
10.730000	24.854614
10.740000	24.854614
10.750000	24.854614
10.760000	24.854614
10.770000	24.854614
10.780000	24.854614
10.790000	24.854614
10.800000	24.854614
10.810000	24.854614
10.820000	24.854614
10.830000	24.854614
10.840000	24.854614
10.850000	24.854614
10.860000	24.854614
10.870000	24.854614
10.880000	24.854614
10.890000	24.854614
10.900000	24.854614
10.910000	24.854614
10.920000	24.854614
10.930000	24.854614
10.940000	24.854614
10.950000	24.854614
10.960000	24.854614
10.970000	24.854614
10.980000	24.854614
10.990000	24.854614
11.000000	24.851283
11.010000	24.851283
11.020000	24.851283
11.030000	24.851283
11.040000	24.851283
11.050000	24.851283
11.060000	24.851283
11.070000	24.851283
11.080000	24.851283
11.090000	24.851283
11.100000	24.851283
11.110000	24.851283
11.120000	24.851283
11.130000	24.851283
11.140000	24.851283
11.150000	24.851283
11.160000	24.851283
11.170000	24.851283
11.180000	24.851283
11.190000	24.851283
11.200000	24.851283
11.210000	24.851283
11.220000	24.851283
11.230000	24.851283
11.240000	24.851283
11.250000	24.851283
11.260000	24.851283
11.270000	24.851283
11.280000	24.851283
11.290000	24.851283
11.300000	24.851283
11.310000	24.851283
11.320000	24.851283
11.330000	24.851283
11.340000	24.851283
11.350000	24.851283
11.360000	24.851283
11.370000	24.851283
11.380000	24.851283
11.390000	24.851283
11.400000	24.851283
11.410000	24.851283
11.420000	24.851283
11.430000	24.851283
11.440000	24.851283
11.450000	24.851283
11.460000	24.851283
11.470000	24.851283
11.480000	24.851283
11.490000	24.851283
11.500000	24.847380
11.510000	24.847380
11.520000	24.847380
11.530000	24.847380
11.540000	24.847380
11.550000	24.847380
11.560000	24.847380
11.570000	24.847380
11.580000	24.847380
11.590000	24.847380
11.600000	24.847380
11.610000	24.847380
11.620000	24.847380
11.630000	24.847380
11.640000	24.847380
11.650000	24.847380
11.660000	24.847380
11.670000	24.847380
11.680000	24.847380
11.690000	24.847380
11.700000	24.847380
11.710000	24.847380
11.720000	24.847380
11.730000	24.847380
11.740000	24.847380
11.750000	24.847380
11.760000	24.847380
11.770000	24.847380
11.780000	24.847380
11.790000	24.847380
11.800000	24.847380
11.810000	24.847380
11.820000	24.847380
11.830000	24.847380
11.840000	24.847380
11.850000	24.847380
11.860000	24.847380
11.870000	24.847380
11.880000	24.847380
11.890000	24.847380
11.900000	24.847380
11.910000	24.847380
11.920000	24.847380
11.930000	24.847380
11.940000	24.847380
11.950000	24.847380
11.960000	24.847380
11.970000	24.847380
11.980000	24.847380
11.990000	24.847380
12.000000	24.843252
12.010000	24.843252
12.020000	24.843252
12.030000	24.843252
12.040000	24.843252
12.050000	24.843252
12.060000	24.843252
12.070000	24.843252
12.080000	24.843252
12.090000	24.843252
12.100000	24.843252
12.110000	24.843252
12.120000	24.843252
12.130000	24.843252
12.140000	24.843252
12.150000	24.843252
12.160000	24.843252
12.170000	24.843252
12.180000	24.843252
12.190000	24.843252
12.200000	24.843252
12.210000	24.843252
12.220000	24.843252
12.230000	24.843252
12.240000	24.843252
12.250000	24.843252
12.260000	24.843252
12.270000	24.843252
12.280000	24.843252
12.290000	24.843252
12.300000	24.843252
12.310000	24.843252
12.320000	24.843252
12.330000	24.843252
12.340000	24.843252
12.350000	24.843252
12.360000	24.843252
12.370000	24.843252
12.380000	24.843252
12.390000	24.843252
12.400000	24.843252
12.410000	24.843252
12.420000	24.843252
12.430000	24.843252
12.440000	24.843252
12.450000	24.843252
12.460000	24.843252
12.470000	24.843252
12.480000	24.843252
12.490000	24.843252
12.500000	24.837990
12.510000	24.837990
12.520000	24.837990
12.530000	24.837990
12.540000	24.837990
12.550000	24.837990
12.560000	24.837990
12.570000	24.837990
12.580000	24.837990
12.590000	24.837990
12.600000	24.837990
12.610000	24.837990
12.620000	24.837990
12.630000	24.837990
12.640000	24.837990
12.650000	24.837990
12.660000	24.837990
12.670000	24.837990
12.680000	24.837990
12.690000	24.837990
12.700000	24.837990
12.710000	24.837990
12.720000	24.837990
12.730000	24.837990
12.740000	24.837990
12.750000	24.837990
12.760000	24.837990
12.770000	24.837990
12.780000	24.837990
12.790000	24.837990
12.800000	24.837990
12.810000	24.837990
12.820000	24.837990
12.830000	24.837990
12.840000	24.837990
12.850000	24.837990
12.860000	24.837990
12.870000	24.837990
12.880000	24.837990
12.890000	24.837990
12.900000	24.837990
12.910000	24.837990
12.920000	24.837990
12.930000	24.837990
12.940000	24.837990
12.950000	24.837990
12.960000	24.837990
12.970000	24.837990
12.980000	24.837990
12.990000	24.837990
13.000000	24.833394
13.010000	24.833394
13.020000	24.833394
13.030000	24.833394
13.040000	24.833394
13.050000	24.833394
13.060000	24.833394
13.070000	24.833394
13.080000	24.833394
13.090000	24.833394
13.100000	24.833394
13.110000	24.833394
13.120000	24.833394
13.130000	24.833394
13.140000	24.833394
13.150000	24.833394
13.160000	24.833394
13.170000	24.833394
13.180000	24.833394
13.190000	24.833394
13.200000	24.833394
13.210000	24.833394
13.220000	24.833394
13.230000	24.833394
13.240000	24.833394
13.250000	24.833394
13.260000	24.833394
13.270000	24.833394
13.280000	24.833394
13.290000	24.833394
13.300000	24.833394
13.310000	24.833394
13.320000	24.833394
13.330000	24.833394
13.340000	24.833394
13.350000	24.833394
13.360000	24.833394
13.370000	24.833394
13.380000	24.833394
13.390000	24.833394
13.400000	24.833394
13.410000	24.833394
13.420000	24.833394
13.430000	24.833394
13.440000	24.833394
13.450000	24.833394
13.460000	24.833394
13.470000	24.833394
13.480000	24.833394
13.490000	24.833394
13.500000	24.828104
13.510000	24.828104
13.520000	24.828104
13.530000	24.828104
13.540000	24.828104
13.550000	24.828104
13.560000	24.828104
13.570000	24.828104
13.580000	24.828104
13.590000	24.828104
13.600000	24.828104
13.610000	24.828104
13.620000	24.828104
13.630000	24.828104
13.640000	24.828104
13.650000	24.828104
13.660000	24.828104
13.670000	24.828104
13.680000	24.828104
13.690000	24.828104
13.700000	24.828104
13.710000	24.828104
13.720000	24.828104
13.730000	24.828104
13.740000	24.828104
13.750000	24.828104
13.760000	24.828104
13.770000	24.828104
13.780000	24.828104
13.790000	24.828104
13.800000	24.828104
13.810000	24.828104
13.820000	24.828104
13.830000	24.828104
13.840000	24.828104
13.850000	24.828104
13.860000	24.828104
13.870000	24.828104
13.880000	24.828104
13.890000	24.828104
13.900000	24.828104
13.910000	24.828104
13.920000	24.828104
13.930000	24.828104
13.940000	24.828104
13.950000	24.828104
13.960000	24.828104
13.970000	24.828104
13.980000	24.828104
13.990000	24.828104
14.000000	24.822589
14.010000	24.822589
14.020000	24.822589
14.030000	24.822589
14.040000	24.822589
14.050000	24.822589
14.060000	24.822589
14.070000	24.822589
14.080000	24.822589
14.090000	24.822589
14.100000	24.822589
14.110000	24.822589
14.120000	24.822589
14.130000	24.822589
14.140000	24.822589
14.150000	24.822589
14.160000	24.822589
14.170000	24.822589
14.180000	24.822589
14.190000	24.822589
14.200000	24.822589
14.210000	24.822589
14.220000	24.822589
14.230000	24.822589
14.240000	24.822589
14.250000	24.822589
14.260000	24.822589
14.270000	24.822589
14.280000	24.822589
14.290000	24.822589
14.300000	24.822589
14.310000	24.822589
14.320000	24.822589
14.330000	24.822589
14.340000	24.822589
14.350000	24.822589
14.360000	24.822589
14.370000	24.822589
14.380000	24.822589
14.390000	24.822589
14.400000	24.822589
14.410000	24.822589
14.420000	24.822589
14.430000	24.822589
14.440000	24.822589
14.450000	24.822589
14.460000	24.822589
14.470000	24.822589
14.480000	24.822589
14.490000	24.822589
14.500000	24.816944
14.510000	24.816944
14.520000	24.816944
14.530000	24.816944
14.540000	24.816944
14.550000	24.816944
14.560000	24.816944
14.570000	24.816944
14.580000	24.816944
14.590000	24.816944
14.600000	24.816944
14.610000	24.816944
14.620000	24.816944
14.630000	24.816944
14.640000	24.816944
14.650000	24.816944
14.660000	24.816944
14.670000	24.816944
14.680000	24.816944
14.690000	24.816944
14.700000	24.816944
14.710000	24.816944
14.720000	24.816944
14.730000	24.816944
14.740000	24.816944
14.750000	24.816944
14.760000	24.816944
14.770000	24.816944
14.780000	24.816944
14.790000	24.816944
14.800000	24.816944
14.810000	24.816944
14.820000	24.816944
14.830000	24.816944
14.840000	24.816944
14.850000	24.816944
14.860000	24.816944
14.870000	24.816944
14.880000	24.816944
14.890000	24.816944
14.900000	24.816944
14.910000	24.816944
14.920000	24.816944
14.930000	24.816944
14.940000	24.816944
14.950000	24.816944
14.960000	24.816944
14.970000	24.816944
14.980000	24.816944
14.990000	24.816944
15.000000	24.811081
15.010000	24.811081
15.020000	24.811081
15.030000	24.811081
15.040000	24.811081
15.050000	24.811081
15.060000	24.811081
15.070000	24.811081
15.080000	24.811081
15.090000	24.811081
15.100000	24.811081
15.110000	24.811081
15.120000	24.811081
15.130000	24.811081
15.140000	24.811081
15.150000	24.811081
15.160000	24.811081
15.170000	24.811081
15.180000	24.811081
15.190000	24.811081
15.200000	24.811081
15.210000	24.811081
15.220000	24.811081
15.230000	24.811081
15.240000	24.811081
15.250000	24.811081
15.260000	24.811081
15.270000	24.811081
15.280000	24.811081
15.290000	24.811081
15.300000	24.811081
15.310000	24.811081
15.320000	24.811081
15.330000	24.811081
15.340000	24.811081
15.350000	24.811081
15.360000	24.811081
15.370000	24.811081
15.380000	24.811081
15.390000	24.811081
15.400000	24.811081
15.410000	24.811081
15.420000	24.811081
15.430000	24.811081
15.440000	24.811081
15.450000	24.811081
15.460000	24.811081
15.470000	24.811081
15.480000	24.811081
15.490000	24.811081
15.500000	24.805434
15.510000	24.805434
15.520000	24.805434
15.530000	24.805434
15.540000	24.805434
15.550000	24.805434
15.560000	24.805434
15.570000	24.805434
15.580000	24.805434
15.590000	24.805434
15.600000	24.805434
15.610000	24.805434
15.620000	24.805434
15.630000	24.805434
15.640000	24.805434
15.650000	24.805434
15.660000	24.805434
15.670000	24.805434
15.680000	24.805434
15.690000	24.805434
15.700000	24.805434
15.710000	24.805434
15.720000	24.805434
15.730000	24.805434
15.740000	24.805434
15.750000	24.805434
15.760000	24.805434
15.770000	24.805434
15.780000	24.805434
15.790000	24.805434
15.800000	24.805434
15.810000	24.805434
15.820000	24.805434
15.830000	24.805434
15.840000	24.805434
15.850000	24.805434
15.860000	24.805434
15.870000	24.805434
15.880000	24.805434
15.890000	24.805434
15.900000	24.805434
15.910000	24.805434
15.920000	24.805434
15.930000	24.805434
15.940000	24.805434
15.950000	24.805434
15.960000	24.805434
15.970000	24.805434
15.980000	24.805434
15.990000	24.805434
16.000000	24.799657
16.010000	24.799657
16.020000	24.799657
16.030000	24.799657
16.040000	24.799657
16.050000	24.799657
16.060000	24.799657
16.070000	24.799657
16.080000	24.799657
16.090000	24.799657
16.100000	24.799657
16.110000	24.799657
16.120000	24.799657
16.130000	24.799657
16.140000	24.799657
16.150000	24.799657
16.160000	24.799657
16.170000	24.799657
16.180000	24.799657
16.190000	24.799657
16.200000	24.799657
16.210000	24.799657
16.220000	24.799657
16.230000	24.799657
16.240000	24.799657
16.250000	24.799657
16.260000	24.799657
16.270000	24.799657
16.280000	24.799657
16.290000	24.799657
16.300000	24.799657
16.310000	24.799657
16.320000	24.799657
16.330000	24.799657
16.340000	24.799657
16.350000	24.799657
16.360000	24.799657
16.370000	24.799657
16.380000	24.799657
16.390000	24.799657
16.400000	24.799657
16.410000	24.799657
16.420000	24.799657
16.430000	24.799657
16.440000	24.799657
16.450000	24.799657
16.460000	24.799657
16.470000	24.799657
16.480000	24.799657
16.490000	24.799657
16.500000	24.793107
16.510000	24.793107
16.520000	24.793107
16.530000	24.793107
16.540000	24.793107
16.550000	24.793107
16.560000	24.793107
16.570000	24.793107
16.580000	24.793107
16.590000	24.793107
16.600000	24.793107
16.610000	24.793107
16.620000	24.793107
16.630000	24.793107
16.640000	24.793107
16.650000	24.793107
16.660000	24.793107
16.670000	24.793107
16.680000	24.793107
16.690000	24.793107
16.700000	24.793107
16.710000	24.793107
16.720000	24.793107
16.730000	24.793107
16.740000	24.793107
16.750000	24.793107
16.760000	24.793107
16.770000	24.793107
16.780000	24.793107
16.790000	24.793107
16.800000	24.793107
16.810000	24.793107
16.820000	24.793107
16.830000	24.793107
16.840000	24.793107
16.850000	24.793107
16.860000	24.793107
16.870000	24.793107
16.880000	24.793107
16.890000	24.793107
16.900000	24.793107
16.910000	24.793107
16.920000	24.793107
16.930000	24.793107
16.940000	24.793107
16.950000	24.793107
16.960000	24.793107
16.970000	24.793107
16.980000	24.793107
16.990000	24.793107
17.000000	24.787554
17.010000	24.787554
17.020000	24.787554
17.030000	24.787554
17.040000	24.787554
17.050000	24.787554
17.060000	24.787554
17.070000	24.787554
17.080000	24.787554
17.090000	24.787554
17.100000	24.787554
17.110000	24.787554
17.120000	24.787554
17.130000	24.787554
17.140000	24.787554
17.150000	24.787554
17.160000	24.787554
17.170000	24.787554
17.180000	24.787554
17.190000	24.787554
17.200000	24.787554
17.210000	24.787554
17.220000	24.787554
17.230000	24.787554
17.240000	24.787554
17.250000	24.787554
17.260000	24.787554
17.270000	24.787554
17.280000	24.787554
17.290000	24.787554
17.300000	24.787554
17.310000	24.787554
17.320000	24.787554
17.330000	24.787554
17.340000	24.787554
17.350000	24.787554
17.360000	24.787554
17.370000	24.787554
17.380000	24.787554
17.390000	24.787554
17.400000	24.787554
17.410000	24.787554
17.420000	24.787554
17.430000	24.787554
17.440000	24.787554
17.450000	24.787554
17.460000	24.787554
17.470000	24.787554
17.480000	24.787554
17.490000	24.787554
17.500000	24.781202
17.510000	24.781202
17.520000	24.781202
17.530000	24.781202
17.540000	24.781202
17.550000	24.781202
17.560000	24.781202
17.570000	24.781202
17.580000	24.781202
17.590000	24.781202
17.600000	24.781202
17.610000	24.781202
17.620000	24.781202
17.630000	24.781202
17.640000	24.781202
17.650000	24.781202
17.660000	24.781202
17.670000	24.781202
17.680000	24.781202
17.690000	24.781202
17.700000	24.781202
17.710000	24.781202
17.720000	24.781202
17.730000	24.781202
17.740000	24.781202
17.750000	24.781202
17.760000	24.781202
17.770000	24.781202
17.780000	24.781202
17.790000	24.781202
17.800000	24.781202
17.810000	24.781202
17.820000	24.781202
17.830000	24.781202
17.840000	24.781202
17.850000	24.781202
17.860000	24.781202
17.870000	24.781202
17.880000	24.781202
17.890000	24.781202
17.900000	24.781202
17.910000	24.781202
17.920000	24.781202
17.930000	24.781202
17.940000	24.781202
17.950000	24.781202
17.960000	24.781202
17.970000	24.781202
17.980000	24.781202
17.990000	24.781202
