LabVIEW Measurement	
Writer_Version	2
Reader_Version	2
Separator	Tab
Decimal_Separator	.
Multi_Headings	No
X_Columns	One
Time_Pref	Absolute
Operator	biomech-dyno
Date	2023/05/23
Time	16:26:31.1792034999998606061
***End_of_Header***	
	
Channels	1	
Samples	10	
Date	2023/05/23	
Time	17:19:05.456692399999716924	
X_Dimension	Time	
X0	0.0000000000000000E+0	
Delta_X	0.010000	
***End_of_Header***		
X_Value	Untitled	Comment
0.000000	23.904243
0.010000	23.904243
0.020000	23.904243
0.030000	23.904243
0.040000	23.904243
0.050000	23.904243
0.060000	23.904243
0.070000	23.904243
0.080000	23.904243
0.090000	23.904243
0.100000	23.904243
0.110000	23.904243
0.120000	23.904243
0.130000	23.904243
0.140000	23.904243
0.150000	23.904243
0.160000	23.904243
0.170000	23.904243
0.180000	23.904243
0.190000	23.904243
0.200000	23.904243
0.210000	23.904243
0.220000	23.904243
0.230000	23.904243
0.240000	23.904243
0.250000	23.904243
0.260000	23.904243
0.270000	23.904243
0.280000	23.904243
0.290000	23.904243
0.300000	23.904243
0.310000	23.904243
0.320000	23.904243
0.330000	23.904243
0.340000	23.904243
0.350000	23.904243
0.360000	23.904243
0.370000	23.904243
0.380000	23.904243
0.390000	23.904243
0.400000	23.904243
0.410000	23.904243
0.420000	23.904243
0.430000	23.904243
0.440000	23.904243
0.450000	23.904243
0.460000	23.904243
0.470000	23.904243
0.480000	23.904243
0.490000	23.904243
0.500000	23.906759
0.510000	23.906759
0.520000	23.906759
0.530000	23.906759
0.540000	23.906759
0.550000	23.906759
0.560000	23.906759
0.570000	23.906759
0.580000	23.906759
0.590000	23.906759
0.600000	23.906759
0.610000	23.906759
0.620000	23.906759
0.630000	23.906759
0.640000	23.906759
0.650000	23.906759
0.660000	23.906759
0.670000	23.906759
0.680000	23.906759
0.690000	23.906759
0.700000	23.906759
0.710000	23.906759
0.720000	23.906759
0.730000	23.906759
0.740000	23.906759
0.750000	23.906759
0.760000	23.906759
0.770000	23.906759
0.780000	23.906759
0.790000	23.906759
0.800000	23.906759
0.810000	23.906759
0.820000	23.906759
0.830000	23.906759
0.840000	23.906759
0.850000	23.906759
0.860000	23.906759
0.870000	23.906759
0.880000	23.906759
0.890000	23.906759
0.900000	23.906759
0.910000	23.906759
0.920000	23.906759
0.930000	23.906759
0.940000	23.906759
0.950000	23.906759
0.960000	23.906759
0.970000	23.906759
0.980000	23.906759
0.990000	23.906759
1.000000	23.913071
1.010000	23.913071
1.020000	23.913071
1.030000	23.913071
1.040000	23.913071
1.050000	23.913071
1.060000	23.913071
1.070000	23.913071
1.080000	23.913071
1.090000	23.913071
1.100000	23.913071
1.110000	23.913071
1.120000	23.913071
1.130000	23.913071
1.140000	23.913071
1.150000	23.913071
1.160000	23.913071
1.170000	23.913071
1.180000	23.913071
1.190000	23.913071
1.200000	23.913071
1.210000	23.913071
1.220000	23.913071
1.230000	23.913071
1.240000	23.913071
1.250000	23.913071
1.260000	23.913071
1.270000	23.913071
1.280000	23.913071
1.290000	23.913071
1.300000	23.913071
1.310000	23.913071
1.320000	23.913071
1.330000	23.913071
1.340000	23.913071
1.350000	23.913071
1.360000	23.913071
1.370000	23.913071
1.380000	23.913071
1.390000	23.913071
1.400000	23.913071
1.410000	23.913071
1.420000	23.913071
1.430000	23.913071
1.440000	23.913071
1.450000	23.913071
1.460000	23.913071
1.470000	23.913071
1.480000	23.913071
1.490000	23.913071
1.500000	23.924960
1.510000	23.924960
1.520000	23.924960
1.530000	23.924960
1.540000	23.924960
1.550000	23.924960
1.560000	23.924960
1.570000	23.924960
1.580000	23.924960
1.590000	23.924960
1.600000	23.924960
1.610000	23.924960
1.620000	23.924960
1.630000	23.924960
1.640000	23.924960
1.650000	23.924960
1.660000	23.924960
1.670000	23.924960
1.680000	23.924960
1.690000	23.924960
1.700000	23.924960
1.710000	23.924960
1.720000	23.924960
1.730000	23.924960
1.740000	23.924960
1.750000	23.924960
1.760000	23.924960
1.770000	23.924960
1.780000	23.924960
1.790000	23.924960
1.800000	23.924960
1.810000	23.924960
1.820000	23.924960
1.830000	23.924960
1.840000	23.924960
1.850000	23.924960
1.860000	23.924960
1.870000	23.924960
1.880000	23.924960
1.890000	23.924960
1.900000	23.924960
1.910000	23.924960
1.920000	23.924960
1.930000	23.924960
1.940000	23.924960
1.950000	23.924960
1.960000	23.924960
1.970000	23.924960
1.980000	23.924960
1.990000	23.924960
2.000000	23.941318
2.010000	23.941318
2.020000	23.941318
2.030000	23.941318
2.040000	23.941318
2.050000	23.941318
2.060000	23.941318
2.070000	23.941318
2.080000	23.941318
2.090000	23.941318
2.100000	23.941318
2.110000	23.941318
2.120000	23.941318
2.130000	23.941318
2.140000	23.941318
2.150000	23.941318
2.160000	23.941318
2.170000	23.941318
2.180000	23.941318
2.190000	23.941318
2.200000	23.941318
2.210000	23.941318
2.220000	23.941318
2.230000	23.941318
2.240000	23.941318
2.250000	23.941318
2.260000	23.941318
2.270000	23.941318
2.280000	23.941318
2.290000	23.941318
2.300000	23.941318
2.310000	23.941318
2.320000	23.941318
2.330000	23.941318
2.340000	23.941318
2.350000	23.941318
2.360000	23.941318
2.370000	23.941318
2.380000	23.941318
2.390000	23.941318
2.400000	23.941318
2.410000	23.941318
2.420000	23.941318
2.430000	23.941318
2.440000	23.941318
2.450000	23.941318
2.460000	23.941318
2.470000	23.941318
2.480000	23.941318
2.490000	23.941318
2.500000	23.960890
2.510000	23.960890
2.520000	23.960890
2.530000	23.960890
2.540000	23.960890
2.550000	23.960890
2.560000	23.960890
2.570000	23.960890
2.580000	23.960890
2.590000	23.960890
2.600000	23.960890
2.610000	23.960890
2.620000	23.960890
2.630000	23.960890
2.640000	23.960890
2.650000	23.960890
2.660000	23.960890
2.670000	23.960890
2.680000	23.960890
2.690000	23.960890
2.700000	23.960890
2.710000	23.960890
2.720000	23.960890
2.730000	23.960890
2.740000	23.960890
2.750000	23.960890
2.760000	23.960890
2.770000	23.960890
2.780000	23.960890
2.790000	23.960890
2.800000	23.960890
2.810000	23.960890
2.820000	23.960890
2.830000	23.960890
2.840000	23.960890
2.850000	23.960890
2.860000	23.960890
2.870000	23.960890
2.880000	23.960890
2.890000	23.960890
2.900000	23.960890
2.910000	23.960890
2.920000	23.960890
2.930000	23.960890
2.940000	23.960890
2.950000	23.960890
2.960000	23.960890
2.970000	23.960890
2.980000	23.960890
2.990000	23.960890
3.000000	23.982762
3.010000	23.982762
3.020000	23.982762
3.030000	23.982762
3.040000	23.982762
3.050000	23.982762
3.060000	23.982762
3.070000	23.982762
3.080000	23.982762
3.090000	23.982762
3.100000	23.982762
3.110000	23.982762
3.120000	23.982762
3.130000	23.982762
3.140000	23.982762
3.150000	23.982762
3.160000	23.982762
3.170000	23.982762
3.180000	23.982762
3.190000	23.982762
3.200000	23.982762
3.210000	23.982762
3.220000	23.982762
3.230000	23.982762
3.240000	23.982762
3.250000	23.982762
3.260000	23.982762
3.270000	23.982762
3.280000	23.982762
3.290000	23.982762
3.300000	23.982762
3.310000	23.982762
3.320000	23.982762
3.330000	23.982762
3.340000	23.982762
3.350000	23.982762
3.360000	23.982762
3.370000	23.982762
3.380000	23.982762
3.390000	23.982762
3.400000	23.982762
3.410000	23.982762
3.420000	23.982762
3.430000	23.982762
3.440000	23.982762
3.450000	23.982762
3.460000	23.982762
3.470000	23.982762
3.480000	23.982762
3.490000	23.982762
3.500000	24.005144
3.510000	24.005144
3.520000	24.005144
3.530000	24.005144
3.540000	24.005144
3.550000	24.005144
3.560000	24.005144
3.570000	24.005144
3.580000	24.005144
3.590000	24.005144
3.600000	24.005144
3.610000	24.005144
3.620000	24.005144
3.630000	24.005144
3.640000	24.005144
3.650000	24.005144
3.660000	24.005144
3.670000	24.005144
3.680000	24.005144
3.690000	24.005144
3.700000	24.005144
3.710000	24.005144
3.720000	24.005144
3.730000	24.005144
3.740000	24.005144
3.750000	24.005144
3.760000	24.005144
3.770000	24.005144
3.780000	24.005144
3.790000	24.005144
3.800000	24.005144
3.810000	24.005144
3.820000	24.005144
3.830000	24.005144
3.840000	24.005144
3.850000	24.005144
3.860000	24.005144
3.870000	24.005144
3.880000	24.005144
3.890000	24.005144
3.900000	24.005144
3.910000	24.005144
3.920000	24.005144
3.930000	24.005144
3.940000	24.005144
3.950000	24.005144
3.960000	24.005144
3.970000	24.005144
3.980000	24.005144
3.990000	24.005144
4.000000	24.024046
4.010000	24.024046
4.020000	24.024046
4.030000	24.024046
4.040000	24.024046
4.050000	24.024046
4.060000	24.024046
4.070000	24.024046
4.080000	24.024046
4.090000	24.024046
4.100000	24.024046
4.110000	24.024046
4.120000	24.024046
4.130000	24.024046
4.140000	24.024046
4.150000	24.024046
4.160000	24.024046
4.170000	24.024046
4.180000	24.024046
4.190000	24.024046
4.200000	24.024046
4.210000	24.024046
4.220000	24.024046
4.230000	24.024046
4.240000	24.024046
4.250000	24.024046
4.260000	24.024046
4.270000	24.024046
4.280000	24.024046
4.290000	24.024046
4.300000	24.024046
4.310000	24.024046
4.320000	24.024046
4.330000	24.024046
4.340000	24.024046
4.350000	24.024046
4.360000	24.024046
4.370000	24.024046
4.380000	24.024046
4.390000	24.024046
4.400000	24.024046
4.410000	24.024046
4.420000	24.024046
4.430000	24.024046
4.440000	24.024046
4.450000	24.024046
4.460000	24.024046
4.470000	24.024046
4.480000	24.024046
4.490000	24.024046
4.500000	24.038266
4.510000	24.038266
4.520000	24.038266
4.530000	24.038266
4.540000	24.038266
4.550000	24.038266
4.560000	24.038266
4.570000	24.038266
4.580000	24.038266
4.590000	24.038266
4.600000	24.038266
4.610000	24.038266
4.620000	24.038266
4.630000	24.038266
4.640000	24.038266
4.650000	24.038266
4.660000	24.038266
4.670000	24.038266
4.680000	24.038266
4.690000	24.038266
4.700000	24.038266
4.710000	24.038266
4.720000	24.038266
4.730000	24.038266
4.740000	24.038266
4.750000	24.038266
4.760000	24.038266
4.770000	24.038266
4.780000	24.038266
4.790000	24.038266
4.800000	24.038266
4.810000	24.038266
4.820000	24.038266
4.830000	24.038266
4.840000	24.038266
4.850000	24.038266
4.860000	24.038266
4.870000	24.038266
4.880000	24.038266
4.890000	24.038266
4.900000	24.038266
4.910000	24.038266
4.920000	24.038266
4.930000	24.038266
4.940000	24.038266
4.950000	24.038266
4.960000	24.038266
4.970000	24.038266
4.980000	24.038266
4.990000	24.038266
5.000000	24.048556
5.010000	24.048556
5.020000	24.048556
5.030000	24.048556
5.040000	24.048556
5.050000	24.048556
5.060000	24.048556
5.070000	24.048556
5.080000	24.048556
5.090000	24.048556
5.100000	24.048556
5.110000	24.048556
5.120000	24.048556
5.130000	24.048556
5.140000	24.048556
5.150000	24.048556
5.160000	24.048556
5.170000	24.048556
5.180000	24.048556
5.190000	24.048556
5.200000	24.048556
5.210000	24.048556
5.220000	24.048556
5.230000	24.048556
5.240000	24.048556
5.250000	24.048556
5.260000	24.048556
5.270000	24.048556
5.280000	24.048556
5.290000	24.048556
5.300000	24.048556
5.310000	24.048556
5.320000	24.048556
5.330000	24.048556
5.340000	24.048556
5.350000	24.048556
5.360000	24.048556
5.370000	24.048556
5.380000	24.048556
5.390000	24.048556
5.400000	24.048556
5.410000	24.048556
5.420000	24.048556
5.430000	24.048556
5.440000	24.048556
5.450000	24.048556
5.460000	24.048556
5.470000	24.048556
5.480000	24.048556
5.490000	24.048556
5.500000	24.055887
5.510000	24.055887
5.520000	24.055887
5.530000	24.055887
5.540000	24.055887
5.550000	24.055887
5.560000	24.055887
5.570000	24.055887
5.580000	24.055887
5.590000	24.055887
5.600000	24.055887
5.610000	24.055887
5.620000	24.055887
5.630000	24.055887
5.640000	24.055887
5.650000	24.055887
5.660000	24.055887
5.670000	24.055887
5.680000	24.055887
5.690000	24.055887
5.700000	24.055887
5.710000	24.055887
5.720000	24.055887
5.730000	24.055887
5.740000	24.055887
5.750000	24.055887
5.760000	24.055887
5.770000	24.055887
5.780000	24.055887
5.790000	24.055887
5.800000	24.055887
5.810000	24.055887
5.820000	24.055887
5.830000	24.055887
5.840000	24.055887
5.850000	24.055887
5.860000	24.055887
5.870000	24.055887
5.880000	24.055887
5.890000	24.055887
5.900000	24.055887
5.910000	24.055887
5.920000	24.055887
5.930000	24.055887
5.940000	24.055887
5.950000	24.055887
5.960000	24.055887
5.970000	24.055887
5.980000	24.055887
5.990000	24.055887
6.000000	24.060603
6.010000	24.060603
6.020000	24.060603
6.030000	24.060603
6.040000	24.060603
6.050000	24.060603
6.060000	24.060603
6.070000	24.060603
6.080000	24.060603
6.090000	24.060603
6.100000	24.060603
6.110000	24.060603
6.120000	24.060603
6.130000	24.060603
6.140000	24.060603
6.150000	24.060603
6.160000	24.060603
6.170000	24.060603
6.180000	24.060603
6.190000	24.060603
6.200000	24.060603
6.210000	24.060603
6.220000	24.060603
6.230000	24.060603
6.240000	24.060603
6.250000	24.060603
6.260000	24.060603
6.270000	24.060603
6.280000	24.060603
6.290000	24.060603
6.300000	24.060603
6.310000	24.060603
6.320000	24.060603
6.330000	24.060603
6.340000	24.060603
6.350000	24.060603
6.360000	24.060603
6.370000	24.060603
6.380000	24.060603
6.390000	24.060603
6.400000	24.060603
6.410000	24.060603
6.420000	24.060603
6.430000	24.060603
6.440000	24.060603
6.450000	24.060603
6.460000	24.060603
6.470000	24.060603
6.480000	24.060603
6.490000	24.060603
6.500000	24.064000
6.510000	24.064000
6.520000	24.064000
6.530000	24.064000
6.540000	24.064000
6.550000	24.064000
6.560000	24.064000
6.570000	24.064000
6.580000	24.064000
6.590000	24.064000
6.600000	24.064000
6.610000	24.064000
6.620000	24.064000
6.630000	24.064000
6.640000	24.064000
6.650000	24.064000
6.660000	24.064000
6.670000	24.064000
6.680000	24.064000
6.690000	24.064000
6.700000	24.064000
6.710000	24.064000
6.720000	24.064000
6.730000	24.064000
6.740000	24.064000
6.750000	24.064000
6.760000	24.064000
6.770000	24.064000
6.780000	24.064000
6.790000	24.064000
6.800000	24.064000
6.810000	24.064000
6.820000	24.064000
6.830000	24.064000
6.840000	24.064000
6.850000	24.064000
6.860000	24.064000
6.870000	24.064000
6.880000	24.064000
6.890000	24.064000
6.900000	24.064000
6.910000	24.064000
6.920000	24.064000
6.930000	24.064000
6.940000	24.064000
6.950000	24.064000
6.960000	24.064000
6.970000	24.064000
6.980000	24.064000
6.990000	24.064000
7.000000	24.066032
7.010000	24.066032
7.020000	24.066032
7.030000	24.066032
7.040000	24.066032
7.050000	24.066032
7.060000	24.066032
7.070000	24.066032
7.080000	24.066032
7.090000	24.066032
7.100000	24.066032
7.110000	24.066032
7.120000	24.066032
7.130000	24.066032
7.140000	24.066032
7.150000	24.066032
7.160000	24.066032
7.170000	24.066032
7.180000	24.066032
7.190000	24.066032
7.200000	24.066032
7.210000	24.066032
7.220000	24.066032
7.230000	24.066032
7.240000	24.066032
7.250000	24.066032
7.260000	24.066032
7.270000	24.066032
7.280000	24.066032
7.290000	24.066032
7.300000	24.066032
7.310000	24.066032
7.320000	24.066032
7.330000	24.066032
7.340000	24.066032
7.350000	24.066032
7.360000	24.066032
7.370000	24.066032
7.380000	24.066032
7.390000	24.066032
7.400000	24.066032
7.410000	24.066032
7.420000	24.066032
7.430000	24.066032
7.440000	24.066032
7.450000	24.066032
7.460000	24.066032
7.470000	24.066032
7.480000	24.066032
7.490000	24.066032
7.500000	24.066982
7.510000	24.066982
7.520000	24.066982
7.530000	24.066982
7.540000	24.066982
7.550000	24.066982
7.560000	24.066982
7.570000	24.066982
7.580000	24.066982
7.590000	24.066982
7.600000	24.066982
7.610000	24.066982
7.620000	24.066982
7.630000	24.066982
7.640000	24.066982
7.650000	24.066982
7.660000	24.066982
7.670000	24.066982
7.680000	24.066982
7.690000	24.066982
7.700000	24.066982
7.710000	24.066982
7.720000	24.066982
7.730000	24.066982
7.740000	24.066982
7.750000	24.066982
7.760000	24.066982
7.770000	24.066982
7.780000	24.066982
7.790000	24.066982
7.800000	24.066982
7.810000	24.066982
7.820000	24.066982
7.830000	24.066982
7.840000	24.066982
7.850000	24.066982
7.860000	24.066982
7.870000	24.066982
7.880000	24.066982
7.890000	24.066982
7.900000	24.066982
7.910000	24.066982
7.920000	24.066982
7.930000	24.066982
7.940000	24.066982
7.950000	24.066982
7.960000	24.066982
7.970000	24.066982
7.980000	24.066982
7.990000	24.066982
8.000000	24.067053
8.010000	24.067053
8.020000	24.067053
8.030000	24.067053
8.040000	24.067053
8.050000	24.067053
8.060000	24.067053
8.070000	24.067053
8.080000	24.067053
8.090000	24.067053
8.100000	24.067053
8.110000	24.067053
8.120000	24.067053
8.130000	24.067053
8.140000	24.067053
8.150000	24.067053
8.160000	24.067053
8.170000	24.067053
8.180000	24.067053
8.190000	24.067053
8.200000	24.067053
8.210000	24.067053
8.220000	24.067053
8.230000	24.067053
8.240000	24.067053
8.250000	24.067053
8.260000	24.067053
8.270000	24.067053
8.280000	24.067053
8.290000	24.067053
8.300000	24.067053
8.310000	24.067053
8.320000	24.067053
8.330000	24.067053
8.340000	24.067053
8.350000	24.067053
8.360000	24.067053
8.370000	24.067053
8.380000	24.067053
8.390000	24.067053
8.400000	24.067053
8.410000	24.067053
8.420000	24.067053
8.430000	24.067053
8.440000	24.067053
8.450000	24.067053
8.460000	24.067053
8.470000	24.067053
8.480000	24.067053
8.490000	24.067053
8.500000	24.066780
8.510000	24.066780
8.520000	24.066780
8.530000	24.066780
8.540000	24.066780
8.550000	24.066780
8.560000	24.066780
8.570000	24.066780
8.580000	24.066780
8.590000	24.066780
8.600000	24.066780
8.610000	24.066780
8.620000	24.066780
8.630000	24.066780
8.640000	24.066780
8.650000	24.066780
8.660000	24.066780
8.670000	24.066780
8.680000	24.066780
8.690000	24.066780
8.700000	24.066780
8.710000	24.066780
8.720000	24.066780
8.730000	24.066780
8.740000	24.066780
8.750000	24.066780
8.760000	24.066780
8.770000	24.066780
8.780000	24.066780
8.790000	24.066780
8.800000	24.066780
8.810000	24.066780
8.820000	24.066780
8.830000	24.066780
8.840000	24.066780
8.850000	24.066780
8.860000	24.066780
8.870000	24.066780
8.880000	24.066780
8.890000	24.066780
8.900000	24.066780
8.910000	24.066780
8.920000	24.066780
8.930000	24.066780
8.940000	24.066780
8.950000	24.066780
8.960000	24.066780
8.970000	24.066780
8.980000	24.066780
8.990000	24.066780
9.000000	24.065803
9.010000	24.065803
9.020000	24.065803
9.030000	24.065803
9.040000	24.065803
9.050000	24.065803
9.060000	24.065803
9.070000	24.065803
9.080000	24.065803
9.090000	24.065803
9.100000	24.065803
9.110000	24.065803
9.120000	24.065803
9.130000	24.065803
9.140000	24.065803
9.150000	24.065803
9.160000	24.065803
9.170000	24.065803
9.180000	24.065803
9.190000	24.065803
9.200000	24.065803
9.210000	24.065803
9.220000	24.065803
9.230000	24.065803
9.240000	24.065803
9.250000	24.065803
9.260000	24.065803
9.270000	24.065803
9.280000	24.065803
9.290000	24.065803
9.300000	24.065803
9.310000	24.065803
9.320000	24.065803
9.330000	24.065803
9.340000	24.065803
9.350000	24.065803
9.360000	24.065803
9.370000	24.065803
9.380000	24.065803
9.390000	24.065803
9.400000	24.065803
9.410000	24.065803
9.420000	24.065803
9.430000	24.065803
9.440000	24.065803
9.450000	24.065803
9.460000	24.065803
9.470000	24.065803
9.480000	24.065803
9.490000	24.065803
9.500000	24.064536
9.510000	24.064536
9.520000	24.064536
9.530000	24.064536
9.540000	24.064536
9.550000	24.064536
9.560000	24.064536
9.570000	24.064536
9.580000	24.064536
9.590000	24.064536
9.600000	24.064536
9.610000	24.064536
9.620000	24.064536
9.630000	24.064536
9.640000	24.064536
9.650000	24.064536
9.660000	24.064536
9.670000	24.064536
9.680000	24.064536
9.690000	24.064536
9.700000	24.064536
9.710000	24.064536
9.720000	24.064536
9.730000	24.064536
9.740000	24.064536
9.750000	24.064536
9.760000	24.064536
9.770000	24.064536
9.780000	24.064536
9.790000	24.064536
9.800000	24.064536
9.810000	24.064536
9.820000	24.064536
9.830000	24.064536
9.840000	24.064536
9.850000	24.064536
9.860000	24.064536
9.870000	24.064536
9.880000	24.064536
9.890000	24.064536
9.900000	24.064536
9.910000	24.064536
9.920000	24.064536
9.930000	24.064536
9.940000	24.064536
9.950000	24.064536
9.960000	24.064536
9.970000	24.064536
9.980000	24.064536
9.990000	24.064536
10.000000	24.063392
10.010000	24.063392
10.020000	24.063392
10.030000	24.063392
10.040000	24.063392
10.050000	24.063392
10.060000	24.063392
10.070000	24.063392
10.080000	24.063392
10.090000	24.063392
10.100000	24.063392
10.110000	24.063392
10.120000	24.063392
10.130000	24.063392
10.140000	24.063392
10.150000	24.063392
10.160000	24.063392
10.170000	24.063392
10.180000	24.063392
10.190000	24.063392
10.200000	24.063392
10.210000	24.063392
10.220000	24.063392
10.230000	24.063392
10.240000	24.063392
10.250000	24.063392
10.260000	24.063392
10.270000	24.063392
10.280000	24.063392
10.290000	24.063392
10.300000	24.063392
10.310000	24.063392
10.320000	24.063392
10.330000	24.063392
10.340000	24.063392
10.350000	24.063392
10.360000	24.063392
10.370000	24.063392
10.380000	24.063392
10.390000	24.063392
10.400000	24.063392
10.410000	24.063392
10.420000	24.063392
10.430000	24.063392
10.440000	24.063392
10.450000	24.063392
10.460000	24.063392
10.470000	24.063392
10.480000	24.063392
10.490000	24.063392
10.500000	24.061703
10.510000	24.061703
10.520000	24.061703
10.530000	24.061703
10.540000	24.061703
10.550000	24.061703
10.560000	24.061703
10.570000	24.061703
10.580000	24.061703
10.590000	24.061703
10.600000	24.061703
10.610000	24.061703
10.620000	24.061703
10.630000	24.061703
10.640000	24.061703
10.650000	24.061703
10.660000	24.061703
10.670000	24.061703
10.680000	24.061703
10.690000	24.061703
10.700000	24.061703
10.710000	24.061703
10.720000	24.061703
10.730000	24.061703
10.740000	24.061703
10.750000	24.061703
10.760000	24.061703
10.770000	24.061703
10.780000	24.061703
10.790000	24.061703
10.800000	24.061703
10.810000	24.061703
10.820000	24.061703
10.830000	24.061703
10.840000	24.061703
10.850000	24.061703
10.860000	24.061703
10.870000	24.061703
10.880000	24.061703
10.890000	24.061703
10.900000	24.061703
10.910000	24.061703
10.920000	24.061703
10.930000	24.061703
10.940000	24.061703
10.950000	24.061703
10.960000	24.061703
10.970000	24.061703
10.980000	24.061703
10.990000	24.061703
11.000000	24.060322
11.010000	24.060322
11.020000	24.060322
11.030000	24.060322
11.040000	24.060322
11.050000	24.060322
11.060000	24.060322
11.070000	24.060322
11.080000	24.060322
11.090000	24.060322
11.100000	24.060322
11.110000	24.060322
11.120000	24.060322
11.130000	24.060322
11.140000	24.060322
11.150000	24.060322
11.160000	24.060322
11.170000	24.060322
11.180000	24.060322
11.190000	24.060322
11.200000	24.060322
11.210000	24.060322
11.220000	24.060322
11.230000	24.060322
11.240000	24.060322
11.250000	24.060322
11.260000	24.060322
11.270000	24.060322
11.280000	24.060322
11.290000	24.060322
11.300000	24.060322
11.310000	24.060322
11.320000	24.060322
11.330000	24.060322
11.340000	24.060322
11.350000	24.060322
11.360000	24.060322
11.370000	24.060322
11.380000	24.060322
11.390000	24.060322
11.400000	24.060322
11.410000	24.060322
11.420000	24.060322
11.430000	24.060322
11.440000	24.060322
11.450000	24.060322
11.460000	24.060322
11.470000	24.060322
11.480000	24.060322
11.490000	24.060322
11.500000	24.058579
11.510000	24.058579
11.520000	24.058579
11.530000	24.058579
11.540000	24.058579
11.550000	24.058579
11.560000	24.058579
11.570000	24.058579
11.580000	24.058579
11.590000	24.058579
11.600000	24.058579
11.610000	24.058579
11.620000	24.058579
11.630000	24.058579
11.640000	24.058579
11.650000	24.058579
11.660000	24.058579
11.670000	24.058579
11.680000	24.058579
11.690000	24.058579
11.700000	24.058579
11.710000	24.058579
11.720000	24.058579
11.730000	24.058579
11.740000	24.058579
11.750000	24.058579
11.760000	24.058579
11.770000	24.058579
11.780000	24.058579
11.790000	24.058579
11.800000	24.058579
11.810000	24.058579
11.820000	24.058579
11.830000	24.058579
11.840000	24.058579
11.850000	24.058579
11.860000	24.058579
11.870000	24.058579
11.880000	24.058579
11.890000	24.058579
11.900000	24.058579
11.910000	24.058579
11.920000	24.058579
11.930000	24.058579
11.940000	24.058579
11.950000	24.058579
11.960000	24.058579
11.970000	24.058579
11.980000	24.058579
11.990000	24.058579
12.000000	24.056511
12.010000	24.056511
12.020000	24.056511
12.030000	24.056511
12.040000	24.056511
12.050000	24.056511
12.060000	24.056511
12.070000	24.056511
12.080000	24.056511
12.090000	24.056511
12.100000	24.056511
12.110000	24.056511
12.120000	24.056511
12.130000	24.056511
12.140000	24.056511
12.150000	24.056511
12.160000	24.056511
12.170000	24.056511
12.180000	24.056511
12.190000	24.056511
12.200000	24.056511
12.210000	24.056511
12.220000	24.056511
12.230000	24.056511
12.240000	24.056511
12.250000	24.056511
12.260000	24.056511
12.270000	24.056511
12.280000	24.056511
12.290000	24.056511
12.300000	24.056511
12.310000	24.056511
12.320000	24.056511
12.330000	24.056511
12.340000	24.056511
12.350000	24.056511
12.360000	24.056511
12.370000	24.056511
12.380000	24.056511
12.390000	24.056511
12.400000	24.056511
12.410000	24.056511
12.420000	24.056511
12.430000	24.056511
12.440000	24.056511
12.450000	24.056511
12.460000	24.056511
12.470000	24.056511
12.480000	24.056511
12.490000	24.056511
12.500000	24.054391
12.510000	24.054391
12.520000	24.054391
12.530000	24.054391
12.540000	24.054391
12.550000	24.054391
12.560000	24.054391
12.570000	24.054391
12.580000	24.054391
12.590000	24.054391
12.600000	24.054391
12.610000	24.054391
12.620000	24.054391
12.630000	24.054391
12.640000	24.054391
12.650000	24.054391
12.660000	24.054391
12.670000	24.054391
12.680000	24.054391
12.690000	24.054391
12.700000	24.054391
12.710000	24.054391
12.720000	24.054391
12.730000	24.054391
12.740000	24.054391
12.750000	24.054391
12.760000	24.054391
12.770000	24.054391
12.780000	24.054391
12.790000	24.054391
12.800000	24.054391
12.810000	24.054391
12.820000	24.054391
12.830000	24.054391
12.840000	24.054391
12.850000	24.054391
12.860000	24.054391
12.870000	24.054391
12.880000	24.054391
12.890000	24.054391
12.900000	24.054391
12.910000	24.054391
12.920000	24.054391
12.930000	24.054391
12.940000	24.054391
12.950000	24.054391
12.960000	24.054391
12.970000	24.054391
12.980000	24.054391
12.990000	24.054391
13.000000	24.052199
13.010000	24.052199
13.020000	24.052199
13.030000	24.052199
13.040000	24.052199
13.050000	24.052199
13.060000	24.052199
13.070000	24.052199
13.080000	24.052199
13.090000	24.052199
13.100000	24.052199
13.110000	24.052199
13.120000	24.052199
13.130000	24.052199
13.140000	24.052199
13.150000	24.052199
13.160000	24.052199
13.170000	24.052199
13.180000	24.052199
13.190000	24.052199
13.200000	24.052199
13.210000	24.052199
13.220000	24.052199
13.230000	24.052199
13.240000	24.052199
13.250000	24.052199
13.260000	24.052199
13.270000	24.052199
13.280000	24.052199
13.290000	24.052199
13.300000	24.052199
13.310000	24.052199
13.320000	24.052199
13.330000	24.052199
13.340000	24.052199
13.350000	24.052199
13.360000	24.052199
13.370000	24.052199
13.380000	24.052199
13.390000	24.052199
13.400000	24.052199
13.410000	24.052199
13.420000	24.052199
13.430000	24.052199
13.440000	24.052199
13.450000	24.052199
13.460000	24.052199
13.470000	24.052199
13.480000	24.052199
13.490000	24.052199
13.500000	24.049770
13.510000	24.049770
13.520000	24.049770
13.530000	24.049770
13.540000	24.049770
13.550000	24.049770
13.560000	24.049770
13.570000	24.049770
13.580000	24.049770
13.590000	24.049770
13.600000	24.049770
13.610000	24.049770
13.620000	24.049770
13.630000	24.049770
13.640000	24.049770
13.650000	24.049770
13.660000	24.049770
13.670000	24.049770
13.680000	24.049770
13.690000	24.049770
13.700000	24.049770
13.710000	24.049770
13.720000	24.049770
13.730000	24.049770
13.740000	24.049770
13.750000	24.049770
13.760000	24.049770
13.770000	24.049770
13.780000	24.049770
13.790000	24.049770
13.800000	24.049770
13.810000	24.049770
13.820000	24.049770
13.830000	24.049770
13.840000	24.049770
13.850000	24.049770
13.860000	24.049770
13.870000	24.049770
13.880000	24.049770
13.890000	24.049770
13.900000	24.049770
13.910000	24.049770
13.920000	24.049770
13.930000	24.049770
13.940000	24.049770
13.950000	24.049770
13.960000	24.049770
13.970000	24.049770
13.980000	24.049770
13.990000	24.049770
14.000000	24.048098
14.010000	24.048098
14.020000	24.048098
14.030000	24.048098
14.040000	24.048098
14.050000	24.048098
14.060000	24.048098
14.070000	24.048098
14.080000	24.048098
14.090000	24.048098
14.100000	24.048098
14.110000	24.048098
14.120000	24.048098
14.130000	24.048098
14.140000	24.048098
14.150000	24.048098
14.160000	24.048098
14.170000	24.048098
14.180000	24.048098
14.190000	24.048098
14.200000	24.048098
14.210000	24.048098
14.220000	24.048098
14.230000	24.048098
14.240000	24.048098
14.250000	24.048098
14.260000	24.048098
14.270000	24.048098
14.280000	24.048098
14.290000	24.048098
14.300000	24.048098
14.310000	24.048098
14.320000	24.048098
14.330000	24.048098
14.340000	24.048098
14.350000	24.048098
14.360000	24.048098
14.370000	24.048098
14.380000	24.048098
14.390000	24.048098
14.400000	24.048098
14.410000	24.048098
14.420000	24.048098
14.430000	24.048098
14.440000	24.048098
14.450000	24.048098
14.460000	24.048098
14.470000	24.048098
14.480000	24.048098
14.490000	24.048098
14.500000	24.046029
14.510000	24.046029
14.520000	24.046029
14.530000	24.046029
14.540000	24.046029
14.550000	24.046029
14.560000	24.046029
14.570000	24.046029
14.580000	24.046029
14.590000	24.046029
14.600000	24.046029
14.610000	24.046029
14.620000	24.046029
14.630000	24.046029
14.640000	24.046029
14.650000	24.046029
14.660000	24.046029
14.670000	24.046029
14.680000	24.046029
14.690000	24.046029
14.700000	24.046029
14.710000	24.046029
14.720000	24.046029
14.730000	24.046029
14.740000	24.046029
14.750000	24.046029
14.760000	24.046029
14.770000	24.046029
14.780000	24.046029
14.790000	24.046029
14.800000	24.046029
14.810000	24.046029
14.820000	24.046029
14.830000	24.046029
14.840000	24.046029
14.850000	24.046029
14.860000	24.046029
14.870000	24.046029
14.880000	24.046029
14.890000	24.046029
14.900000	24.046029
14.910000	24.046029
14.920000	24.046029
14.930000	24.046029
14.940000	24.046029
14.950000	24.046029
14.960000	24.046029
14.970000	24.046029
14.980000	24.046029
14.990000	24.046029
15.000000	24.043935
15.010000	24.043935
15.020000	24.043935
15.030000	24.043935
15.040000	24.043935
15.050000	24.043935
15.060000	24.043935
15.070000	24.043935
15.080000	24.043935
15.090000	24.043935
15.100000	24.043935
15.110000	24.043935
15.120000	24.043935
15.130000	24.043935
15.140000	24.043935
15.150000	24.043935
15.160000	24.043935
15.170000	24.043935
15.180000	24.043935
15.190000	24.043935
15.200000	24.043935
15.210000	24.043935
15.220000	24.043935
15.230000	24.043935
15.240000	24.043935
15.250000	24.043935
15.260000	24.043935
15.270000	24.043935
15.280000	24.043935
15.290000	24.043935
15.300000	24.043935
15.310000	24.043935
15.320000	24.043935
15.330000	24.043935
15.340000	24.043935
15.350000	24.043935
15.360000	24.043935
15.370000	24.043935
15.380000	24.043935
15.390000	24.043935
15.400000	24.043935
15.410000	24.043935
15.420000	24.043935
15.430000	24.043935
15.440000	24.043935
15.450000	24.043935
15.460000	24.043935
15.470000	24.043935
15.480000	24.043935
15.490000	24.043935
15.500000	24.041866
15.510000	24.041866
15.520000	24.041866
15.530000	24.041866
15.540000	24.041866
15.550000	24.041866
15.560000	24.041866
15.570000	24.041866
15.580000	24.041866
15.590000	24.041866
15.600000	24.041866
15.610000	24.041866
15.620000	24.041866
15.630000	24.041866
15.640000	24.041866
15.650000	24.041866
15.660000	24.041866
15.670000	24.041866
15.680000	24.041866
15.690000	24.041866
15.700000	24.041866
15.710000	24.041866
15.720000	24.041866
15.730000	24.041866
15.740000	24.041866
15.750000	24.041866
15.760000	24.041866
15.770000	24.041866
15.780000	24.041866
15.790000	24.041866
15.800000	24.041866
15.810000	24.041866
15.820000	24.041866
15.830000	24.041866
15.840000	24.041866
15.850000	24.041866
15.860000	24.041866
15.870000	24.041866
15.880000	24.041866
15.890000	24.041866
15.900000	24.041866
15.910000	24.041866
15.920000	24.041866
15.930000	24.041866
15.940000	24.041866
15.950000	24.041866
15.960000	24.041866
15.970000	24.041866
15.980000	24.041866
15.990000	24.041866
16.000000	24.039877
16.010000	24.039877
16.020000	24.039877
16.030000	24.039877
16.040000	24.039877
16.050000	24.039877
16.060000	24.039877
16.070000	24.039877
16.080000	24.039877
16.090000	24.039877
16.100000	24.039877
16.110000	24.039877
16.120000	24.039877
16.130000	24.039877
16.140000	24.039877
16.150000	24.039877
16.160000	24.039877
16.170000	24.039877
16.180000	24.039877
16.190000	24.039877
16.200000	24.039877
16.210000	24.039877
16.220000	24.039877
16.230000	24.039877
16.240000	24.039877
16.250000	24.039877
16.260000	24.039877
16.270000	24.039877
16.280000	24.039877
16.290000	24.039877
16.300000	24.039877
16.310000	24.039877
16.320000	24.039877
16.330000	24.039877
16.340000	24.039877
16.350000	24.039877
16.360000	24.039877
16.370000	24.039877
16.380000	24.039877
16.390000	24.039877
16.400000	24.039877
16.410000	24.039877
16.420000	24.039877
16.430000	24.039877
16.440000	24.039877
16.450000	24.039877
16.460000	24.039877
16.470000	24.039877
16.480000	24.039877
16.490000	24.039877
16.500000	24.038274
16.510000	24.038274
16.520000	24.038274
16.530000	24.038274
16.540000	24.038274
16.550000	24.038274
16.560000	24.038274
16.570000	24.038274
16.580000	24.038274
16.590000	24.038274
16.600000	24.038274
16.610000	24.038274
16.620000	24.038274
16.630000	24.038274
16.640000	24.038274
16.650000	24.038274
16.660000	24.038274
16.670000	24.038274
16.680000	24.038274
16.690000	24.038274
16.700000	24.038274
16.710000	24.038274
16.720000	24.038274
16.730000	24.038274
16.740000	24.038274
16.750000	24.038274
16.760000	24.038274
16.770000	24.038274
16.780000	24.038274
16.790000	24.038274
16.800000	24.038274
16.810000	24.038274
16.820000	24.038274
16.830000	24.038274
16.840000	24.038274
16.850000	24.038274
16.860000	24.038274
16.870000	24.038274
16.880000	24.038274
16.890000	24.038274
16.900000	24.038274
16.910000	24.038274
16.920000	24.038274
16.930000	24.038274
16.940000	24.038274
16.950000	24.038274
16.960000	24.038274
16.970000	24.038274
16.980000	24.038274
16.990000	24.038274
17.000000	24.036161
17.010000	24.036161
17.020000	24.036161
17.030000	24.036161
17.040000	24.036161
17.050000	24.036161
17.060000	24.036161
17.070000	24.036161
17.080000	24.036161
17.090000	24.036161
17.100000	24.036161
17.110000	24.036161
17.120000	24.036161
17.130000	24.036161
17.140000	24.036161
17.150000	24.036161
17.160000	24.036161
17.170000	24.036161
17.180000	24.036161
17.190000	24.036161
17.200000	24.036161
17.210000	24.036161
17.220000	24.036161
17.230000	24.036161
17.240000	24.036161
17.250000	24.036161
17.260000	24.036161
17.270000	24.036161
17.280000	24.036161
17.290000	24.036161
17.300000	24.036161
17.310000	24.036161
17.320000	24.036161
17.330000	24.036161
17.340000	24.036161
17.350000	24.036161
17.360000	24.036161
17.370000	24.036161
17.380000	24.036161
17.390000	24.036161
17.400000	24.036161
17.410000	24.036161
17.420000	24.036161
17.430000	24.036161
17.440000	24.036161
17.450000	24.036161
17.460000	24.036161
17.470000	24.036161
17.480000	24.036161
17.490000	24.036161
17.500000	24.034374
17.510000	24.034374
17.520000	24.034374
17.530000	24.034374
17.540000	24.034374
17.550000	24.034374
17.560000	24.034374
17.570000	24.034374
17.580000	24.034374
17.590000	24.034374
17.600000	24.034374
17.610000	24.034374
17.620000	24.034374
17.630000	24.034374
17.640000	24.034374
17.650000	24.034374
17.660000	24.034374
17.670000	24.034374
17.680000	24.034374
17.690000	24.034374
17.700000	24.034374
17.710000	24.034374
17.720000	24.034374
17.730000	24.034374
17.740000	24.034374
17.750000	24.034374
17.760000	24.034374
17.770000	24.034374
17.780000	24.034374
17.790000	24.034374
17.800000	24.034374
17.810000	24.034374
17.820000	24.034374
17.830000	24.034374
17.840000	24.034374
17.850000	24.034374
17.860000	24.034374
17.870000	24.034374
17.880000	24.034374
17.890000	24.034374
17.900000	24.034374
17.910000	24.034374
17.920000	24.034374
17.930000	24.034374
17.940000	24.034374
17.950000	24.034374
17.960000	24.034374
17.970000	24.034374
17.980000	24.034374
17.990000	24.034374
