LabVIEW Measurement	
Writer_Version	2
Reader_Version	2
Separator	Tab
Decimal_Separator	.
Multi_Headings	No
X_Columns	One
Time_Pref	Absolute
Operator	biomech-dyno
Date	2023/05/24
Time	15:19:49.9492761999999796612
***End_of_Header***	
	
Channels	1	
Samples	10	
Date	2023/05/24	
Time	15:49:35.963162399999972471	
X_Dimension	Time	
X0	0.0000000000000000E+0	
Delta_X	0.010000	
***End_of_Header***		
X_Value	Untitled	Comment
0.000000	25.048386
0.010000	25.048386
0.020000	25.048386
0.030000	25.048386
0.040000	25.048386
0.050000	25.048386
0.060000	25.048386
0.070000	25.048386
0.080000	25.048386
0.090000	25.048386
0.100000	25.048386
0.110000	25.048386
0.120000	25.048386
0.130000	25.048386
0.140000	25.048386
0.150000	25.048386
0.160000	25.048386
0.170000	25.048386
0.180000	25.048386
0.190000	25.048386
0.200000	25.048386
0.210000	25.048386
0.220000	25.048386
0.230000	25.048386
0.240000	25.048386
0.250000	25.048386
0.260000	25.048386
0.270000	25.048386
0.280000	25.048386
0.290000	25.048386
0.300000	25.048386
0.310000	25.048386
0.320000	25.048386
0.330000	25.048386
0.340000	25.048386
0.350000	25.048386
0.360000	25.048386
0.370000	25.048386
0.380000	25.048386
0.390000	25.048386
0.400000	25.048386
0.410000	25.048386
0.420000	25.048386
0.430000	25.048386
0.440000	25.048386
0.450000	25.048386
0.460000	25.048386
0.470000	25.048386
0.480000	25.048386
0.490000	25.048386
0.500000	25.072407
0.510000	25.072407
0.520000	25.072407
0.530000	25.072407
0.540000	25.072407
0.550000	25.072407
0.560000	25.072407
0.570000	25.072407
0.580000	25.072407
0.590000	25.072407
0.600000	25.072407
0.610000	25.072407
0.620000	25.072407
0.630000	25.072407
0.640000	25.072407
0.650000	25.072407
0.660000	25.072407
0.670000	25.072407
0.680000	25.072407
0.690000	25.072407
0.700000	25.072407
0.710000	25.072407
0.720000	25.072407
0.730000	25.072407
0.740000	25.072407
0.750000	25.072407
0.760000	25.072407
0.770000	25.072407
0.780000	25.072407
0.790000	25.072407
0.800000	25.072407
0.810000	25.072407
0.820000	25.072407
0.830000	25.072407
0.840000	25.072407
0.850000	25.072407
0.860000	25.072407
0.870000	25.072407
0.880000	25.072407
0.890000	25.072407
0.900000	25.072407
0.910000	25.072407
0.920000	25.072407
0.930000	25.072407
0.940000	25.072407
0.950000	25.072407
0.960000	25.072407
0.970000	25.072407
0.980000	25.072407
0.990000	25.072407
1.000000	25.342254
1.010000	25.342254
1.020000	25.342254
1.030000	25.342254
1.040000	25.342254
1.050000	25.342254
1.060000	25.342254
1.070000	25.342254
1.080000	25.342254
1.090000	25.342254
1.100000	25.342254
1.110000	25.342254
1.120000	25.342254
1.130000	25.342254
1.140000	25.342254
1.150000	25.342254
1.160000	25.342254
1.170000	25.342254
1.180000	25.342254
1.190000	25.342254
1.200000	25.342254
1.210000	25.342254
1.220000	25.342254
1.230000	25.342254
1.240000	25.342254
1.250000	25.342254
1.260000	25.342254
1.270000	25.342254
1.280000	25.342254
1.290000	25.342254
1.300000	25.342254
1.310000	25.342254
1.320000	25.342254
1.330000	25.342254
1.340000	25.342254
1.350000	25.342254
1.360000	25.342254
1.370000	25.342254
1.380000	25.342254
1.390000	25.342254
1.400000	25.342254
1.410000	25.342254
1.420000	25.342254
1.430000	25.342254
1.440000	25.342254
1.450000	25.342254
1.460000	25.342254
1.470000	25.342254
1.480000	25.342254
1.490000	25.342254
1.500000	25.981527
1.510000	25.981527
1.520000	25.981527
1.530000	25.981527
1.540000	25.981527
1.550000	25.981527
1.560000	25.981527
1.570000	25.981527
1.580000	25.981527
1.590000	25.981527
1.600000	25.981527
1.610000	25.981527
1.620000	25.981527
1.630000	25.981527
1.640000	25.981527
1.650000	25.981527
1.660000	25.981527
1.670000	25.981527
1.680000	25.981527
1.690000	25.981527
1.700000	25.981527
1.710000	25.981527
1.720000	25.981527
1.730000	25.981527
1.740000	25.981527
1.750000	25.981527
1.760000	25.981527
1.770000	25.981527
1.780000	25.981527
1.790000	25.981527
1.800000	25.981527
1.810000	25.981527
1.820000	25.981527
1.830000	25.981527
1.840000	25.981527
1.850000	25.981527
1.860000	25.981527
1.870000	25.981527
1.880000	25.981527
1.890000	25.981527
1.900000	25.981527
1.910000	25.981527
1.920000	25.981527
1.930000	25.981527
1.940000	25.981527
1.950000	25.981527
1.960000	25.981527
1.970000	25.981527
1.980000	25.981527
1.990000	25.981527
2.000000	26.920994
2.010000	26.920994
2.020000	26.920994
2.030000	26.920994
2.040000	26.920994
2.050000	26.920994
2.060000	26.920994
2.070000	26.920994
2.080000	26.920994
2.090000	26.920994
2.100000	26.920994
2.110000	26.920994
2.120000	26.920994
2.130000	26.920994
2.140000	26.920994
2.150000	26.920994
2.160000	26.920994
2.170000	26.920994
2.180000	26.920994
2.190000	26.920994
2.200000	26.920994
2.210000	26.920994
2.220000	26.920994
2.230000	26.920994
2.240000	26.920994
2.250000	26.920994
2.260000	26.920994
2.270000	26.920994
2.280000	26.920994
2.290000	26.920994
2.300000	26.920994
2.310000	26.920994
2.320000	26.920994
2.330000	26.920994
2.340000	26.920994
2.350000	26.920994
2.360000	26.920994
2.370000	26.920994
2.380000	26.920994
2.390000	26.920994
2.400000	26.920994
2.410000	26.920994
2.420000	26.920994
2.430000	26.920994
2.440000	26.920994
2.450000	26.920994
2.460000	26.920994
2.470000	26.920994
2.480000	26.920994
2.490000	26.920994
2.500000	28.089821
2.510000	28.089821
2.520000	28.089821
2.530000	28.089821
2.540000	28.089821
2.550000	28.089821
2.560000	28.089821
2.570000	28.089821
2.580000	28.089821
2.590000	28.089821
2.600000	28.089821
2.610000	28.089821
2.620000	28.089821
2.630000	28.089821
2.640000	28.089821
2.650000	28.089821
2.660000	28.089821
2.670000	28.089821
2.680000	28.089821
2.690000	28.089821
2.700000	28.089821
2.710000	28.089821
2.720000	28.089821
2.730000	28.089821
2.740000	28.089821
2.750000	28.089821
2.760000	28.089821
2.770000	28.089821
2.780000	28.089821
2.790000	28.089821
2.800000	28.089821
2.810000	28.089821
2.820000	28.089821
2.830000	28.089821
2.840000	28.089821
2.850000	28.089821
2.860000	28.089821
2.870000	28.089821
2.880000	28.089821
2.890000	28.089821
2.900000	28.089821
2.910000	28.089821
2.920000	28.089821
2.930000	28.089821
2.940000	28.089821
2.950000	28.089821
2.960000	28.089821
2.970000	28.089821
2.980000	28.089821
2.990000	28.089821
3.000000	29.420276
3.010000	29.420276
3.020000	29.420276
3.030000	29.420276
3.040000	29.420276
3.050000	29.420276
3.060000	29.420276
3.070000	29.420276
3.080000	29.420276
3.090000	29.420276
3.100000	29.420276
3.110000	29.420276
3.120000	29.420276
3.130000	29.420276
3.140000	29.420276
3.150000	29.420276
3.160000	29.420276
3.170000	29.420276
3.180000	29.420276
3.190000	29.420276
3.200000	29.420276
3.210000	29.420276
3.220000	29.420276
3.230000	29.420276
3.240000	29.420276
3.250000	29.420276
3.260000	29.420276
3.270000	29.420276
3.280000	29.420276
3.290000	29.420276
3.300000	29.420276
3.310000	29.420276
3.320000	29.420276
3.330000	29.420276
3.340000	29.420276
3.350000	29.420276
3.360000	29.420276
3.370000	29.420276
3.380000	29.420276
3.390000	29.420276
3.400000	29.420276
3.410000	29.420276
3.420000	29.420276
3.430000	29.420276
3.440000	29.420276
3.450000	29.420276
3.460000	29.420276
3.470000	29.420276
3.480000	29.420276
3.490000	29.420276
3.500000	30.794776
3.510000	30.794776
3.520000	30.794776
3.530000	30.794776
3.540000	30.794776
3.550000	30.794776
3.560000	30.794776
3.570000	30.794776
3.580000	30.794776
3.590000	30.794776
3.600000	30.794776
3.610000	30.794776
3.620000	30.794776
3.630000	30.794776
3.640000	30.794776
3.650000	30.794776
3.660000	30.794776
3.670000	30.794776
3.680000	30.794776
3.690000	30.794776
3.700000	30.794776
3.710000	30.794776
3.720000	30.794776
3.730000	30.794776
3.740000	30.794776
3.750000	30.794776
3.760000	30.794776
3.770000	30.794776
3.780000	30.794776
3.790000	30.794776
3.800000	30.794776
3.810000	30.794776
3.820000	30.794776
3.830000	30.794776
3.840000	30.794776
3.850000	30.794776
3.860000	30.794776
3.870000	30.794776
3.880000	30.794776
3.890000	30.794776
3.900000	30.794776
3.910000	30.794776
3.920000	30.794776
3.930000	30.794776
3.940000	30.794776
3.950000	30.794776
3.960000	30.794776
3.970000	30.794776
3.980000	30.794776
3.990000	30.794776
4.000000	31.910561
4.010000	31.910561
4.020000	31.910561
4.030000	31.910561
4.040000	31.910561
4.050000	31.910561
4.060000	31.910561
4.070000	31.910561
4.080000	31.910561
4.090000	31.910561
4.100000	31.910561
4.110000	31.910561
4.120000	31.910561
4.130000	31.910561
4.140000	31.910561
4.150000	31.910561
4.160000	31.910561
4.170000	31.910561
4.180000	31.910561
4.190000	31.910561
4.200000	31.910561
4.210000	31.910561
4.220000	31.910561
4.230000	31.910561
4.240000	31.910561
4.250000	31.910561
4.260000	31.910561
4.270000	31.910561
4.280000	31.910561
4.290000	31.910561
4.300000	31.910561
4.310000	31.910561
4.320000	31.910561
4.330000	31.910561
4.340000	31.910561
4.350000	31.910561
4.360000	31.910561
4.370000	31.910561
4.380000	31.910561
4.390000	31.910561
4.400000	31.910561
4.410000	31.910561
4.420000	31.910561
4.430000	31.910561
4.440000	31.910561
4.450000	31.910561
4.460000	31.910561
4.470000	31.910561
4.480000	31.910561
4.490000	31.910561
4.500000	32.738362
4.510000	32.738362
4.520000	32.738362
4.530000	32.738362
4.540000	32.738362
4.550000	32.738362
4.560000	32.738362
4.570000	32.738362
4.580000	32.738362
4.590000	32.738362
4.600000	32.738362
4.610000	32.738362
4.620000	32.738362
4.630000	32.738362
4.640000	32.738362
4.650000	32.738362
4.660000	32.738362
4.670000	32.738362
4.680000	32.738362
4.690000	32.738362
4.700000	32.738362
4.710000	32.738362
4.720000	32.738362
4.730000	32.738362
4.740000	32.738362
4.750000	32.738362
4.760000	32.738362
4.770000	32.738362
4.780000	32.738362
4.790000	32.738362
4.800000	32.738362
4.810000	32.738362
4.820000	32.738362
4.830000	32.738362
4.840000	32.738362
4.850000	32.738362
4.860000	32.738362
4.870000	32.738362
4.880000	32.738362
4.890000	32.738362
4.900000	32.738362
4.910000	32.738362
4.920000	32.738362
4.930000	32.738362
4.940000	32.738362
4.950000	32.738362
4.960000	32.738362
4.970000	32.738362
4.980000	32.738362
4.990000	32.738362
5.000000	33.331757
5.010000	33.331757
5.020000	33.331757
5.030000	33.331757
5.040000	33.331757
5.050000	33.331757
5.060000	33.331757
5.070000	33.331757
5.080000	33.331757
5.090000	33.331757
5.100000	33.331757
5.110000	33.331757
5.120000	33.331757
5.130000	33.331757
5.140000	33.331757
5.150000	33.331757
5.160000	33.331757
5.170000	33.331757
5.180000	33.331757
5.190000	33.331757
5.200000	33.331757
5.210000	33.331757
5.220000	33.331757
5.230000	33.331757
5.240000	33.331757
5.250000	33.331757
5.260000	33.331757
5.270000	33.331757
5.280000	33.331757
5.290000	33.331757
5.300000	33.331757
5.310000	33.331757
5.320000	33.331757
5.330000	33.331757
5.340000	33.331757
5.350000	33.331757
5.360000	33.331757
5.370000	33.331757
5.380000	33.331757
5.390000	33.331757
5.400000	33.331757
5.410000	33.331757
5.420000	33.331757
5.430000	33.331757
5.440000	33.331757
5.450000	33.331757
5.460000	33.331757
5.470000	33.331757
5.480000	33.331757
5.490000	33.331757
5.500000	33.742534
5.510000	33.742534
5.520000	33.742534
5.530000	33.742534
5.540000	33.742534
5.550000	33.742534
5.560000	33.742534
5.570000	33.742534
5.580000	33.742534
5.590000	33.742534
5.600000	33.742534
5.610000	33.742534
5.620000	33.742534
5.630000	33.742534
5.640000	33.742534
5.650000	33.742534
5.660000	33.742534
5.670000	33.742534
5.680000	33.742534
5.690000	33.742534
5.700000	33.742534
5.710000	33.742534
5.720000	33.742534
5.730000	33.742534
5.740000	33.742534
5.750000	33.742534
5.760000	33.742534
5.770000	33.742534
5.780000	33.742534
5.790000	33.742534
5.800000	33.742534
5.810000	33.742534
5.820000	33.742534
5.830000	33.742534
5.840000	33.742534
5.850000	33.742534
5.860000	33.742534
5.870000	33.742534
5.880000	33.742534
5.890000	33.742534
5.900000	33.742534
5.910000	33.742534
5.920000	33.742534
5.930000	33.742534
5.940000	33.742534
5.950000	33.742534
5.960000	33.742534
5.970000	33.742534
5.980000	33.742534
5.990000	33.742534
6.000000	34.010028
6.010000	34.010028
6.020000	34.010028
6.030000	34.010028
6.040000	34.010028
6.050000	34.010028
6.060000	34.010028
6.070000	34.010028
6.080000	34.010028
6.090000	34.010028
6.100000	34.010028
6.110000	34.010028
6.120000	34.010028
6.130000	34.010028
6.140000	34.010028
6.150000	34.010028
6.160000	34.010028
6.170000	34.010028
6.180000	34.010028
6.190000	34.010028
6.200000	34.010028
6.210000	34.010028
6.220000	34.010028
6.230000	34.010028
6.240000	34.010028
6.250000	34.010028
6.260000	34.010028
6.270000	34.010028
6.280000	34.010028
6.290000	34.010028
6.300000	34.010028
6.310000	34.010028
6.320000	34.010028
6.330000	34.010028
6.340000	34.010028
6.350000	34.010028
6.360000	34.010028
6.370000	34.010028
6.380000	34.010028
6.390000	34.010028
6.400000	34.010028
6.410000	34.010028
6.420000	34.010028
6.430000	34.010028
6.440000	34.010028
6.450000	34.010028
6.460000	34.010028
6.470000	34.010028
6.480000	34.010028
6.490000	34.010028
6.500000	34.170269
6.510000	34.170269
6.520000	34.170269
6.530000	34.170269
6.540000	34.170269
6.550000	34.170269
6.560000	34.170269
6.570000	34.170269
6.580000	34.170269
6.590000	34.170269
6.600000	34.170269
6.610000	34.170269
6.620000	34.170269
6.630000	34.170269
6.640000	34.170269
6.650000	34.170269
6.660000	34.170269
6.670000	34.170269
6.680000	34.170269
6.690000	34.170269
6.700000	34.170269
6.710000	34.170269
6.720000	34.170269
6.730000	34.170269
6.740000	34.170269
6.750000	34.170269
6.760000	34.170269
6.770000	34.170269
6.780000	34.170269
6.790000	34.170269
6.800000	34.170269
6.810000	34.170269
6.820000	34.170269
6.830000	34.170269
6.840000	34.170269
6.850000	34.170269
6.860000	34.170269
6.870000	34.170269
6.880000	34.170269
6.890000	34.170269
6.900000	34.170269
6.910000	34.170269
6.920000	34.170269
6.930000	34.170269
6.940000	34.170269
6.950000	34.170269
6.960000	34.170269
6.970000	34.170269
6.980000	34.170269
6.990000	34.170269
7.000000	34.247158
7.010000	34.247158
7.020000	34.247158
7.030000	34.247158
7.040000	34.247158
7.050000	34.247158
7.060000	34.247158
7.070000	34.247158
7.080000	34.247158
7.090000	34.247158
7.100000	34.247158
7.110000	34.247158
7.120000	34.247158
7.130000	34.247158
7.140000	34.247158
7.150000	34.247158
7.160000	34.247158
7.170000	34.247158
7.180000	34.247158
7.190000	34.247158
7.200000	34.247158
7.210000	34.247158
7.220000	34.247158
7.230000	34.247158
7.240000	34.247158
7.250000	34.247158
7.260000	34.247158
7.270000	34.247158
7.280000	34.247158
7.290000	34.247158
7.300000	34.247158
7.310000	34.247158
7.320000	34.247158
7.330000	34.247158
7.340000	34.247158
7.350000	34.247158
7.360000	34.247158
7.370000	34.247158
7.380000	34.247158
7.390000	34.247158
7.400000	34.247158
7.410000	34.247158
7.420000	34.247158
7.430000	34.247158
7.440000	34.247158
7.450000	34.247158
7.460000	34.247158
7.470000	34.247158
7.480000	34.247158
7.490000	34.247158
7.500000	34.254600
7.510000	34.254600
7.520000	34.254600
7.530000	34.254600
7.540000	34.254600
7.550000	34.254600
7.560000	34.254600
7.570000	34.254600
7.580000	34.254600
7.590000	34.254600
7.600000	34.254600
7.610000	34.254600
7.620000	34.254600
7.630000	34.254600
7.640000	34.254600
7.650000	34.254600
7.660000	34.254600
7.670000	34.254600
7.680000	34.254600
7.690000	34.254600
7.700000	34.254600
7.710000	34.254600
7.720000	34.254600
7.730000	34.254600
7.740000	34.254600
7.750000	34.254600
7.760000	34.254600
7.770000	34.254600
7.780000	34.254600
7.790000	34.254600
7.800000	34.254600
7.810000	34.254600
7.820000	34.254600
7.830000	34.254600
7.840000	34.254600
7.850000	34.254600
7.860000	34.254600
7.870000	34.254600
7.880000	34.254600
7.890000	34.254600
7.900000	34.254600
7.910000	34.254600
7.920000	34.254600
7.930000	34.254600
7.940000	34.254600
7.950000	34.254600
7.960000	34.254600
7.970000	34.254600
7.980000	34.254600
7.990000	34.254600
8.000000	34.214257
8.010000	34.214257
8.020000	34.214257
8.030000	34.214257
8.040000	34.214257
8.050000	34.214257
8.060000	34.214257
8.070000	34.214257
8.080000	34.214257
8.090000	34.214257
8.100000	34.214257
8.110000	34.214257
8.120000	34.214257
8.130000	34.214257
8.140000	34.214257
8.150000	34.214257
8.160000	34.214257
8.170000	34.214257
8.180000	34.214257
8.190000	34.214257
8.200000	34.214257
8.210000	34.214257
8.220000	34.214257
8.230000	34.214257
8.240000	34.214257
8.250000	34.214257
8.260000	34.214257
8.270000	34.214257
8.280000	34.214257
8.290000	34.214257
8.300000	34.214257
8.310000	34.214257
8.320000	34.214257
8.330000	34.214257
8.340000	34.214257
8.350000	34.214257
8.360000	34.214257
8.370000	34.214257
8.380000	34.214257
8.390000	34.214257
8.400000	34.214257
8.410000	34.214257
8.420000	34.214257
8.430000	34.214257
8.440000	34.214257
8.450000	34.214257
8.460000	34.214257
8.470000	34.214257
8.480000	34.214257
8.490000	34.214257
8.500000	34.139057
8.510000	34.139057
8.520000	34.139057
8.530000	34.139057
8.540000	34.139057
8.550000	34.139057
8.560000	34.139057
8.570000	34.139057
8.580000	34.139057
8.590000	34.139057
8.600000	34.139057
8.610000	34.139057
8.620000	34.139057
8.630000	34.139057
8.640000	34.139057
8.650000	34.139057
8.660000	34.139057
8.670000	34.139057
8.680000	34.139057
8.690000	34.139057
8.700000	34.139057
8.710000	34.139057
8.720000	34.139057
8.730000	34.139057
8.740000	34.139057
8.750000	34.139057
8.760000	34.139057
8.770000	34.139057
8.780000	34.139057
8.790000	34.139057
8.800000	34.139057
8.810000	34.139057
8.820000	34.139057
8.830000	34.139057
8.840000	34.139057
8.850000	34.139057
8.860000	34.139057
8.870000	34.139057
8.880000	34.139057
8.890000	34.139057
8.900000	34.139057
8.910000	34.139057
8.920000	34.139057
8.930000	34.139057
8.940000	34.139057
8.950000	34.139057
8.960000	34.139057
8.970000	34.139057
8.980000	34.139057
8.990000	34.139057
9.000000	34.035035
9.010000	34.035035
9.020000	34.035035
9.030000	34.035035
9.040000	34.035035
9.050000	34.035035
9.060000	34.035035
9.070000	34.035035
9.080000	34.035035
9.090000	34.035035
9.100000	34.035035
9.110000	34.035035
9.120000	34.035035
9.130000	34.035035
9.140000	34.035035
9.150000	34.035035
9.160000	34.035035
9.170000	34.035035
9.180000	34.035035
9.190000	34.035035
9.200000	34.035035
9.210000	34.035035
9.220000	34.035035
9.230000	34.035035
9.240000	34.035035
9.250000	34.035035
9.260000	34.035035
9.270000	34.035035
9.280000	34.035035
9.290000	34.035035
9.300000	34.035035
9.310000	34.035035
9.320000	34.035035
9.330000	34.035035
9.340000	34.035035
9.350000	34.035035
9.360000	34.035035
9.370000	34.035035
9.380000	34.035035
9.390000	34.035035
9.400000	34.035035
9.410000	34.035035
9.420000	34.035035
9.430000	34.035035
9.440000	34.035035
9.450000	34.035035
9.460000	34.035035
9.470000	34.035035
9.480000	34.035035
9.490000	34.035035
9.500000	33.910260
9.510000	33.910260
9.520000	33.910260
9.530000	33.910260
9.540000	33.910260
9.550000	33.910260
9.560000	33.910260
9.570000	33.910260
9.580000	33.910260
9.590000	33.910260
9.600000	33.910260
9.610000	33.910260
9.620000	33.910260
9.630000	33.910260
9.640000	33.910260
9.650000	33.910260
9.660000	33.910260
9.670000	33.910260
9.680000	33.910260
9.690000	33.910260
9.700000	33.910260
9.710000	33.910260
9.720000	33.910260
9.730000	33.910260
9.740000	33.910260
9.750000	33.910260
9.760000	33.910260
9.770000	33.910260
9.780000	33.910260
9.790000	33.910260
9.800000	33.910260
9.810000	33.910260
9.820000	33.910260
9.830000	33.910260
9.840000	33.910260
9.850000	33.910260
9.860000	33.910260
9.870000	33.910260
9.880000	33.910260
9.890000	33.910260
9.900000	33.910260
9.910000	33.910260
9.920000	33.910260
9.930000	33.910260
9.940000	33.910260
9.950000	33.910260
9.960000	33.910260
9.970000	33.910260
9.980000	33.910260
9.990000	33.910260
10.000000	33.769981
10.010000	33.769981
10.020000	33.769981
10.030000	33.769981
10.040000	33.769981
10.050000	33.769981
10.060000	33.769981
10.070000	33.769981
10.080000	33.769981
10.090000	33.769981
10.100000	33.769981
10.110000	33.769981
10.120000	33.769981
10.130000	33.769981
10.140000	33.769981
10.150000	33.769981
10.160000	33.769981
10.170000	33.769981
10.180000	33.769981
10.190000	33.769981
10.200000	33.769981
10.210000	33.769981
10.220000	33.769981
10.230000	33.769981
10.240000	33.769981
10.250000	33.769981
10.260000	33.769981
10.270000	33.769981
10.280000	33.769981
10.290000	33.769981
10.300000	33.769981
10.310000	33.769981
10.320000	33.769981
10.330000	33.769981
10.340000	33.769981
10.350000	33.769981
10.360000	33.769981
10.370000	33.769981
10.380000	33.769981
10.390000	33.769981
10.400000	33.769981
10.410000	33.769981
10.420000	33.769981
10.430000	33.769981
10.440000	33.769981
10.450000	33.769981
10.460000	33.769981
10.470000	33.769981
10.480000	33.769981
10.490000	33.769981
10.500000	33.620301
10.510000	33.620301
10.520000	33.620301
10.530000	33.620301
10.540000	33.620301
10.550000	33.620301
10.560000	33.620301
10.570000	33.620301
10.580000	33.620301
10.590000	33.620301
10.600000	33.620301
10.610000	33.620301
10.620000	33.620301
10.630000	33.620301
10.640000	33.620301
10.650000	33.620301
10.660000	33.620301
10.670000	33.620301
10.680000	33.620301
10.690000	33.620301
10.700000	33.620301
10.710000	33.620301
10.720000	33.620301
10.730000	33.620301
10.740000	33.620301
10.750000	33.620301
10.760000	33.620301
10.770000	33.620301
10.780000	33.620301
10.790000	33.620301
10.800000	33.620301
10.810000	33.620301
10.820000	33.620301
10.830000	33.620301
10.840000	33.620301
10.850000	33.620301
10.860000	33.620301
10.870000	33.620301
10.880000	33.620301
10.890000	33.620301
10.900000	33.620301
10.910000	33.620301
10.920000	33.620301
10.930000	33.620301
10.940000	33.620301
10.950000	33.620301
10.960000	33.620301
10.970000	33.620301
10.980000	33.620301
10.990000	33.620301
11.000000	33.462554
11.010000	33.462554
11.020000	33.462554
11.030000	33.462554
11.040000	33.462554
11.050000	33.462554
11.060000	33.462554
11.070000	33.462554
11.080000	33.462554
11.090000	33.462554
11.100000	33.462554
11.110000	33.462554
11.120000	33.462554
11.130000	33.462554
11.140000	33.462554
11.150000	33.462554
11.160000	33.462554
11.170000	33.462554
11.180000	33.462554
11.190000	33.462554
11.200000	33.462554
11.210000	33.462554
11.220000	33.462554
11.230000	33.462554
11.240000	33.462554
11.250000	33.462554
11.260000	33.462554
11.270000	33.462554
11.280000	33.462554
11.290000	33.462554
11.300000	33.462554
11.310000	33.462554
11.320000	33.462554
11.330000	33.462554
11.340000	33.462554
11.350000	33.462554
11.360000	33.462554
11.370000	33.462554
11.380000	33.462554
11.390000	33.462554
11.400000	33.462554
11.410000	33.462554
11.420000	33.462554
11.430000	33.462554
11.440000	33.462554
11.450000	33.462554
11.460000	33.462554
11.470000	33.462554
11.480000	33.462554
11.490000	33.462554
11.500000	33.298757
11.510000	33.298757
11.520000	33.298757
11.530000	33.298757
11.540000	33.298757
11.550000	33.298757
11.560000	33.298757
11.570000	33.298757
11.580000	33.298757
11.590000	33.298757
11.600000	33.298757
11.610000	33.298757
11.620000	33.298757
11.630000	33.298757
11.640000	33.298757
11.650000	33.298757
11.660000	33.298757
11.670000	33.298757
11.680000	33.298757
11.690000	33.298757
11.700000	33.298757
11.710000	33.298757
11.720000	33.298757
11.730000	33.298757
11.740000	33.298757
11.750000	33.298757
11.760000	33.298757
11.770000	33.298757
11.780000	33.298757
11.790000	33.298757
11.800000	33.298757
11.810000	33.298757
11.820000	33.298757
11.830000	33.298757
11.840000	33.298757
11.850000	33.298757
11.860000	33.298757
11.870000	33.298757
11.880000	33.298757
11.890000	33.298757
11.900000	33.298757
11.910000	33.298757
11.920000	33.298757
11.930000	33.298757
11.940000	33.298757
11.950000	33.298757
11.960000	33.298757
11.970000	33.298757
11.980000	33.298757
11.990000	33.298757
12.000000	33.131171
12.010000	33.131171
12.020000	33.131171
12.030000	33.131171
12.040000	33.131171
12.050000	33.131171
12.060000	33.131171
12.070000	33.131171
12.080000	33.131171
12.090000	33.131171
12.100000	33.131171
12.110000	33.131171
12.120000	33.131171
12.130000	33.131171
12.140000	33.131171
12.150000	33.131171
12.160000	33.131171
12.170000	33.131171
12.180000	33.131171
12.190000	33.131171
12.200000	33.131171
12.210000	33.131171
12.220000	33.131171
12.230000	33.131171
12.240000	33.131171
12.250000	33.131171
12.260000	33.131171
12.270000	33.131171
12.280000	33.131171
12.290000	33.131171
12.300000	33.131171
12.310000	33.131171
12.320000	33.131171
12.330000	33.131171
12.340000	33.131171
12.350000	33.131171
12.360000	33.131171
12.370000	33.131171
12.380000	33.131171
12.390000	33.131171
12.400000	33.131171
12.410000	33.131171
12.420000	33.131171
12.430000	33.131171
12.440000	33.131171
12.450000	33.131171
12.460000	33.131171
12.470000	33.131171
12.480000	33.131171
12.490000	33.131171
12.500000	32.961984
12.510000	32.961984
12.520000	32.961984
12.530000	32.961984
12.540000	32.961984
12.550000	32.961984
12.560000	32.961984
12.570000	32.961984
12.580000	32.961984
12.590000	32.961984
12.600000	32.961984
12.610000	32.961984
12.620000	32.961984
12.630000	32.961984
12.640000	32.961984
12.650000	32.961984
12.660000	32.961984
12.670000	32.961984
12.680000	32.961984
12.690000	32.961984
12.700000	32.961984
12.710000	32.961984
12.720000	32.961984
12.730000	32.961984
12.740000	32.961984
12.750000	32.961984
12.760000	32.961984
12.770000	32.961984
12.780000	32.961984
12.790000	32.961984
12.800000	32.961984
12.810000	32.961984
12.820000	32.961984
12.830000	32.961984
12.840000	32.961984
12.850000	32.961984
12.860000	32.961984
12.870000	32.961984
12.880000	32.961984
12.890000	32.961984
12.900000	32.961984
12.910000	32.961984
12.920000	32.961984
12.930000	32.961984
12.940000	32.961984
12.950000	32.961984
12.960000	32.961984
12.970000	32.961984
12.980000	32.961984
12.990000	32.961984
13.000000	32.796963
13.010000	32.796963
13.020000	32.796963
13.030000	32.796963
13.040000	32.796963
13.050000	32.796963
13.060000	32.796963
13.070000	32.796963
13.080000	32.796963
13.090000	32.796963
13.100000	32.796963
13.110000	32.796963
13.120000	32.796963
13.130000	32.796963
13.140000	32.796963
13.150000	32.796963
13.160000	32.796963
13.170000	32.796963
13.180000	32.796963
13.190000	32.796963
13.200000	32.796963
13.210000	32.796963
13.220000	32.796963
13.230000	32.796963
13.240000	32.796963
13.250000	32.796963
13.260000	32.796963
13.270000	32.796963
13.280000	32.796963
13.290000	32.796963
13.300000	32.796963
13.310000	32.796963
13.320000	32.796963
13.330000	32.796963
13.340000	32.796963
13.350000	32.796963
13.360000	32.796963
13.370000	32.796963
13.380000	32.796963
13.390000	32.796963
13.400000	32.796963
13.410000	32.796963
13.420000	32.796963
13.430000	32.796963
13.440000	32.796963
13.450000	32.796963
13.460000	32.796963
13.470000	32.796963
13.480000	32.796963
13.490000	32.796963
13.500000	32.633824
13.510000	32.633824
13.520000	32.633824
13.530000	32.633824
13.540000	32.633824
13.550000	32.633824
13.560000	32.633824
13.570000	32.633824
13.580000	32.633824
13.590000	32.633824
13.600000	32.633824
13.610000	32.633824
13.620000	32.633824
13.630000	32.633824
13.640000	32.633824
13.650000	32.633824
13.660000	32.633824
13.670000	32.633824
13.680000	32.633824
13.690000	32.633824
13.700000	32.633824
13.710000	32.633824
13.720000	32.633824
13.730000	32.633824
13.740000	32.633824
13.750000	32.633824
13.760000	32.633824
13.770000	32.633824
13.780000	32.633824
13.790000	32.633824
13.800000	32.633824
13.810000	32.633824
13.820000	32.633824
13.830000	32.633824
13.840000	32.633824
13.850000	32.633824
13.860000	32.633824
13.870000	32.633824
13.880000	32.633824
13.890000	32.633824
13.900000	32.633824
13.910000	32.633824
13.920000	32.633824
13.930000	32.633824
13.940000	32.633824
13.950000	32.633824
13.960000	32.633824
13.970000	32.633824
13.980000	32.633824
13.990000	32.633824
14.000000	32.473809
14.010000	32.473809
14.020000	32.473809
14.030000	32.473809
14.040000	32.473809
14.050000	32.473809
14.060000	32.473809
14.070000	32.473809
14.080000	32.473809
14.090000	32.473809
14.100000	32.473809
14.110000	32.473809
14.120000	32.473809
14.130000	32.473809
14.140000	32.473809
14.150000	32.473809
14.160000	32.473809
14.170000	32.473809
14.180000	32.473809
14.190000	32.473809
14.200000	32.473809
14.210000	32.473809
14.220000	32.473809
14.230000	32.473809
14.240000	32.473809
14.250000	32.473809
14.260000	32.473809
14.270000	32.473809
14.280000	32.473809
14.290000	32.473809
14.300000	32.473809
14.310000	32.473809
14.320000	32.473809
14.330000	32.473809
14.340000	32.473809
14.350000	32.473809
14.360000	32.473809
14.370000	32.473809
14.380000	32.473809
14.390000	32.473809
14.400000	32.473809
14.410000	32.473809
14.420000	32.473809
14.430000	32.473809
14.440000	32.473809
14.450000	32.473809
14.460000	32.473809
14.470000	32.473809
14.480000	32.473809
14.490000	32.473809
14.500000	32.314791
14.510000	32.314791
14.520000	32.314791
14.530000	32.314791
14.540000	32.314791
14.550000	32.314791
14.560000	32.314791
14.570000	32.314791
14.580000	32.314791
14.590000	32.314791
14.600000	32.314791
14.610000	32.314791
14.620000	32.314791
14.630000	32.314791
14.640000	32.314791
14.650000	32.314791
14.660000	32.314791
14.670000	32.314791
14.680000	32.314791
14.690000	32.314791
14.700000	32.314791
14.710000	32.314791
14.720000	32.314791
14.730000	32.314791
14.740000	32.314791
14.750000	32.314791
14.760000	32.314791
14.770000	32.314791
14.780000	32.314791
14.790000	32.314791
14.800000	32.314791
14.810000	32.314791
14.820000	32.314791
14.830000	32.314791
14.840000	32.314791
14.850000	32.314791
14.860000	32.314791
14.870000	32.314791
14.880000	32.314791
14.890000	32.314791
14.900000	32.314791
14.910000	32.314791
14.920000	32.314791
14.930000	32.314791
14.940000	32.314791
14.950000	32.314791
14.960000	32.314791
14.970000	32.314791
14.980000	32.314791
14.990000	32.314791
15.000000	32.157988
15.010000	32.157988
15.020000	32.157988
15.030000	32.157988
15.040000	32.157988
15.050000	32.157988
15.060000	32.157988
15.070000	32.157988
15.080000	32.157988
15.090000	32.157988
15.100000	32.157988
15.110000	32.157988
15.120000	32.157988
15.130000	32.157988
15.140000	32.157988
15.150000	32.157988
15.160000	32.157988
15.170000	32.157988
15.180000	32.157988
15.190000	32.157988
15.200000	32.157988
15.210000	32.157988
15.220000	32.157988
15.230000	32.157988
15.240000	32.157988
15.250000	32.157988
15.260000	32.157988
15.270000	32.157988
15.280000	32.157988
15.290000	32.157988
15.300000	32.157988
15.310000	32.157988
15.320000	32.157988
15.330000	32.157988
15.340000	32.157988
15.350000	32.157988
15.360000	32.157988
15.370000	32.157988
15.380000	32.157988
15.390000	32.157988
15.400000	32.157988
15.410000	32.157988
15.420000	32.157988
15.430000	32.157988
15.440000	32.157988
15.450000	32.157988
15.460000	32.157988
15.470000	32.157988
15.480000	32.157988
15.490000	32.157988
15.500000	32.008185
15.510000	32.008185
15.520000	32.008185
15.530000	32.008185
15.540000	32.008185
15.550000	32.008185
15.560000	32.008185
15.570000	32.008185
15.580000	32.008185
15.590000	32.008185
15.600000	32.008185
15.610000	32.008185
15.620000	32.008185
15.630000	32.008185
15.640000	32.008185
15.650000	32.008185
15.660000	32.008185
15.670000	32.008185
15.680000	32.008185
15.690000	32.008185
15.700000	32.008185
15.710000	32.008185
15.720000	32.008185
15.730000	32.008185
15.740000	32.008185
15.750000	32.008185
15.760000	32.008185
15.770000	32.008185
15.780000	32.008185
15.790000	32.008185
15.800000	32.008185
15.810000	32.008185
15.820000	32.008185
15.830000	32.008185
15.840000	32.008185
15.850000	32.008185
15.860000	32.008185
15.870000	32.008185
15.880000	32.008185
15.890000	32.008185
15.900000	32.008185
15.910000	32.008185
15.920000	32.008185
15.930000	32.008185
15.940000	32.008185
15.950000	32.008185
15.960000	32.008185
15.970000	32.008185
15.980000	32.008185
15.990000	32.008185
16.000000	31.861362
16.010000	31.861362
16.020000	31.861362
16.030000	31.861362
16.040000	31.861362
16.050000	31.861362
16.060000	31.861362
16.070000	31.861362
16.080000	31.861362
16.090000	31.861362
16.100000	31.861362
16.110000	31.861362
16.120000	31.861362
16.130000	31.861362
16.140000	31.861362
16.150000	31.861362
16.160000	31.861362
16.170000	31.861362
16.180000	31.861362
16.190000	31.861362
16.200000	31.861362
16.210000	31.861362
16.220000	31.861362
16.230000	31.861362
16.240000	31.861362
16.250000	31.861362
16.260000	31.861362
16.270000	31.861362
16.280000	31.861362
16.290000	31.861362
16.300000	31.861362
16.310000	31.861362
16.320000	31.861362
16.330000	31.861362
16.340000	31.861362
16.350000	31.861362
16.360000	31.861362
16.370000	31.861362
16.380000	31.861362
16.390000	31.861362
16.400000	31.861362
16.410000	31.861362
16.420000	31.861362
16.430000	31.861362
16.440000	31.861362
16.450000	31.861362
16.460000	31.861362
16.470000	31.861362
16.480000	31.861362
16.490000	31.861362
16.500000	31.718142
16.510000	31.718142
16.520000	31.718142
16.530000	31.718142
16.540000	31.718142
16.550000	31.718142
16.560000	31.718142
16.570000	31.718142
16.580000	31.718142
16.590000	31.718142
16.600000	31.718142
16.610000	31.718142
16.620000	31.718142
16.630000	31.718142
16.640000	31.718142
16.650000	31.718142
16.660000	31.718142
16.670000	31.718142
16.680000	31.718142
16.690000	31.718142
16.700000	31.718142
16.710000	31.718142
16.720000	31.718142
16.730000	31.718142
16.740000	31.718142
16.750000	31.718142
16.760000	31.718142
16.770000	31.718142
16.780000	31.718142
16.790000	31.718142
16.800000	31.718142
16.810000	31.718142
16.820000	31.718142
16.830000	31.718142
16.840000	31.718142
16.850000	31.718142
16.860000	31.718142
16.870000	31.718142
16.880000	31.718142
16.890000	31.718142
16.900000	31.718142
16.910000	31.718142
16.920000	31.718142
16.930000	31.718142
16.940000	31.718142
16.950000	31.718142
16.960000	31.718142
16.970000	31.718142
16.980000	31.718142
16.990000	31.718142
17.000000	31.579173
17.010000	31.579173
17.020000	31.579173
17.030000	31.579173
17.040000	31.579173
17.050000	31.579173
17.060000	31.579173
17.070000	31.579173
17.080000	31.579173
17.090000	31.579173
17.100000	31.579173
17.110000	31.579173
17.120000	31.579173
17.130000	31.579173
17.140000	31.579173
17.150000	31.579173
17.160000	31.579173
17.170000	31.579173
17.180000	31.579173
17.190000	31.579173
17.200000	31.579173
17.210000	31.579173
17.220000	31.579173
17.230000	31.579173
17.240000	31.579173
17.250000	31.579173
17.260000	31.579173
17.270000	31.579173
17.280000	31.579173
17.290000	31.579173
17.300000	31.579173
17.310000	31.579173
17.320000	31.579173
17.330000	31.579173
17.340000	31.579173
17.350000	31.579173
17.360000	31.579173
17.370000	31.579173
17.380000	31.579173
17.390000	31.579173
17.400000	31.579173
17.410000	31.579173
17.420000	31.579173
17.430000	31.579173
17.440000	31.579173
17.450000	31.579173
17.460000	31.579173
17.470000	31.579173
17.480000	31.579173
17.490000	31.579173
17.500000	31.445197
17.510000	31.445197
17.520000	31.445197
17.530000	31.445197
17.540000	31.445197
17.550000	31.445197
17.560000	31.445197
17.570000	31.445197
17.580000	31.445197
17.590000	31.445197
17.600000	31.445197
17.610000	31.445197
17.620000	31.445197
17.630000	31.445197
17.640000	31.445197
17.650000	31.445197
17.660000	31.445197
17.670000	31.445197
17.680000	31.445197
17.690000	31.445197
17.700000	31.445197
17.710000	31.445197
17.720000	31.445197
17.730000	31.445197
17.740000	31.445197
17.750000	31.445197
17.760000	31.445197
17.770000	31.445197
17.780000	31.445197
17.790000	31.445197
17.800000	31.445197
17.810000	31.445197
17.820000	31.445197
17.830000	31.445197
17.840000	31.445197
17.850000	31.445197
17.860000	31.445197
17.870000	31.445197
17.880000	31.445197
17.890000	31.445197
17.900000	31.445197
17.910000	31.445197
17.920000	31.445197
17.930000	31.445197
17.940000	31.445197
17.950000	31.445197
17.960000	31.445197
17.970000	31.445197
17.980000	31.445197
17.990000	31.445197
