LabVIEW Measurement	
Writer_Version	2
Reader_Version	2
Separator	Tab
Decimal_Separator	.
Multi_Headings	No
X_Columns	One
Time_Pref	Absolute
Operator	biomech-dyno
Date	2023/05/24
Time	15:19:49.9492761999999796612
***End_of_Header***	
	
Channels	1	
Samples	10	
Date	2023/05/24	
Time	15:47:44.3086154999997935973	
X_Dimension	Time	
X0	0.0000000000000000E+0	
Delta_X	0.010000	
***End_of_Header***		
X_Value	Untitled	Comment
0.000000	24.837254
0.010000	24.837254
0.020000	24.837254
0.030000	24.837254
0.040000	24.837254
0.050000	24.837254
0.060000	24.837254
0.070000	24.837254
0.080000	24.837254
0.090000	24.837254
0.100000	24.837254
0.110000	24.837254
0.120000	24.837254
0.130000	24.837254
0.140000	24.837254
0.150000	24.837254
0.160000	24.837254
0.170000	24.837254
0.180000	24.837254
0.190000	24.837254
0.200000	24.837254
0.210000	24.837254
0.220000	24.837254
0.230000	24.837254
0.240000	24.837254
0.250000	24.837254
0.260000	24.837254
0.270000	24.837254
0.280000	24.837254
0.290000	24.837254
0.300000	24.837254
0.310000	24.837254
0.320000	24.837254
0.330000	24.837254
0.340000	24.837254
0.350000	24.837254
0.360000	24.837254
0.370000	24.837254
0.380000	24.837254
0.390000	24.837254
0.400000	24.837254
0.410000	24.837254
0.420000	24.837254
0.430000	24.837254
0.440000	24.837254
0.450000	24.837254
0.460000	24.837254
0.470000	24.837254
0.480000	24.837254
0.490000	24.837254
0.500000	24.850020
0.510000	24.850020
0.520000	24.850020
0.530000	24.850020
0.540000	24.850020
0.550000	24.850020
0.560000	24.850020
0.570000	24.850020
0.580000	24.850020
0.590000	24.850020
0.600000	24.850020
0.610000	24.850020
0.620000	24.850020
0.630000	24.850020
0.640000	24.850020
0.650000	24.850020
0.660000	24.850020
0.670000	24.850020
0.680000	24.850020
0.690000	24.850020
0.700000	24.850020
0.710000	24.850020
0.720000	24.850020
0.730000	24.850020
0.740000	24.850020
0.750000	24.850020
0.760000	24.850020
0.770000	24.850020
0.780000	24.850020
0.790000	24.850020
0.800000	24.850020
0.810000	24.850020
0.820000	24.850020
0.830000	24.850020
0.840000	24.850020
0.850000	24.850020
0.860000	24.850020
0.870000	24.850020
0.880000	24.850020
0.890000	24.850020
0.900000	24.850020
0.910000	24.850020
0.920000	24.850020
0.930000	24.850020
0.940000	24.850020
0.950000	24.850020
0.960000	24.850020
0.970000	24.850020
0.980000	24.850020
0.990000	24.850020
1.000000	24.973181
1.010000	24.973181
1.020000	24.973181
1.030000	24.973181
1.040000	24.973181
1.050000	24.973181
1.060000	24.973181
1.070000	24.973181
1.080000	24.973181
1.090000	24.973181
1.100000	24.973181
1.110000	24.973181
1.120000	24.973181
1.130000	24.973181
1.140000	24.973181
1.150000	24.973181
1.160000	24.973181
1.170000	24.973181
1.180000	24.973181
1.190000	24.973181
1.200000	24.973181
1.210000	24.973181
1.220000	24.973181
1.230000	24.973181
1.240000	24.973181
1.250000	24.973181
1.260000	24.973181
1.270000	24.973181
1.280000	24.973181
1.290000	24.973181
1.300000	24.973181
1.310000	24.973181
1.320000	24.973181
1.330000	24.973181
1.340000	24.973181
1.350000	24.973181
1.360000	24.973181
1.370000	24.973181
1.380000	24.973181
1.390000	24.973181
1.400000	24.973181
1.410000	24.973181
1.420000	24.973181
1.430000	24.973181
1.440000	24.973181
1.450000	24.973181
1.460000	24.973181
1.470000	24.973181
1.480000	24.973181
1.490000	24.973181
1.500000	25.255484
1.510000	25.255484
1.520000	25.255484
1.530000	25.255484
1.540000	25.255484
1.550000	25.255484
1.560000	25.255484
1.570000	25.255484
1.580000	25.255484
1.590000	25.255484
1.600000	25.255484
1.610000	25.255484
1.620000	25.255484
1.630000	25.255484
1.640000	25.255484
1.650000	25.255484
1.660000	25.255484
1.670000	25.255484
1.680000	25.255484
1.690000	25.255484
1.700000	25.255484
1.710000	25.255484
1.720000	25.255484
1.730000	25.255484
1.740000	25.255484
1.750000	25.255484
1.760000	25.255484
1.770000	25.255484
1.780000	25.255484
1.790000	25.255484
1.800000	25.255484
1.810000	25.255484
1.820000	25.255484
1.830000	25.255484
1.840000	25.255484
1.850000	25.255484
1.860000	25.255484
1.870000	25.255484
1.880000	25.255484
1.890000	25.255484
1.900000	25.255484
1.910000	25.255484
1.920000	25.255484
1.930000	25.255484
1.940000	25.255484
1.950000	25.255484
1.960000	25.255484
1.970000	25.255484
1.980000	25.255484
1.990000	25.255484
2.000000	25.674187
2.010000	25.674187
2.020000	25.674187
2.030000	25.674187
2.040000	25.674187
2.050000	25.674187
2.060000	25.674187
2.070000	25.674187
2.080000	25.674187
2.090000	25.674187
2.100000	25.674187
2.110000	25.674187
2.120000	25.674187
2.130000	25.674187
2.140000	25.674187
2.150000	25.674187
2.160000	25.674187
2.170000	25.674187
2.180000	25.674187
2.190000	25.674187
2.200000	25.674187
2.210000	25.674187
2.220000	25.674187
2.230000	25.674187
2.240000	25.674187
2.250000	25.674187
2.260000	25.674187
2.270000	25.674187
2.280000	25.674187
2.290000	25.674187
2.300000	25.674187
2.310000	25.674187
2.320000	25.674187
2.330000	25.674187
2.340000	25.674187
2.350000	25.674187
2.360000	25.674187
2.370000	25.674187
2.380000	25.674187
2.390000	25.674187
2.400000	25.674187
2.410000	25.674187
2.420000	25.674187
2.430000	25.674187
2.440000	25.674187
2.450000	25.674187
2.460000	25.674187
2.470000	25.674187
2.480000	25.674187
2.490000	25.674187
2.500000	26.186027
2.510000	26.186027
2.520000	26.186027
2.530000	26.186027
2.540000	26.186027
2.550000	26.186027
2.560000	26.186027
2.570000	26.186027
2.580000	26.186027
2.590000	26.186027
2.600000	26.186027
2.610000	26.186027
2.620000	26.186027
2.630000	26.186027
2.640000	26.186027
2.650000	26.186027
2.660000	26.186027
2.670000	26.186027
2.680000	26.186027
2.690000	26.186027
2.700000	26.186027
2.710000	26.186027
2.720000	26.186027
2.730000	26.186027
2.740000	26.186027
2.750000	26.186027
2.760000	26.186027
2.770000	26.186027
2.780000	26.186027
2.790000	26.186027
2.800000	26.186027
2.810000	26.186027
2.820000	26.186027
2.830000	26.186027
2.840000	26.186027
2.850000	26.186027
2.860000	26.186027
2.870000	26.186027
2.880000	26.186027
2.890000	26.186027
2.900000	26.186027
2.910000	26.186027
2.920000	26.186027
2.930000	26.186027
2.940000	26.186027
2.950000	26.186027
2.960000	26.186027
2.970000	26.186027
2.980000	26.186027
2.990000	26.186027
3.000000	26.769610
3.010000	26.769610
3.020000	26.769610
3.030000	26.769610
3.040000	26.769610
3.050000	26.769610
3.060000	26.769610
3.070000	26.769610
3.080000	26.769610
3.090000	26.769610
3.100000	26.769610
3.110000	26.769610
3.120000	26.769610
3.130000	26.769610
3.140000	26.769610
3.150000	26.769610
3.160000	26.769610
3.170000	26.769610
3.180000	26.769610
3.190000	26.769610
3.200000	26.769610
3.210000	26.769610
3.220000	26.769610
3.230000	26.769610
3.240000	26.769610
3.250000	26.769610
3.260000	26.769610
3.270000	26.769610
3.280000	26.769610
3.290000	26.769610
3.300000	26.769610
3.310000	26.769610
3.320000	26.769610
3.330000	26.769610
3.340000	26.769610
3.350000	26.769610
3.360000	26.769610
3.370000	26.769610
3.380000	26.769610
3.390000	26.769610
3.400000	26.769610
3.410000	26.769610
3.420000	26.769610
3.430000	26.769610
3.440000	26.769610
3.450000	26.769610
3.460000	26.769610
3.470000	26.769610
3.480000	26.769610
3.490000	26.769610
3.500000	27.382936
3.510000	27.382936
3.520000	27.382936
3.530000	27.382936
3.540000	27.382936
3.550000	27.382936
3.560000	27.382936
3.570000	27.382936
3.580000	27.382936
3.590000	27.382936
3.600000	27.382936
3.610000	27.382936
3.620000	27.382936
3.630000	27.382936
3.640000	27.382936
3.650000	27.382936
3.660000	27.382936
3.670000	27.382936
3.680000	27.382936
3.690000	27.382936
3.700000	27.382936
3.710000	27.382936
3.720000	27.382936
3.730000	27.382936
3.740000	27.382936
3.750000	27.382936
3.760000	27.382936
3.770000	27.382936
3.780000	27.382936
3.790000	27.382936
3.800000	27.382936
3.810000	27.382936
3.820000	27.382936
3.830000	27.382936
3.840000	27.382936
3.850000	27.382936
3.860000	27.382936
3.870000	27.382936
3.880000	27.382936
3.890000	27.382936
3.900000	27.382936
3.910000	27.382936
3.920000	27.382936
3.930000	27.382936
3.940000	27.382936
3.950000	27.382936
3.960000	27.382936
3.970000	27.382936
3.980000	27.382936
3.990000	27.382936
4.000000	27.892393
4.010000	27.892393
4.020000	27.892393
4.030000	27.892393
4.040000	27.892393
4.050000	27.892393
4.060000	27.892393
4.070000	27.892393
4.080000	27.892393
4.090000	27.892393
4.100000	27.892393
4.110000	27.892393
4.120000	27.892393
4.130000	27.892393
4.140000	27.892393
4.150000	27.892393
4.160000	27.892393
4.170000	27.892393
4.180000	27.892393
4.190000	27.892393
4.200000	27.892393
4.210000	27.892393
4.220000	27.892393
4.230000	27.892393
4.240000	27.892393
4.250000	27.892393
4.260000	27.892393
4.270000	27.892393
4.280000	27.892393
4.290000	27.892393
4.300000	27.892393
4.310000	27.892393
4.320000	27.892393
4.330000	27.892393
4.340000	27.892393
4.350000	27.892393
4.360000	27.892393
4.370000	27.892393
4.380000	27.892393
4.390000	27.892393
4.400000	27.892393
4.410000	27.892393
4.420000	27.892393
4.430000	27.892393
4.440000	27.892393
4.450000	27.892393
4.460000	27.892393
4.470000	27.892393
4.480000	27.892393
4.490000	27.892393
4.500000	28.266652
4.510000	28.266652
4.520000	28.266652
4.530000	28.266652
4.540000	28.266652
4.550000	28.266652
4.560000	28.266652
4.570000	28.266652
4.580000	28.266652
4.590000	28.266652
4.600000	28.266652
4.610000	28.266652
4.620000	28.266652
4.630000	28.266652
4.640000	28.266652
4.650000	28.266652
4.660000	28.266652
4.670000	28.266652
4.680000	28.266652
4.690000	28.266652
4.700000	28.266652
4.710000	28.266652
4.720000	28.266652
4.730000	28.266652
4.740000	28.266652
4.750000	28.266652
4.760000	28.266652
4.770000	28.266652
4.780000	28.266652
4.790000	28.266652
4.800000	28.266652
4.810000	28.266652
4.820000	28.266652
4.830000	28.266652
4.840000	28.266652
4.850000	28.266652
4.860000	28.266652
4.870000	28.266652
4.880000	28.266652
4.890000	28.266652
4.900000	28.266652
4.910000	28.266652
4.920000	28.266652
4.930000	28.266652
4.940000	28.266652
4.950000	28.266652
4.960000	28.266652
4.970000	28.266652
4.980000	28.266652
4.990000	28.266652
5.000000	28.531427
5.010000	28.531427
5.020000	28.531427
5.030000	28.531427
5.040000	28.531427
5.050000	28.531427
5.060000	28.531427
5.070000	28.531427
5.080000	28.531427
5.090000	28.531427
5.100000	28.531427
5.110000	28.531427
5.120000	28.531427
5.130000	28.531427
5.140000	28.531427
5.150000	28.531427
5.160000	28.531427
5.170000	28.531427
5.180000	28.531427
5.190000	28.531427
5.200000	28.531427
5.210000	28.531427
5.220000	28.531427
5.230000	28.531427
5.240000	28.531427
5.250000	28.531427
5.260000	28.531427
5.270000	28.531427
5.280000	28.531427
5.290000	28.531427
5.300000	28.531427
5.310000	28.531427
5.320000	28.531427
5.330000	28.531427
5.340000	28.531427
5.350000	28.531427
5.360000	28.531427
5.370000	28.531427
5.380000	28.531427
5.390000	28.531427
5.400000	28.531427
5.410000	28.531427
5.420000	28.531427
5.430000	28.531427
5.440000	28.531427
5.450000	28.531427
5.460000	28.531427
5.470000	28.531427
5.480000	28.531427
5.490000	28.531427
5.500000	28.715146
5.510000	28.715146
5.520000	28.715146
5.530000	28.715146
5.540000	28.715146
5.550000	28.715146
5.560000	28.715146
5.570000	28.715146
5.580000	28.715146
5.590000	28.715146
5.600000	28.715146
5.610000	28.715146
5.620000	28.715146
5.630000	28.715146
5.640000	28.715146
5.650000	28.715146
5.660000	28.715146
5.670000	28.715146
5.680000	28.715146
5.690000	28.715146
5.700000	28.715146
5.710000	28.715146
5.720000	28.715146
5.730000	28.715146
5.740000	28.715146
5.750000	28.715146
5.760000	28.715146
5.770000	28.715146
5.780000	28.715146
5.790000	28.715146
5.800000	28.715146
5.810000	28.715146
5.820000	28.715146
5.830000	28.715146
5.840000	28.715146
5.850000	28.715146
5.860000	28.715146
5.870000	28.715146
5.880000	28.715146
5.890000	28.715146
5.900000	28.715146
5.910000	28.715146
5.920000	28.715146
5.930000	28.715146
5.940000	28.715146
5.950000	28.715146
5.960000	28.715146
5.970000	28.715146
5.980000	28.715146
5.990000	28.715146
6.000000	28.835094
6.010000	28.835094
6.020000	28.835094
6.030000	28.835094
6.040000	28.835094
6.050000	28.835094
6.060000	28.835094
6.070000	28.835094
6.080000	28.835094
6.090000	28.835094
6.100000	28.835094
6.110000	28.835094
6.120000	28.835094
6.130000	28.835094
6.140000	28.835094
6.150000	28.835094
6.160000	28.835094
6.170000	28.835094
6.180000	28.835094
6.190000	28.835094
6.200000	28.835094
6.210000	28.835094
6.220000	28.835094
6.230000	28.835094
6.240000	28.835094
6.250000	28.835094
6.260000	28.835094
6.270000	28.835094
6.280000	28.835094
6.290000	28.835094
6.300000	28.835094
6.310000	28.835094
6.320000	28.835094
6.330000	28.835094
6.340000	28.835094
6.350000	28.835094
6.360000	28.835094
6.370000	28.835094
6.380000	28.835094
6.390000	28.835094
6.400000	28.835094
6.410000	28.835094
6.420000	28.835094
6.430000	28.835094
6.440000	28.835094
6.450000	28.835094
6.460000	28.835094
6.470000	28.835094
6.480000	28.835094
6.490000	28.835094
6.500000	28.906109
6.510000	28.906109
6.520000	28.906109
6.530000	28.906109
6.540000	28.906109
6.550000	28.906109
6.560000	28.906109
6.570000	28.906109
6.580000	28.906109
6.590000	28.906109
6.600000	28.906109
6.610000	28.906109
6.620000	28.906109
6.630000	28.906109
6.640000	28.906109
6.650000	28.906109
6.660000	28.906109
6.670000	28.906109
6.680000	28.906109
6.690000	28.906109
6.700000	28.906109
6.710000	28.906109
6.720000	28.906109
6.730000	28.906109
6.740000	28.906109
6.750000	28.906109
6.760000	28.906109
6.770000	28.906109
6.780000	28.906109
6.790000	28.906109
6.800000	28.906109
6.810000	28.906109
6.820000	28.906109
6.830000	28.906109
6.840000	28.906109
6.850000	28.906109
6.860000	28.906109
6.870000	28.906109
6.880000	28.906109
6.890000	28.906109
6.900000	28.906109
6.910000	28.906109
6.920000	28.906109
6.930000	28.906109
6.940000	28.906109
6.950000	28.906109
6.960000	28.906109
6.970000	28.906109
6.980000	28.906109
6.990000	28.906109
7.000000	28.937173
7.010000	28.937173
7.020000	28.937173
7.030000	28.937173
7.040000	28.937173
7.050000	28.937173
7.060000	28.937173
7.070000	28.937173
7.080000	28.937173
7.090000	28.937173
7.100000	28.937173
7.110000	28.937173
7.120000	28.937173
7.130000	28.937173
7.140000	28.937173
7.150000	28.937173
7.160000	28.937173
7.170000	28.937173
7.180000	28.937173
7.190000	28.937173
7.200000	28.937173
7.210000	28.937173
7.220000	28.937173
7.230000	28.937173
7.240000	28.937173
7.250000	28.937173
7.260000	28.937173
7.270000	28.937173
7.280000	28.937173
7.290000	28.937173
7.300000	28.937173
7.310000	28.937173
7.320000	28.937173
7.330000	28.937173
7.340000	28.937173
7.350000	28.937173
7.360000	28.937173
7.370000	28.937173
7.380000	28.937173
7.390000	28.937173
7.400000	28.937173
7.410000	28.937173
7.420000	28.937173
7.430000	28.937173
7.440000	28.937173
7.450000	28.937173
7.460000	28.937173
7.470000	28.937173
7.480000	28.937173
7.490000	28.937173
7.500000	28.938805
7.510000	28.938805
7.520000	28.938805
7.530000	28.938805
7.540000	28.938805
7.550000	28.938805
7.560000	28.938805
7.570000	28.938805
7.580000	28.938805
7.590000	28.938805
7.600000	28.938805
7.610000	28.938805
7.620000	28.938805
7.630000	28.938805
7.640000	28.938805
7.650000	28.938805
7.660000	28.938805
7.670000	28.938805
7.680000	28.938805
7.690000	28.938805
7.700000	28.938805
7.710000	28.938805
7.720000	28.938805
7.730000	28.938805
7.740000	28.938805
7.750000	28.938805
7.760000	28.938805
7.770000	28.938805
7.780000	28.938805
7.790000	28.938805
7.800000	28.938805
7.810000	28.938805
7.820000	28.938805
7.830000	28.938805
7.840000	28.938805
7.850000	28.938805
7.860000	28.938805
7.870000	28.938805
7.880000	28.938805
7.890000	28.938805
7.900000	28.938805
7.910000	28.938805
7.920000	28.938805
7.930000	28.938805
7.940000	28.938805
7.950000	28.938805
7.960000	28.938805
7.970000	28.938805
7.980000	28.938805
7.990000	28.938805
8.000000	28.920356
8.010000	28.920356
8.020000	28.920356
8.030000	28.920356
8.040000	28.920356
8.050000	28.920356
8.060000	28.920356
8.070000	28.920356
8.080000	28.920356
8.090000	28.920356
8.100000	28.920356
8.110000	28.920356
8.120000	28.920356
8.130000	28.920356
8.140000	28.920356
8.150000	28.920356
8.160000	28.920356
8.170000	28.920356
8.180000	28.920356
8.190000	28.920356
8.200000	28.920356
8.210000	28.920356
8.220000	28.920356
8.230000	28.920356
8.240000	28.920356
8.250000	28.920356
8.260000	28.920356
8.270000	28.920356
8.280000	28.920356
8.290000	28.920356
8.300000	28.920356
8.310000	28.920356
8.320000	28.920356
8.330000	28.920356
8.340000	28.920356
8.350000	28.920356
8.360000	28.920356
8.370000	28.920356
8.380000	28.920356
8.390000	28.920356
8.400000	28.920356
8.410000	28.920356
8.420000	28.920356
8.430000	28.920356
8.440000	28.920356
8.450000	28.920356
8.460000	28.920356
8.470000	28.920356
8.480000	28.920356
8.490000	28.920356
8.500000	28.885801
8.510000	28.885801
8.520000	28.885801
8.530000	28.885801
8.540000	28.885801
8.550000	28.885801
8.560000	28.885801
8.570000	28.885801
8.580000	28.885801
8.590000	28.885801
8.600000	28.885801
8.610000	28.885801
8.620000	28.885801
8.630000	28.885801
8.640000	28.885801
8.650000	28.885801
8.660000	28.885801
8.670000	28.885801
8.680000	28.885801
8.690000	28.885801
8.700000	28.885801
8.710000	28.885801
8.720000	28.885801
8.730000	28.885801
8.740000	28.885801
8.750000	28.885801
8.760000	28.885801
8.770000	28.885801
8.780000	28.885801
8.790000	28.885801
8.800000	28.885801
8.810000	28.885801
8.820000	28.885801
8.830000	28.885801
8.840000	28.885801
8.850000	28.885801
8.860000	28.885801
8.870000	28.885801
8.880000	28.885801
8.890000	28.885801
8.900000	28.885801
8.910000	28.885801
8.920000	28.885801
8.930000	28.885801
8.940000	28.885801
8.950000	28.885801
8.960000	28.885801
8.970000	28.885801
8.980000	28.885801
8.990000	28.885801
9.000000	28.839980
9.010000	28.839980
9.020000	28.839980
9.030000	28.839980
9.040000	28.839980
9.050000	28.839980
9.060000	28.839980
9.070000	28.839980
9.080000	28.839980
9.090000	28.839980
9.100000	28.839980
9.110000	28.839980
9.120000	28.839980
9.130000	28.839980
9.140000	28.839980
9.150000	28.839980
9.160000	28.839980
9.170000	28.839980
9.180000	28.839980
9.190000	28.839980
9.200000	28.839980
9.210000	28.839980
9.220000	28.839980
9.230000	28.839980
9.240000	28.839980
9.250000	28.839980
9.260000	28.839980
9.270000	28.839980
9.280000	28.839980
9.290000	28.839980
9.300000	28.839980
9.310000	28.839980
9.320000	28.839980
9.330000	28.839980
9.340000	28.839980
9.350000	28.839980
9.360000	28.839980
9.370000	28.839980
9.380000	28.839980
9.390000	28.839980
9.400000	28.839980
9.410000	28.839980
9.420000	28.839980
9.430000	28.839980
9.440000	28.839980
9.450000	28.839980
9.460000	28.839980
9.470000	28.839980
9.480000	28.839980
9.490000	28.839980
9.500000	28.786121
9.510000	28.786121
9.520000	28.786121
9.530000	28.786121
9.540000	28.786121
9.550000	28.786121
9.560000	28.786121
9.570000	28.786121
9.580000	28.786121
9.590000	28.786121
9.600000	28.786121
9.610000	28.786121
9.620000	28.786121
9.630000	28.786121
9.640000	28.786121
9.650000	28.786121
9.660000	28.786121
9.670000	28.786121
9.680000	28.786121
9.690000	28.786121
9.700000	28.786121
9.710000	28.786121
9.720000	28.786121
9.730000	28.786121
9.740000	28.786121
9.750000	28.786121
9.760000	28.786121
9.770000	28.786121
9.780000	28.786121
9.790000	28.786121
9.800000	28.786121
9.810000	28.786121
9.820000	28.786121
9.830000	28.786121
9.840000	28.786121
9.850000	28.786121
9.860000	28.786121
9.870000	28.786121
9.880000	28.786121
9.890000	28.786121
9.900000	28.786121
9.910000	28.786121
9.920000	28.786121
9.930000	28.786121
9.940000	28.786121
9.950000	28.786121
9.960000	28.786121
9.970000	28.786121
9.980000	28.786121
9.990000	28.786121
10.000000	28.723855
10.010000	28.723855
10.020000	28.723855
10.030000	28.723855
10.040000	28.723855
10.050000	28.723855
10.060000	28.723855
10.070000	28.723855
10.080000	28.723855
10.090000	28.723855
10.100000	28.723855
10.110000	28.723855
10.120000	28.723855
10.130000	28.723855
10.140000	28.723855
10.150000	28.723855
10.160000	28.723855
10.170000	28.723855
10.180000	28.723855
10.190000	28.723855
10.200000	28.723855
10.210000	28.723855
10.220000	28.723855
10.230000	28.723855
10.240000	28.723855
10.250000	28.723855
10.260000	28.723855
10.270000	28.723855
10.280000	28.723855
10.290000	28.723855
10.300000	28.723855
10.310000	28.723855
10.320000	28.723855
10.330000	28.723855
10.340000	28.723855
10.350000	28.723855
10.360000	28.723855
10.370000	28.723855
10.380000	28.723855
10.390000	28.723855
10.400000	28.723855
10.410000	28.723855
10.420000	28.723855
10.430000	28.723855
10.440000	28.723855
10.450000	28.723855
10.460000	28.723855
10.470000	28.723855
10.480000	28.723855
10.490000	28.723855
10.500000	28.656738
10.510000	28.656738
10.520000	28.656738
10.530000	28.656738
10.540000	28.656738
10.550000	28.656738
10.560000	28.656738
10.570000	28.656738
10.580000	28.656738
10.590000	28.656738
10.600000	28.656738
10.610000	28.656738
10.620000	28.656738
10.630000	28.656738
10.640000	28.656738
10.650000	28.656738
10.660000	28.656738
10.670000	28.656738
10.680000	28.656738
10.690000	28.656738
10.700000	28.656738
10.710000	28.656738
10.720000	28.656738
10.730000	28.656738
10.740000	28.656738
10.750000	28.656738
10.760000	28.656738
10.770000	28.656738
10.780000	28.656738
10.790000	28.656738
10.800000	28.656738
10.810000	28.656738
10.820000	28.656738
10.830000	28.656738
10.840000	28.656738
10.850000	28.656738
10.860000	28.656738
10.870000	28.656738
10.880000	28.656738
10.890000	28.656738
10.900000	28.656738
10.910000	28.656738
10.920000	28.656738
10.930000	28.656738
10.940000	28.656738
10.950000	28.656738
10.960000	28.656738
10.970000	28.656738
10.980000	28.656738
10.990000	28.656738
11.000000	28.587923
11.010000	28.587923
11.020000	28.587923
11.030000	28.587923
11.040000	28.587923
11.050000	28.587923
11.060000	28.587923
11.070000	28.587923
11.080000	28.587923
11.090000	28.587923
11.100000	28.587923
11.110000	28.587923
11.120000	28.587923
11.130000	28.587923
11.140000	28.587923
11.150000	28.587923
11.160000	28.587923
11.170000	28.587923
11.180000	28.587923
11.190000	28.587923
11.200000	28.587923
11.210000	28.587923
11.220000	28.587923
11.230000	28.587923
11.240000	28.587923
11.250000	28.587923
11.260000	28.587923
11.270000	28.587923
11.280000	28.587923
11.290000	28.587923
11.300000	28.587923
11.310000	28.587923
11.320000	28.587923
11.330000	28.587923
11.340000	28.587923
11.350000	28.587923
11.360000	28.587923
11.370000	28.587923
11.380000	28.587923
11.390000	28.587923
11.400000	28.587923
11.410000	28.587923
11.420000	28.587923
11.430000	28.587923
11.440000	28.587923
11.450000	28.587923
11.460000	28.587923
11.470000	28.587923
11.480000	28.587923
11.490000	28.587923
11.500000	28.516025
11.510000	28.516025
11.520000	28.516025
11.530000	28.516025
11.540000	28.516025
11.550000	28.516025
11.560000	28.516025
11.570000	28.516025
11.580000	28.516025
11.590000	28.516025
11.600000	28.516025
11.610000	28.516025
11.620000	28.516025
11.630000	28.516025
11.640000	28.516025
11.650000	28.516025
11.660000	28.516025
11.670000	28.516025
11.680000	28.516025
11.690000	28.516025
11.700000	28.516025
11.710000	28.516025
11.720000	28.516025
11.730000	28.516025
11.740000	28.516025
11.750000	28.516025
11.760000	28.516025
11.770000	28.516025
11.780000	28.516025
11.790000	28.516025
11.800000	28.516025
11.810000	28.516025
11.820000	28.516025
11.830000	28.516025
11.840000	28.516025
11.850000	28.516025
11.860000	28.516025
11.870000	28.516025
11.880000	28.516025
11.890000	28.516025
11.900000	28.516025
11.910000	28.516025
11.920000	28.516025
11.930000	28.516025
11.940000	28.516025
11.950000	28.516025
11.960000	28.516025
11.970000	28.516025
11.980000	28.516025
11.990000	28.516025
12.000000	28.443187
12.010000	28.443187
12.020000	28.443187
12.030000	28.443187
12.040000	28.443187
12.050000	28.443187
12.060000	28.443187
12.070000	28.443187
12.080000	28.443187
12.090000	28.443187
12.100000	28.443187
12.110000	28.443187
12.120000	28.443187
12.130000	28.443187
12.140000	28.443187
12.150000	28.443187
12.160000	28.443187
12.170000	28.443187
12.180000	28.443187
12.190000	28.443187
12.200000	28.443187
12.210000	28.443187
12.220000	28.443187
12.230000	28.443187
12.240000	28.443187
12.250000	28.443187
12.260000	28.443187
12.270000	28.443187
12.280000	28.443187
12.290000	28.443187
12.300000	28.443187
12.310000	28.443187
12.320000	28.443187
12.330000	28.443187
12.340000	28.443187
12.350000	28.443187
12.360000	28.443187
12.370000	28.443187
12.380000	28.443187
12.390000	28.443187
12.400000	28.443187
12.410000	28.443187
12.420000	28.443187
12.430000	28.443187
12.440000	28.443187
12.450000	28.443187
12.460000	28.443187
12.470000	28.443187
12.480000	28.443187
12.490000	28.443187
12.500000	28.369840
12.510000	28.369840
12.520000	28.369840
12.530000	28.369840
12.540000	28.369840
12.550000	28.369840
12.560000	28.369840
12.570000	28.369840
12.580000	28.369840
12.590000	28.369840
12.600000	28.369840
12.610000	28.369840
12.620000	28.369840
12.630000	28.369840
12.640000	28.369840
12.650000	28.369840
12.660000	28.369840
12.670000	28.369840
12.680000	28.369840
12.690000	28.369840
12.700000	28.369840
12.710000	28.369840
12.720000	28.369840
12.730000	28.369840
12.740000	28.369840
12.750000	28.369840
12.760000	28.369840
12.770000	28.369840
12.780000	28.369840
12.790000	28.369840
12.800000	28.369840
12.810000	28.369840
12.820000	28.369840
12.830000	28.369840
12.840000	28.369840
12.850000	28.369840
12.860000	28.369840
12.870000	28.369840
12.880000	28.369840
12.890000	28.369840
12.900000	28.369840
12.910000	28.369840
12.920000	28.369840
12.930000	28.369840
12.940000	28.369840
12.950000	28.369840
12.960000	28.369840
12.970000	28.369840
12.980000	28.369840
12.990000	28.369840
13.000000	28.296475
13.010000	28.296475
13.020000	28.296475
13.030000	28.296475
13.040000	28.296475
13.050000	28.296475
13.060000	28.296475
13.070000	28.296475
13.080000	28.296475
13.090000	28.296475
13.100000	28.296475
13.110000	28.296475
13.120000	28.296475
13.130000	28.296475
13.140000	28.296475
13.150000	28.296475
13.160000	28.296475
13.170000	28.296475
13.180000	28.296475
13.190000	28.296475
13.200000	28.296475
13.210000	28.296475
13.220000	28.296475
13.230000	28.296475
13.240000	28.296475
13.250000	28.296475
13.260000	28.296475
13.270000	28.296475
13.280000	28.296475
13.290000	28.296475
13.300000	28.296475
13.310000	28.296475
13.320000	28.296475
13.330000	28.296475
13.340000	28.296475
13.350000	28.296475
13.360000	28.296475
13.370000	28.296475
13.380000	28.296475
13.390000	28.296475
13.400000	28.296475
13.410000	28.296475
13.420000	28.296475
13.430000	28.296475
13.440000	28.296475
13.450000	28.296475
13.460000	28.296475
13.470000	28.296475
13.480000	28.296475
13.490000	28.296475
13.500000	28.223636
13.510000	28.223636
13.520000	28.223636
13.530000	28.223636
13.540000	28.223636
13.550000	28.223636
13.560000	28.223636
13.570000	28.223636
13.580000	28.223636
13.590000	28.223636
13.600000	28.223636
13.610000	28.223636
13.620000	28.223636
13.630000	28.223636
13.640000	28.223636
13.650000	28.223636
13.660000	28.223636
13.670000	28.223636
13.680000	28.223636
13.690000	28.223636
13.700000	28.223636
13.710000	28.223636
13.720000	28.223636
13.730000	28.223636
13.740000	28.223636
13.750000	28.223636
13.760000	28.223636
13.770000	28.223636
13.780000	28.223636
13.790000	28.223636
13.800000	28.223636
13.810000	28.223636
13.820000	28.223636
13.830000	28.223636
13.840000	28.223636
13.850000	28.223636
13.860000	28.223636
13.870000	28.223636
13.880000	28.223636
13.890000	28.223636
13.900000	28.223636
13.910000	28.223636
13.920000	28.223636
13.930000	28.223636
13.940000	28.223636
13.950000	28.223636
13.960000	28.223636
13.970000	28.223636
13.980000	28.223636
13.990000	28.223636
14.000000	28.149507
14.010000	28.149507
14.020000	28.149507
14.030000	28.149507
14.040000	28.149507
14.050000	28.149507
14.060000	28.149507
14.070000	28.149507
14.080000	28.149507
14.090000	28.149507
14.100000	28.149507
14.110000	28.149507
14.120000	28.149507
14.130000	28.149507
14.140000	28.149507
14.150000	28.149507
14.160000	28.149507
14.170000	28.149507
14.180000	28.149507
14.190000	28.149507
14.200000	28.149507
14.210000	28.149507
14.220000	28.149507
14.230000	28.149507
14.240000	28.149507
14.250000	28.149507
14.260000	28.149507
14.270000	28.149507
14.280000	28.149507
14.290000	28.149507
14.300000	28.149507
14.310000	28.149507
14.320000	28.149507
14.330000	28.149507
14.340000	28.149507
14.350000	28.149507
14.360000	28.149507
14.370000	28.149507
14.380000	28.149507
14.390000	28.149507
14.400000	28.149507
14.410000	28.149507
14.420000	28.149507
14.430000	28.149507
14.440000	28.149507
14.450000	28.149507
14.460000	28.149507
14.470000	28.149507
14.480000	28.149507
14.490000	28.149507
14.500000	28.077844
14.510000	28.077844
14.520000	28.077844
14.530000	28.077844
14.540000	28.077844
14.550000	28.077844
14.560000	28.077844
14.570000	28.077844
14.580000	28.077844
14.590000	28.077844
14.600000	28.077844
14.610000	28.077844
14.620000	28.077844
14.630000	28.077844
14.640000	28.077844
14.650000	28.077844
14.660000	28.077844
14.670000	28.077844
14.680000	28.077844
14.690000	28.077844
14.700000	28.077844
14.710000	28.077844
14.720000	28.077844
14.730000	28.077844
14.740000	28.077844
14.750000	28.077844
14.760000	28.077844
14.770000	28.077844
14.780000	28.077844
14.790000	28.077844
14.800000	28.077844
14.810000	28.077844
14.820000	28.077844
14.830000	28.077844
14.840000	28.077844
14.850000	28.077844
14.860000	28.077844
14.870000	28.077844
14.880000	28.077844
14.890000	28.077844
14.900000	28.077844
14.910000	28.077844
14.920000	28.077844
14.930000	28.077844
14.940000	28.077844
14.950000	28.077844
14.960000	28.077844
14.970000	28.077844
14.980000	28.077844
14.990000	28.077844
15.000000	28.008012
15.010000	28.008012
15.020000	28.008012
15.030000	28.008012
15.040000	28.008012
15.050000	28.008012
15.060000	28.008012
15.070000	28.008012
15.080000	28.008012
15.090000	28.008012
15.100000	28.008012
15.110000	28.008012
15.120000	28.008012
15.130000	28.008012
15.140000	28.008012
15.150000	28.008012
15.160000	28.008012
15.170000	28.008012
15.180000	28.008012
15.190000	28.008012
15.200000	28.008012
15.210000	28.008012
15.220000	28.008012
15.230000	28.008012
15.240000	28.008012
15.250000	28.008012
15.260000	28.008012
15.270000	28.008012
15.280000	28.008012
15.290000	28.008012
15.300000	28.008012
15.310000	28.008012
15.320000	28.008012
15.330000	28.008012
15.340000	28.008012
15.350000	28.008012
15.360000	28.008012
15.370000	28.008012
15.380000	28.008012
15.390000	28.008012
15.400000	28.008012
15.410000	28.008012
15.420000	28.008012
15.430000	28.008012
15.440000	28.008012
15.450000	28.008012
15.460000	28.008012
15.470000	28.008012
15.480000	28.008012
15.490000	28.008012
15.500000	27.938848
15.510000	27.938848
15.520000	27.938848
15.530000	27.938848
15.540000	27.938848
15.550000	27.938848
15.560000	27.938848
15.570000	27.938848
15.580000	27.938848
15.590000	27.938848
15.600000	27.938848
15.610000	27.938848
15.620000	27.938848
15.630000	27.938848
15.640000	27.938848
15.650000	27.938848
15.660000	27.938848
15.670000	27.938848
15.680000	27.938848
15.690000	27.938848
15.700000	27.938848
15.710000	27.938848
15.720000	27.938848
15.730000	27.938848
15.740000	27.938848
15.750000	27.938848
15.760000	27.938848
15.770000	27.938848
15.780000	27.938848
15.790000	27.938848
15.800000	27.938848
15.810000	27.938848
15.820000	27.938848
15.830000	27.938848
15.840000	27.938848
15.850000	27.938848
15.860000	27.938848
15.870000	27.938848
15.880000	27.938848
15.890000	27.938848
15.900000	27.938848
15.910000	27.938848
15.920000	27.938848
15.930000	27.938848
15.940000	27.938848
15.950000	27.938848
15.960000	27.938848
15.970000	27.938848
15.980000	27.938848
15.990000	27.938848
16.000000	27.871894
16.010000	27.871894
16.020000	27.871894
16.030000	27.871894
16.040000	27.871894
16.050000	27.871894
16.060000	27.871894
16.070000	27.871894
16.080000	27.871894
16.090000	27.871894
16.100000	27.871894
16.110000	27.871894
16.120000	27.871894
16.130000	27.871894
16.140000	27.871894
16.150000	27.871894
16.160000	27.871894
16.170000	27.871894
16.180000	27.871894
16.190000	27.871894
16.200000	27.871894
16.210000	27.871894
16.220000	27.871894
16.230000	27.871894
16.240000	27.871894
16.250000	27.871894
16.260000	27.871894
16.270000	27.871894
16.280000	27.871894
16.290000	27.871894
16.300000	27.871894
16.310000	27.871894
16.320000	27.871894
16.330000	27.871894
16.340000	27.871894
16.350000	27.871894
16.360000	27.871894
16.370000	27.871894
16.380000	27.871894
16.390000	27.871894
16.400000	27.871894
16.410000	27.871894
16.420000	27.871894
16.430000	27.871894
16.440000	27.871894
16.450000	27.871894
16.460000	27.871894
16.470000	27.871894
16.480000	27.871894
16.490000	27.871894
16.500000	27.806268
16.510000	27.806268
16.520000	27.806268
16.530000	27.806268
16.540000	27.806268
16.550000	27.806268
16.560000	27.806268
16.570000	27.806268
16.580000	27.806268
16.590000	27.806268
16.600000	27.806268
16.610000	27.806268
16.620000	27.806268
16.630000	27.806268
16.640000	27.806268
16.650000	27.806268
16.660000	27.806268
16.670000	27.806268
16.680000	27.806268
16.690000	27.806268
16.700000	27.806268
16.710000	27.806268
16.720000	27.806268
16.730000	27.806268
16.740000	27.806268
16.750000	27.806268
16.760000	27.806268
16.770000	27.806268
16.780000	27.806268
16.790000	27.806268
16.800000	27.806268
16.810000	27.806268
16.820000	27.806268
16.830000	27.806268
16.840000	27.806268
16.850000	27.806268
16.860000	27.806268
16.870000	27.806268
16.880000	27.806268
16.890000	27.806268
16.900000	27.806268
16.910000	27.806268
16.920000	27.806268
16.930000	27.806268
16.940000	27.806268
16.950000	27.806268
16.960000	27.806268
16.970000	27.806268
16.980000	27.806268
16.990000	27.806268
17.000000	27.742172
17.010000	27.742172
17.020000	27.742172
17.030000	27.742172
17.040000	27.742172
17.050000	27.742172
17.060000	27.742172
17.070000	27.742172
17.080000	27.742172
17.090000	27.742172
17.100000	27.742172
17.110000	27.742172
17.120000	27.742172
17.130000	27.742172
17.140000	27.742172
17.150000	27.742172
17.160000	27.742172
17.170000	27.742172
17.180000	27.742172
17.190000	27.742172
17.200000	27.742172
17.210000	27.742172
17.220000	27.742172
17.230000	27.742172
17.240000	27.742172
17.250000	27.742172
17.260000	27.742172
17.270000	27.742172
17.280000	27.742172
17.290000	27.742172
17.300000	27.742172
17.310000	27.742172
17.320000	27.742172
17.330000	27.742172
17.340000	27.742172
17.350000	27.742172
17.360000	27.742172
17.370000	27.742172
17.380000	27.742172
17.390000	27.742172
17.400000	27.742172
17.410000	27.742172
17.420000	27.742172
17.430000	27.742172
17.440000	27.742172
17.450000	27.742172
17.460000	27.742172
17.470000	27.742172
17.480000	27.742172
17.490000	27.742172
17.500000	27.677705
17.510000	27.677705
17.520000	27.677705
17.530000	27.677705
17.540000	27.677705
17.550000	27.677705
17.560000	27.677705
17.570000	27.677705
17.580000	27.677705
17.590000	27.677705
17.600000	27.677705
17.610000	27.677705
17.620000	27.677705
17.630000	27.677705
17.640000	27.677705
17.650000	27.677705
17.660000	27.677705
17.670000	27.677705
17.680000	27.677705
17.690000	27.677705
17.700000	27.677705
17.710000	27.677705
17.720000	27.677705
17.730000	27.677705
17.740000	27.677705
17.750000	27.677705
17.760000	27.677705
17.770000	27.677705
17.780000	27.677705
17.790000	27.677705
17.800000	27.677705
17.810000	27.677705
17.820000	27.677705
17.830000	27.677705
17.840000	27.677705
17.850000	27.677705
17.860000	27.677705
17.870000	27.677705
17.880000	27.677705
17.890000	27.677705
17.900000	27.677705
17.910000	27.677705
17.920000	27.677705
17.930000	27.677705
17.940000	27.677705
17.950000	27.677705
17.960000	27.677705
17.970000	27.677705
17.980000	27.677705
17.990000	27.677705
