LabVIEW Measurement	
Writer_Version	2
Reader_Version	2
Separator	Tab
Decimal_Separator	.
Multi_Headings	No
X_Columns	One
Time_Pref	Absolute
Operator	biomech-dyno
Date	2023/05/24
Time	15:19:49.9492761999999796612
***End_of_Header***	
	
Channels	1	
Samples	10	
Date	2023/05/24	
Time	15:48:35.8871668999994940268	
X_Dimension	Time	
X0	0.0000000000000000E+0	
Delta_X	0.010000	
***End_of_Header***		
X_Value	Untitled	Comment
0.000000	24.974122
0.010000	24.974122
0.020000	24.974122
0.030000	24.974122
0.040000	24.974122
0.050000	24.974122
0.060000	24.974122
0.070000	24.974122
0.080000	24.974122
0.090000	24.974122
0.100000	24.974122
0.110000	24.974122
0.120000	24.974122
0.130000	24.974122
0.140000	24.974122
0.150000	24.974122
0.160000	24.974122
0.170000	24.974122
0.180000	24.974122
0.190000	24.974122
0.200000	24.974122
0.210000	24.974122
0.220000	24.974122
0.230000	24.974122
0.240000	24.974122
0.250000	24.974122
0.260000	24.974122
0.270000	24.974122
0.280000	24.974122
0.290000	24.974122
0.300000	24.974122
0.310000	24.974122
0.320000	24.974122
0.330000	24.974122
0.340000	24.974122
0.350000	24.974122
0.360000	24.974122
0.370000	24.974122
0.380000	24.974122
0.390000	24.974122
0.400000	24.974122
0.410000	24.974122
0.420000	24.974122
0.430000	24.974122
0.440000	24.974122
0.450000	24.974122
0.460000	24.974122
0.470000	24.974122
0.480000	24.974122
0.490000	24.974122
0.500000	24.990967
0.510000	24.990967
0.520000	24.990967
0.530000	24.990967
0.540000	24.990967
0.550000	24.990967
0.560000	24.990967
0.570000	24.990967
0.580000	24.990967
0.590000	24.990967
0.600000	24.990967
0.610000	24.990967
0.620000	24.990967
0.630000	24.990967
0.640000	24.990967
0.650000	24.990967
0.660000	24.990967
0.670000	24.990967
0.680000	24.990967
0.690000	24.990967
0.700000	24.990967
0.710000	24.990967
0.720000	24.990967
0.730000	24.990967
0.740000	24.990967
0.750000	24.990967
0.760000	24.990967
0.770000	24.990967
0.780000	24.990967
0.790000	24.990967
0.800000	24.990967
0.810000	24.990967
0.820000	24.990967
0.830000	24.990967
0.840000	24.990967
0.850000	24.990967
0.860000	24.990967
0.870000	24.990967
0.880000	24.990967
0.890000	24.990967
0.900000	24.990967
0.910000	24.990967
0.920000	24.990967
0.930000	24.990967
0.940000	24.990967
0.950000	24.990967
0.960000	24.990967
0.970000	24.990967
0.980000	24.990967
0.990000	24.990967
1.000000	25.178572
1.010000	25.178572
1.020000	25.178572
1.030000	25.178572
1.040000	25.178572
1.050000	25.178572
1.060000	25.178572
1.070000	25.178572
1.080000	25.178572
1.090000	25.178572
1.100000	25.178572
1.110000	25.178572
1.120000	25.178572
1.130000	25.178572
1.140000	25.178572
1.150000	25.178572
1.160000	25.178572
1.170000	25.178572
1.180000	25.178572
1.190000	25.178572
1.200000	25.178572
1.210000	25.178572
1.220000	25.178572
1.230000	25.178572
1.240000	25.178572
1.250000	25.178572
1.260000	25.178572
1.270000	25.178572
1.280000	25.178572
1.290000	25.178572
1.300000	25.178572
1.310000	25.178572
1.320000	25.178572
1.330000	25.178572
1.340000	25.178572
1.350000	25.178572
1.360000	25.178572
1.370000	25.178572
1.380000	25.178572
1.390000	25.178572
1.400000	25.178572
1.410000	25.178572
1.420000	25.178572
1.430000	25.178572
1.440000	25.178572
1.450000	25.178572
1.460000	25.178572
1.470000	25.178572
1.480000	25.178572
1.490000	25.178572
1.500000	25.620507
1.510000	25.620507
1.520000	25.620507
1.530000	25.620507
1.540000	25.620507
1.550000	25.620507
1.560000	25.620507
1.570000	25.620507
1.580000	25.620507
1.590000	25.620507
1.600000	25.620507
1.610000	25.620507
1.620000	25.620507
1.630000	25.620507
1.640000	25.620507
1.650000	25.620507
1.660000	25.620507
1.670000	25.620507
1.680000	25.620507
1.690000	25.620507
1.700000	25.620507
1.710000	25.620507
1.720000	25.620507
1.730000	25.620507
1.740000	25.620507
1.750000	25.620507
1.760000	25.620507
1.770000	25.620507
1.780000	25.620507
1.790000	25.620507
1.800000	25.620507
1.810000	25.620507
1.820000	25.620507
1.830000	25.620507
1.840000	25.620507
1.850000	25.620507
1.860000	25.620507
1.870000	25.620507
1.880000	25.620507
1.890000	25.620507
1.900000	25.620507
1.910000	25.620507
1.920000	25.620507
1.930000	25.620507
1.940000	25.620507
1.950000	25.620507
1.960000	25.620507
1.970000	25.620507
1.980000	25.620507
1.990000	25.620507
2.000000	26.271697
2.010000	26.271697
2.020000	26.271697
2.030000	26.271697
2.040000	26.271697
2.050000	26.271697
2.060000	26.271697
2.070000	26.271697
2.080000	26.271697
2.090000	26.271697
2.100000	26.271697
2.110000	26.271697
2.120000	26.271697
2.130000	26.271697
2.140000	26.271697
2.150000	26.271697
2.160000	26.271697
2.170000	26.271697
2.180000	26.271697
2.190000	26.271697
2.200000	26.271697
2.210000	26.271697
2.220000	26.271697
2.230000	26.271697
2.240000	26.271697
2.250000	26.271697
2.260000	26.271697
2.270000	26.271697
2.280000	26.271697
2.290000	26.271697
2.300000	26.271697
2.310000	26.271697
2.320000	26.271697
2.330000	26.271697
2.340000	26.271697
2.350000	26.271697
2.360000	26.271697
2.370000	26.271697
2.380000	26.271697
2.390000	26.271697
2.400000	26.271697
2.410000	26.271697
2.420000	26.271697
2.430000	26.271697
2.440000	26.271697
2.450000	26.271697
2.460000	26.271697
2.470000	26.271697
2.480000	26.271697
2.490000	26.271697
2.500000	27.072756
2.510000	27.072756
2.520000	27.072756
2.530000	27.072756
2.540000	27.072756
2.550000	27.072756
2.560000	27.072756
2.570000	27.072756
2.580000	27.072756
2.590000	27.072756
2.600000	27.072756
2.610000	27.072756
2.620000	27.072756
2.630000	27.072756
2.640000	27.072756
2.650000	27.072756
2.660000	27.072756
2.670000	27.072756
2.680000	27.072756
2.690000	27.072756
2.700000	27.072756
2.710000	27.072756
2.720000	27.072756
2.730000	27.072756
2.740000	27.072756
2.750000	27.072756
2.760000	27.072756
2.770000	27.072756
2.780000	27.072756
2.790000	27.072756
2.800000	27.072756
2.810000	27.072756
2.820000	27.072756
2.830000	27.072756
2.840000	27.072756
2.850000	27.072756
2.860000	27.072756
2.870000	27.072756
2.880000	27.072756
2.890000	27.072756
2.900000	27.072756
2.910000	27.072756
2.920000	27.072756
2.930000	27.072756
2.940000	27.072756
2.950000	27.072756
2.960000	27.072756
2.970000	27.072756
2.980000	27.072756
2.990000	27.072756
3.000000	27.989217
3.010000	27.989217
3.020000	27.989217
3.030000	27.989217
3.040000	27.989217
3.050000	27.989217
3.060000	27.989217
3.070000	27.989217
3.080000	27.989217
3.090000	27.989217
3.100000	27.989217
3.110000	27.989217
3.120000	27.989217
3.130000	27.989217
3.140000	27.989217
3.150000	27.989217
3.160000	27.989217
3.170000	27.989217
3.180000	27.989217
3.190000	27.989217
3.200000	27.989217
3.210000	27.989217
3.220000	27.989217
3.230000	27.989217
3.240000	27.989217
3.250000	27.989217
3.260000	27.989217
3.270000	27.989217
3.280000	27.989217
3.290000	27.989217
3.300000	27.989217
3.310000	27.989217
3.320000	27.989217
3.330000	27.989217
3.340000	27.989217
3.350000	27.989217
3.360000	27.989217
3.370000	27.989217
3.380000	27.989217
3.390000	27.989217
3.400000	27.989217
3.410000	27.989217
3.420000	27.989217
3.430000	27.989217
3.440000	27.989217
3.450000	27.989217
3.460000	27.989217
3.470000	27.989217
3.480000	27.989217
3.490000	27.989217
3.500000	28.931960
3.510000	28.931960
3.520000	28.931960
3.530000	28.931960
3.540000	28.931960
3.550000	28.931960
3.560000	28.931960
3.570000	28.931960
3.580000	28.931960
3.590000	28.931960
3.600000	28.931960
3.610000	28.931960
3.620000	28.931960
3.630000	28.931960
3.640000	28.931960
3.650000	28.931960
3.660000	28.931960
3.670000	28.931960
3.680000	28.931960
3.690000	28.931960
3.700000	28.931960
3.710000	28.931960
3.720000	28.931960
3.730000	28.931960
3.740000	28.931960
3.750000	28.931960
3.760000	28.931960
3.770000	28.931960
3.780000	28.931960
3.790000	28.931960
3.800000	28.931960
3.810000	28.931960
3.820000	28.931960
3.830000	28.931960
3.840000	28.931960
3.850000	28.931960
3.860000	28.931960
3.870000	28.931960
3.880000	28.931960
3.890000	28.931960
3.900000	28.931960
3.910000	28.931960
3.920000	28.931960
3.930000	28.931960
3.940000	28.931960
3.950000	28.931960
3.960000	28.931960
3.970000	28.931960
3.980000	28.931960
3.990000	28.931960
4.000000	29.702356
4.010000	29.702356
4.020000	29.702356
4.030000	29.702356
4.040000	29.702356
4.050000	29.702356
4.060000	29.702356
4.070000	29.702356
4.080000	29.702356
4.090000	29.702356
4.100000	29.702356
4.110000	29.702356
4.120000	29.702356
4.130000	29.702356
4.140000	29.702356
4.150000	29.702356
4.160000	29.702356
4.170000	29.702356
4.180000	29.702356
4.190000	29.702356
4.200000	29.702356
4.210000	29.702356
4.220000	29.702356
4.230000	29.702356
4.240000	29.702356
4.250000	29.702356
4.260000	29.702356
4.270000	29.702356
4.280000	29.702356
4.290000	29.702356
4.300000	29.702356
4.310000	29.702356
4.320000	29.702356
4.330000	29.702356
4.340000	29.702356
4.350000	29.702356
4.360000	29.702356
4.370000	29.702356
4.380000	29.702356
4.390000	29.702356
4.400000	29.702356
4.410000	29.702356
4.420000	29.702356
4.430000	29.702356
4.440000	29.702356
4.450000	29.702356
4.460000	29.702356
4.470000	29.702356
4.480000	29.702356
4.490000	29.702356
4.500000	30.268944
4.510000	30.268944
4.520000	30.268944
4.530000	30.268944
4.540000	30.268944
4.550000	30.268944
4.560000	30.268944
4.570000	30.268944
4.580000	30.268944
4.590000	30.268944
4.600000	30.268944
4.610000	30.268944
4.620000	30.268944
4.630000	30.268944
4.640000	30.268944
4.650000	30.268944
4.660000	30.268944
4.670000	30.268944
4.680000	30.268944
4.690000	30.268944
4.700000	30.268944
4.710000	30.268944
4.720000	30.268944
4.730000	30.268944
4.740000	30.268944
4.750000	30.268944
4.760000	30.268944
4.770000	30.268944
4.780000	30.268944
4.790000	30.268944
4.800000	30.268944
4.810000	30.268944
4.820000	30.268944
4.830000	30.268944
4.840000	30.268944
4.850000	30.268944
4.860000	30.268944
4.870000	30.268944
4.880000	30.268944
4.890000	30.268944
4.900000	30.268944
4.910000	30.268944
4.920000	30.268944
4.930000	30.268944
4.940000	30.268944
4.950000	30.268944
4.960000	30.268944
4.970000	30.268944
4.980000	30.268944
4.990000	30.268944
5.000000	30.667678
5.010000	30.667678
5.020000	30.667678
5.030000	30.667678
5.040000	30.667678
5.050000	30.667678
5.060000	30.667678
5.070000	30.667678
5.080000	30.667678
5.090000	30.667678
5.100000	30.667678
5.110000	30.667678
5.120000	30.667678
5.130000	30.667678
5.140000	30.667678
5.150000	30.667678
5.160000	30.667678
5.170000	30.667678
5.180000	30.667678
5.190000	30.667678
5.200000	30.667678
5.210000	30.667678
5.220000	30.667678
5.230000	30.667678
5.240000	30.667678
5.250000	30.667678
5.260000	30.667678
5.270000	30.667678
5.280000	30.667678
5.290000	30.667678
5.300000	30.667678
5.310000	30.667678
5.320000	30.667678
5.330000	30.667678
5.340000	30.667678
5.350000	30.667678
5.360000	30.667678
5.370000	30.667678
5.380000	30.667678
5.390000	30.667678
5.400000	30.667678
5.410000	30.667678
5.420000	30.667678
5.430000	30.667678
5.440000	30.667678
5.450000	30.667678
5.460000	30.667678
5.470000	30.667678
5.480000	30.667678
5.490000	30.667678
5.500000	30.937355
5.510000	30.937355
5.520000	30.937355
5.530000	30.937355
5.540000	30.937355
5.550000	30.937355
5.560000	30.937355
5.570000	30.937355
5.580000	30.937355
5.590000	30.937355
5.600000	30.937355
5.610000	30.937355
5.620000	30.937355
5.630000	30.937355
5.640000	30.937355
5.650000	30.937355
5.660000	30.937355
5.670000	30.937355
5.680000	30.937355
5.690000	30.937355
5.700000	30.937355
5.710000	30.937355
5.720000	30.937355
5.730000	30.937355
5.740000	30.937355
5.750000	30.937355
5.760000	30.937355
5.770000	30.937355
5.780000	30.937355
5.790000	30.937355
5.800000	30.937355
5.810000	30.937355
5.820000	30.937355
5.830000	30.937355
5.840000	30.937355
5.850000	30.937355
5.860000	30.937355
5.870000	30.937355
5.880000	30.937355
5.890000	30.937355
5.900000	30.937355
5.910000	30.937355
5.920000	30.937355
5.930000	30.937355
5.940000	30.937355
5.950000	30.937355
5.960000	30.937355
5.970000	30.937355
5.980000	30.937355
5.990000	30.937355
6.000000	31.111169
6.010000	31.111169
6.020000	31.111169
6.030000	31.111169
6.040000	31.111169
6.050000	31.111169
6.060000	31.111169
6.070000	31.111169
6.080000	31.111169
6.090000	31.111169
6.100000	31.111169
6.110000	31.111169
6.120000	31.111169
6.130000	31.111169
6.140000	31.111169
6.150000	31.111169
6.160000	31.111169
6.170000	31.111169
6.180000	31.111169
6.190000	31.111169
6.200000	31.111169
6.210000	31.111169
6.220000	31.111169
6.230000	31.111169
6.240000	31.111169
6.250000	31.111169
6.260000	31.111169
6.270000	31.111169
6.280000	31.111169
6.290000	31.111169
6.300000	31.111169
6.310000	31.111169
6.320000	31.111169
6.330000	31.111169
6.340000	31.111169
6.350000	31.111169
6.360000	31.111169
6.370000	31.111169
6.380000	31.111169
6.390000	31.111169
6.400000	31.111169
6.410000	31.111169
6.420000	31.111169
6.430000	31.111169
6.440000	31.111169
6.450000	31.111169
6.460000	31.111169
6.470000	31.111169
6.480000	31.111169
6.490000	31.111169
6.500000	31.216717
6.510000	31.216717
6.520000	31.216717
6.530000	31.216717
6.540000	31.216717
6.550000	31.216717
6.560000	31.216717
6.570000	31.216717
6.580000	31.216717
6.590000	31.216717
6.600000	31.216717
6.610000	31.216717
6.620000	31.216717
6.630000	31.216717
6.640000	31.216717
6.650000	31.216717
6.660000	31.216717
6.670000	31.216717
6.680000	31.216717
6.690000	31.216717
6.700000	31.216717
6.710000	31.216717
6.720000	31.216717
6.730000	31.216717
6.740000	31.216717
6.750000	31.216717
6.760000	31.216717
6.770000	31.216717
6.780000	31.216717
6.790000	31.216717
6.800000	31.216717
6.810000	31.216717
6.820000	31.216717
6.830000	31.216717
6.840000	31.216717
6.850000	31.216717
6.860000	31.216717
6.870000	31.216717
6.880000	31.216717
6.890000	31.216717
6.900000	31.216717
6.910000	31.216717
6.920000	31.216717
6.930000	31.216717
6.940000	31.216717
6.950000	31.216717
6.960000	31.216717
6.970000	31.216717
6.980000	31.216717
6.990000	31.216717
7.000000	31.264774
7.010000	31.264774
7.020000	31.264774
7.030000	31.264774
7.040000	31.264774
7.050000	31.264774
7.060000	31.264774
7.070000	31.264774
7.080000	31.264774
7.090000	31.264774
7.100000	31.264774
7.110000	31.264774
7.120000	31.264774
7.130000	31.264774
7.140000	31.264774
7.150000	31.264774
7.160000	31.264774
7.170000	31.264774
7.180000	31.264774
7.190000	31.264774
7.200000	31.264774
7.210000	31.264774
7.220000	31.264774
7.230000	31.264774
7.240000	31.264774
7.250000	31.264774
7.260000	31.264774
7.270000	31.264774
7.280000	31.264774
7.290000	31.264774
7.300000	31.264774
7.310000	31.264774
7.320000	31.264774
7.330000	31.264774
7.340000	31.264774
7.350000	31.264774
7.360000	31.264774
7.370000	31.264774
7.380000	31.264774
7.390000	31.264774
7.400000	31.264774
7.410000	31.264774
7.420000	31.264774
7.430000	31.264774
7.440000	31.264774
7.450000	31.264774
7.460000	31.264774
7.470000	31.264774
7.480000	31.264774
7.490000	31.264774
7.500000	31.269648
7.510000	31.269648
7.520000	31.269648
7.530000	31.269648
7.540000	31.269648
7.550000	31.269648
7.560000	31.269648
7.570000	31.269648
7.580000	31.269648
7.590000	31.269648
7.600000	31.269648
7.610000	31.269648
7.620000	31.269648
7.630000	31.269648
7.640000	31.269648
7.650000	31.269648
7.660000	31.269648
7.670000	31.269648
7.680000	31.269648
7.690000	31.269648
7.700000	31.269648
7.710000	31.269648
7.720000	31.269648
7.730000	31.269648
7.740000	31.269648
7.750000	31.269648
7.760000	31.269648
7.770000	31.269648
7.780000	31.269648
7.790000	31.269648
7.800000	31.269648
7.810000	31.269648
7.820000	31.269648
7.830000	31.269648
7.840000	31.269648
7.850000	31.269648
7.860000	31.269648
7.870000	31.269648
7.880000	31.269648
7.890000	31.269648
7.900000	31.269648
7.910000	31.269648
7.920000	31.269648
7.930000	31.269648
7.940000	31.269648
7.950000	31.269648
7.960000	31.269648
7.970000	31.269648
7.980000	31.269648
7.990000	31.269648
8.000000	31.239393
8.010000	31.239393
8.020000	31.239393
8.030000	31.239393
8.040000	31.239393
8.050000	31.239393
8.060000	31.239393
8.070000	31.239393
8.080000	31.239393
8.090000	31.239393
8.100000	31.239393
8.110000	31.239393
8.120000	31.239393
8.130000	31.239393
8.140000	31.239393
8.150000	31.239393
8.160000	31.239393
8.170000	31.239393
8.180000	31.239393
8.190000	31.239393
8.200000	31.239393
8.210000	31.239393
8.220000	31.239393
8.230000	31.239393
8.240000	31.239393
8.250000	31.239393
8.260000	31.239393
8.270000	31.239393
8.280000	31.239393
8.290000	31.239393
8.300000	31.239393
8.310000	31.239393
8.320000	31.239393
8.330000	31.239393
8.340000	31.239393
8.350000	31.239393
8.360000	31.239393
8.370000	31.239393
8.380000	31.239393
8.390000	31.239393
8.400000	31.239393
8.410000	31.239393
8.420000	31.239393
8.430000	31.239393
8.440000	31.239393
8.450000	31.239393
8.460000	31.239393
8.470000	31.239393
8.480000	31.239393
8.490000	31.239393
8.500000	31.184336
8.510000	31.184336
8.520000	31.184336
8.530000	31.184336
8.540000	31.184336
8.550000	31.184336
8.560000	31.184336
8.570000	31.184336
8.580000	31.184336
8.590000	31.184336
8.600000	31.184336
8.610000	31.184336
8.620000	31.184336
8.630000	31.184336
8.640000	31.184336
8.650000	31.184336
8.660000	31.184336
8.670000	31.184336
8.680000	31.184336
8.690000	31.184336
8.700000	31.184336
8.710000	31.184336
8.720000	31.184336
8.730000	31.184336
8.740000	31.184336
8.750000	31.184336
8.760000	31.184336
8.770000	31.184336
8.780000	31.184336
8.790000	31.184336
8.800000	31.184336
8.810000	31.184336
8.820000	31.184336
8.830000	31.184336
8.840000	31.184336
8.850000	31.184336
8.860000	31.184336
8.870000	31.184336
8.880000	31.184336
8.890000	31.184336
8.900000	31.184336
8.910000	31.184336
8.920000	31.184336
8.930000	31.184336
8.940000	31.184336
8.950000	31.184336
8.960000	31.184336
8.970000	31.184336
8.980000	31.184336
8.990000	31.184336
9.000000	31.110252
9.010000	31.110252
9.020000	31.110252
9.030000	31.110252
9.040000	31.110252
9.050000	31.110252
9.060000	31.110252
9.070000	31.110252
9.080000	31.110252
9.090000	31.110252
9.100000	31.110252
9.110000	31.110252
9.120000	31.110252
9.130000	31.110252
9.140000	31.110252
9.150000	31.110252
9.160000	31.110252
9.170000	31.110252
9.180000	31.110252
9.190000	31.110252
9.200000	31.110252
9.210000	31.110252
9.220000	31.110252
9.230000	31.110252
9.240000	31.110252
9.250000	31.110252
9.260000	31.110252
9.270000	31.110252
9.280000	31.110252
9.290000	31.110252
9.300000	31.110252
9.310000	31.110252
9.320000	31.110252
9.330000	31.110252
9.340000	31.110252
9.350000	31.110252
9.360000	31.110252
9.370000	31.110252
9.380000	31.110252
9.390000	31.110252
9.400000	31.110252
9.410000	31.110252
9.420000	31.110252
9.430000	31.110252
9.440000	31.110252
9.450000	31.110252
9.460000	31.110252
9.470000	31.110252
9.480000	31.110252
9.490000	31.110252
9.500000	31.024543
9.510000	31.024543
9.520000	31.024543
9.530000	31.024543
9.540000	31.024543
9.550000	31.024543
9.560000	31.024543
9.570000	31.024543
9.580000	31.024543
9.590000	31.024543
9.600000	31.024543
9.610000	31.024543
9.620000	31.024543
9.630000	31.024543
9.640000	31.024543
9.650000	31.024543
9.660000	31.024543
9.670000	31.024543
9.680000	31.024543
9.690000	31.024543
9.700000	31.024543
9.710000	31.024543
9.720000	31.024543
9.730000	31.024543
9.740000	31.024543
9.750000	31.024543
9.760000	31.024543
9.770000	31.024543
9.780000	31.024543
9.790000	31.024543
9.800000	31.024543
9.810000	31.024543
9.820000	31.024543
9.830000	31.024543
9.840000	31.024543
9.850000	31.024543
9.860000	31.024543
9.870000	31.024543
9.880000	31.024543
9.890000	31.024543
9.900000	31.024543
9.910000	31.024543
9.920000	31.024543
9.930000	31.024543
9.940000	31.024543
9.950000	31.024543
9.960000	31.024543
9.970000	31.024543
9.980000	31.024543
9.990000	31.024543
10.000000	30.928714
10.010000	30.928714
10.020000	30.928714
10.030000	30.928714
10.040000	30.928714
10.050000	30.928714
10.060000	30.928714
10.070000	30.928714
10.080000	30.928714
10.090000	30.928714
10.100000	30.928714
10.110000	30.928714
10.120000	30.928714
10.130000	30.928714
10.140000	30.928714
10.150000	30.928714
10.160000	30.928714
10.170000	30.928714
10.180000	30.928714
10.190000	30.928714
10.200000	30.928714
10.210000	30.928714
10.220000	30.928714
10.230000	30.928714
10.240000	30.928714
10.250000	30.928714
10.260000	30.928714
10.270000	30.928714
10.280000	30.928714
10.290000	30.928714
10.300000	30.928714
10.310000	30.928714
10.320000	30.928714
10.330000	30.928714
10.340000	30.928714
10.350000	30.928714
10.360000	30.928714
10.370000	30.928714
10.380000	30.928714
10.390000	30.928714
10.400000	30.928714
10.410000	30.928714
10.420000	30.928714
10.430000	30.928714
10.440000	30.928714
10.450000	30.928714
10.460000	30.928714
10.470000	30.928714
10.480000	30.928714
10.490000	30.928714
10.500000	30.825923
10.510000	30.825923
10.520000	30.825923
10.530000	30.825923
10.540000	30.825923
10.550000	30.825923
10.560000	30.825923
10.570000	30.825923
10.580000	30.825923
10.590000	30.825923
10.600000	30.825923
10.610000	30.825923
10.620000	30.825923
10.630000	30.825923
10.640000	30.825923
10.650000	30.825923
10.660000	30.825923
10.670000	30.825923
10.680000	30.825923
10.690000	30.825923
10.700000	30.825923
10.710000	30.825923
10.720000	30.825923
10.730000	30.825923
10.740000	30.825923
10.750000	30.825923
10.760000	30.825923
10.770000	30.825923
10.780000	30.825923
10.790000	30.825923
10.800000	30.825923
10.810000	30.825923
10.820000	30.825923
10.830000	30.825923
10.840000	30.825923
10.850000	30.825923
10.860000	30.825923
10.870000	30.825923
10.880000	30.825923
10.890000	30.825923
10.900000	30.825923
10.910000	30.825923
10.920000	30.825923
10.930000	30.825923
10.940000	30.825923
10.950000	30.825923
10.960000	30.825923
10.970000	30.825923
10.980000	30.825923
10.990000	30.825923
11.000000	30.716817
11.010000	30.716817
11.020000	30.716817
11.030000	30.716817
11.040000	30.716817
11.050000	30.716817
11.060000	30.716817
11.070000	30.716817
11.080000	30.716817
11.090000	30.716817
11.100000	30.716817
11.110000	30.716817
11.120000	30.716817
11.130000	30.716817
11.140000	30.716817
11.150000	30.716817
11.160000	30.716817
11.170000	30.716817
11.180000	30.716817
11.190000	30.716817
11.200000	30.716817
11.210000	30.716817
11.220000	30.716817
11.230000	30.716817
11.240000	30.716817
11.250000	30.716817
11.260000	30.716817
11.270000	30.716817
11.280000	30.716817
11.290000	30.716817
11.300000	30.716817
11.310000	30.716817
11.320000	30.716817
11.330000	30.716817
11.340000	30.716817
11.350000	30.716817
11.360000	30.716817
11.370000	30.716817
11.380000	30.716817
11.390000	30.716817
11.400000	30.716817
11.410000	30.716817
11.420000	30.716817
11.430000	30.716817
11.440000	30.716817
11.450000	30.716817
11.460000	30.716817
11.470000	30.716817
11.480000	30.716817
11.490000	30.716817
11.500000	30.604950
11.510000	30.604950
11.520000	30.604950
11.530000	30.604950
11.540000	30.604950
11.550000	30.604950
11.560000	30.604950
11.570000	30.604950
11.580000	30.604950
11.590000	30.604950
11.600000	30.604950
11.610000	30.604950
11.620000	30.604950
11.630000	30.604950
11.640000	30.604950
11.650000	30.604950
11.660000	30.604950
11.670000	30.604950
11.680000	30.604950
11.690000	30.604950
11.700000	30.604950
11.710000	30.604950
11.720000	30.604950
11.730000	30.604950
11.740000	30.604950
11.750000	30.604950
11.760000	30.604950
11.770000	30.604950
11.780000	30.604950
11.790000	30.604950
11.800000	30.604950
11.810000	30.604950
11.820000	30.604950
11.830000	30.604950
11.840000	30.604950
11.850000	30.604950
11.860000	30.604950
11.870000	30.604950
11.880000	30.604950
11.890000	30.604950
11.900000	30.604950
11.910000	30.604950
11.920000	30.604950
11.930000	30.604950
11.940000	30.604950
11.950000	30.604950
11.960000	30.604950
11.970000	30.604950
11.980000	30.604950
11.990000	30.604950
12.000000	30.491973
12.010000	30.491973
12.020000	30.491973
12.030000	30.491973
12.040000	30.491973
12.050000	30.491973
12.060000	30.491973
12.070000	30.491973
12.080000	30.491973
12.090000	30.491973
12.100000	30.491973
12.110000	30.491973
12.120000	30.491973
12.130000	30.491973
12.140000	30.491973
12.150000	30.491973
12.160000	30.491973
12.170000	30.491973
12.180000	30.491973
12.190000	30.491973
12.200000	30.491973
12.210000	30.491973
12.220000	30.491973
12.230000	30.491973
12.240000	30.491973
12.250000	30.491973
12.260000	30.491973
12.270000	30.491973
12.280000	30.491973
12.290000	30.491973
12.300000	30.491973
12.310000	30.491973
12.320000	30.491973
12.330000	30.491973
12.340000	30.491973
12.350000	30.491973
12.360000	30.491973
12.370000	30.491973
12.380000	30.491973
12.390000	30.491973
12.400000	30.491973
12.410000	30.491973
12.420000	30.491973
12.430000	30.491973
12.440000	30.491973
12.450000	30.491973
12.460000	30.491973
12.470000	30.491973
12.480000	30.491973
12.490000	30.491973
12.500000	30.380594
12.510000	30.380594
12.520000	30.380594
12.530000	30.380594
12.540000	30.380594
12.550000	30.380594
12.560000	30.380594
12.570000	30.380594
12.580000	30.380594
12.590000	30.380594
12.600000	30.380594
12.610000	30.380594
12.620000	30.380594
12.630000	30.380594
12.640000	30.380594
12.650000	30.380594
12.660000	30.380594
12.670000	30.380594
12.680000	30.380594
12.690000	30.380594
12.700000	30.380594
12.710000	30.380594
12.720000	30.380594
12.730000	30.380594
12.740000	30.380594
12.750000	30.380594
12.760000	30.380594
12.770000	30.380594
12.780000	30.380594
12.790000	30.380594
12.800000	30.380594
12.810000	30.380594
12.820000	30.380594
12.830000	30.380594
12.840000	30.380594
12.850000	30.380594
12.860000	30.380594
12.870000	30.380594
12.880000	30.380594
12.890000	30.380594
12.900000	30.380594
12.910000	30.380594
12.920000	30.380594
12.930000	30.380594
12.940000	30.380594
12.950000	30.380594
12.960000	30.380594
12.970000	30.380594
12.980000	30.380594
12.990000	30.380594
13.000000	30.269366
13.010000	30.269366
13.020000	30.269366
13.030000	30.269366
13.040000	30.269366
13.050000	30.269366
13.060000	30.269366
13.070000	30.269366
13.080000	30.269366
13.090000	30.269366
13.100000	30.269366
13.110000	30.269366
13.120000	30.269366
13.130000	30.269366
13.140000	30.269366
13.150000	30.269366
13.160000	30.269366
13.170000	30.269366
13.180000	30.269366
13.190000	30.269366
13.200000	30.269366
13.210000	30.269366
13.220000	30.269366
13.230000	30.269366
13.240000	30.269366
13.250000	30.269366
13.260000	30.269366
13.270000	30.269366
13.280000	30.269366
13.290000	30.269366
13.300000	30.269366
13.310000	30.269366
13.320000	30.269366
13.330000	30.269366
13.340000	30.269366
13.350000	30.269366
13.360000	30.269366
13.370000	30.269366
13.380000	30.269366
13.390000	30.269366
13.400000	30.269366
13.410000	30.269366
13.420000	30.269366
13.430000	30.269366
13.440000	30.269366
13.450000	30.269366
13.460000	30.269366
13.470000	30.269366
13.480000	30.269366
13.490000	30.269366
13.500000	30.158251
13.510000	30.158251
13.520000	30.158251
13.530000	30.158251
13.540000	30.158251
13.550000	30.158251
13.560000	30.158251
13.570000	30.158251
13.580000	30.158251
13.590000	30.158251
13.600000	30.158251
13.610000	30.158251
13.620000	30.158251
13.630000	30.158251
13.640000	30.158251
13.650000	30.158251
13.660000	30.158251
13.670000	30.158251
13.680000	30.158251
13.690000	30.158251
13.700000	30.158251
13.710000	30.158251
13.720000	30.158251
13.730000	30.158251
13.740000	30.158251
13.750000	30.158251
13.760000	30.158251
13.770000	30.158251
13.780000	30.158251
13.790000	30.158251
13.800000	30.158251
13.810000	30.158251
13.820000	30.158251
13.830000	30.158251
13.840000	30.158251
13.850000	30.158251
13.860000	30.158251
13.870000	30.158251
13.880000	30.158251
13.890000	30.158251
13.900000	30.158251
13.910000	30.158251
13.920000	30.158251
13.930000	30.158251
13.940000	30.158251
13.950000	30.158251
13.960000	30.158251
13.970000	30.158251
13.980000	30.158251
13.990000	30.158251
14.000000	30.045650
14.010000	30.045650
14.020000	30.045650
14.030000	30.045650
14.040000	30.045650
14.050000	30.045650
14.060000	30.045650
14.070000	30.045650
14.080000	30.045650
14.090000	30.045650
14.100000	30.045650
14.110000	30.045650
14.120000	30.045650
14.130000	30.045650
14.140000	30.045650
14.150000	30.045650
14.160000	30.045650
14.170000	30.045650
14.180000	30.045650
14.190000	30.045650
14.200000	30.045650
14.210000	30.045650
14.220000	30.045650
14.230000	30.045650
14.240000	30.045650
14.250000	30.045650
14.260000	30.045650
14.270000	30.045650
14.280000	30.045650
14.290000	30.045650
14.300000	30.045650
14.310000	30.045650
14.320000	30.045650
14.330000	30.045650
14.340000	30.045650
14.350000	30.045650
14.360000	30.045650
14.370000	30.045650
14.380000	30.045650
14.390000	30.045650
14.400000	30.045650
14.410000	30.045650
14.420000	30.045650
14.430000	30.045650
14.440000	30.045650
14.450000	30.045650
14.460000	30.045650
14.470000	30.045650
14.480000	30.045650
14.490000	30.045650
14.500000	29.932589
14.510000	29.932589
14.520000	29.932589
14.530000	29.932589
14.540000	29.932589
14.550000	29.932589
14.560000	29.932589
14.570000	29.932589
14.580000	29.932589
14.590000	29.932589
14.600000	29.932589
14.610000	29.932589
14.620000	29.932589
14.630000	29.932589
14.640000	29.932589
14.650000	29.932589
14.660000	29.932589
14.670000	29.932589
14.680000	29.932589
14.690000	29.932589
14.700000	29.932589
14.710000	29.932589
14.720000	29.932589
14.730000	29.932589
14.740000	29.932589
14.750000	29.932589
14.760000	29.932589
14.770000	29.932589
14.780000	29.932589
14.790000	29.932589
14.800000	29.932589
14.810000	29.932589
14.820000	29.932589
14.830000	29.932589
14.840000	29.932589
14.850000	29.932589
14.860000	29.932589
14.870000	29.932589
14.880000	29.932589
14.890000	29.932589
14.900000	29.932589
14.910000	29.932589
14.920000	29.932589
14.930000	29.932589
14.940000	29.932589
14.950000	29.932589
14.960000	29.932589
14.970000	29.932589
14.980000	29.932589
14.990000	29.932589
15.000000	29.824893
15.010000	29.824893
15.020000	29.824893
15.030000	29.824893
15.040000	29.824893
15.050000	29.824893
15.060000	29.824893
15.070000	29.824893
15.080000	29.824893
15.090000	29.824893
15.100000	29.824893
15.110000	29.824893
15.120000	29.824893
15.130000	29.824893
15.140000	29.824893
15.150000	29.824893
15.160000	29.824893
15.170000	29.824893
15.180000	29.824893
15.190000	29.824893
15.200000	29.824893
15.210000	29.824893
15.220000	29.824893
15.230000	29.824893
15.240000	29.824893
15.250000	29.824893
15.260000	29.824893
15.270000	29.824893
15.280000	29.824893
15.290000	29.824893
15.300000	29.824893
15.310000	29.824893
15.320000	29.824893
15.330000	29.824893
15.340000	29.824893
15.350000	29.824893
15.360000	29.824893
15.370000	29.824893
15.380000	29.824893
15.390000	29.824893
15.400000	29.824893
15.410000	29.824893
15.420000	29.824893
15.430000	29.824893
15.440000	29.824893
15.450000	29.824893
15.460000	29.824893
15.470000	29.824893
15.480000	29.824893
15.490000	29.824893
15.500000	29.719545
15.510000	29.719545
15.520000	29.719545
15.530000	29.719545
15.540000	29.719545
15.550000	29.719545
15.560000	29.719545
15.570000	29.719545
15.580000	29.719545
15.590000	29.719545
15.600000	29.719545
15.610000	29.719545
15.620000	29.719545
15.630000	29.719545
15.640000	29.719545
15.650000	29.719545
15.660000	29.719545
15.670000	29.719545
15.680000	29.719545
15.690000	29.719545
15.700000	29.719545
15.710000	29.719545
15.720000	29.719545
15.730000	29.719545
15.740000	29.719545
15.750000	29.719545
15.760000	29.719545
15.770000	29.719545
15.780000	29.719545
15.790000	29.719545
15.800000	29.719545
15.810000	29.719545
15.820000	29.719545
15.830000	29.719545
15.840000	29.719545
15.850000	29.719545
15.860000	29.719545
15.870000	29.719545
15.880000	29.719545
15.890000	29.719545
15.900000	29.719545
15.910000	29.719545
15.920000	29.719545
15.930000	29.719545
15.940000	29.719545
15.950000	29.719545
15.960000	29.719545
15.970000	29.719545
15.980000	29.719545
15.990000	29.719545
16.000000	29.614725
16.010000	29.614725
16.020000	29.614725
16.030000	29.614725
16.040000	29.614725
16.050000	29.614725
16.060000	29.614725
16.070000	29.614725
16.080000	29.614725
16.090000	29.614725
16.100000	29.614725
16.110000	29.614725
16.120000	29.614725
16.130000	29.614725
16.140000	29.614725
16.150000	29.614725
16.160000	29.614725
16.170000	29.614725
16.180000	29.614725
16.190000	29.614725
16.200000	29.614725
16.210000	29.614725
16.220000	29.614725
16.230000	29.614725
16.240000	29.614725
16.250000	29.614725
16.260000	29.614725
16.270000	29.614725
16.280000	29.614725
16.290000	29.614725
16.300000	29.614725
16.310000	29.614725
16.320000	29.614725
16.330000	29.614725
16.340000	29.614725
16.350000	29.614725
16.360000	29.614725
16.370000	29.614725
16.380000	29.614725
16.390000	29.614725
16.400000	29.614725
16.410000	29.614725
16.420000	29.614725
16.430000	29.614725
16.440000	29.614725
16.450000	29.614725
16.460000	29.614725
16.470000	29.614725
16.480000	29.614725
16.490000	29.614725
16.500000	29.512739
16.510000	29.512739
16.520000	29.512739
16.530000	29.512739
16.540000	29.512739
16.550000	29.512739
16.560000	29.512739
16.570000	29.512739
16.580000	29.512739
16.590000	29.512739
16.600000	29.512739
16.610000	29.512739
16.620000	29.512739
16.630000	29.512739
16.640000	29.512739
16.650000	29.512739
16.660000	29.512739
16.670000	29.512739
16.680000	29.512739
16.690000	29.512739
16.700000	29.512739
16.710000	29.512739
16.720000	29.512739
16.730000	29.512739
16.740000	29.512739
16.750000	29.512739
16.760000	29.512739
16.770000	29.512739
16.780000	29.512739
16.790000	29.512739
16.800000	29.512739
16.810000	29.512739
16.820000	29.512739
16.830000	29.512739
16.840000	29.512739
16.850000	29.512739
16.860000	29.512739
16.870000	29.512739
16.880000	29.512739
16.890000	29.512739
16.900000	29.512739
16.910000	29.512739
16.920000	29.512739
16.930000	29.512739
16.940000	29.512739
16.950000	29.512739
16.960000	29.512739
16.970000	29.512739
16.980000	29.512739
16.990000	29.512739
17.000000	29.413791
17.010000	29.413791
17.020000	29.413791
17.030000	29.413791
17.040000	29.413791
17.050000	29.413791
17.060000	29.413791
17.070000	29.413791
17.080000	29.413791
17.090000	29.413791
17.100000	29.413791
17.110000	29.413791
17.120000	29.413791
17.130000	29.413791
17.140000	29.413791
17.150000	29.413791
17.160000	29.413791
17.170000	29.413791
17.180000	29.413791
17.190000	29.413791
17.200000	29.413791
17.210000	29.413791
17.220000	29.413791
17.230000	29.413791
17.240000	29.413791
17.250000	29.413791
17.260000	29.413791
17.270000	29.413791
17.280000	29.413791
17.290000	29.413791
17.300000	29.413791
17.310000	29.413791
17.320000	29.413791
17.330000	29.413791
17.340000	29.413791
17.350000	29.413791
17.360000	29.413791
17.370000	29.413791
17.380000	29.413791
17.390000	29.413791
17.400000	29.413791
17.410000	29.413791
17.420000	29.413791
17.430000	29.413791
17.440000	29.413791
17.450000	29.413791
17.460000	29.413791
17.470000	29.413791
17.480000	29.413791
17.490000	29.413791
17.500000	29.319104
17.510000	29.319104
17.520000	29.319104
17.530000	29.319104
17.540000	29.319104
17.550000	29.319104
17.560000	29.319104
17.570000	29.319104
17.580000	29.319104
17.590000	29.319104
17.600000	29.319104
17.610000	29.319104
17.620000	29.319104
17.630000	29.319104
17.640000	29.319104
17.650000	29.319104
17.660000	29.319104
17.670000	29.319104
17.680000	29.319104
17.690000	29.319104
17.700000	29.319104
17.710000	29.319104
17.720000	29.319104
17.730000	29.319104
17.740000	29.319104
17.750000	29.319104
17.760000	29.319104
17.770000	29.319104
17.780000	29.319104
17.790000	29.319104
17.800000	29.319104
17.810000	29.319104
17.820000	29.319104
17.830000	29.319104
17.840000	29.319104
17.850000	29.319104
17.860000	29.319104
17.870000	29.319104
17.880000	29.319104
17.890000	29.319104
17.900000	29.319104
17.910000	29.319104
17.920000	29.319104
17.930000	29.319104
17.940000	29.319104
17.950000	29.319104
17.960000	29.319104
17.970000	29.319104
17.980000	29.319104
17.990000	29.319104
