LabVIEW Measurement	
Writer_Version	2
Reader_Version	2
Separator	Tab
Decimal_Separator	.
Multi_Headings	No
X_Columns	One
Time_Pref	Absolute
Operator	biomech-dyno
Date	2023/05/24
Time	15:19:49.9492761999999796612
***End_of_Header***	
	
Channels	1	
Samples	10	
Date	2023/05/24	
Time	15:47:00.7440619999995681257	
X_Dimension	Time	
X0	0.0000000000000000E+0	
Delta_X	0.010000	
***End_of_Header***		
X_Value	Untitled	Comment
0.000000	24.689933
0.010000	24.689933
0.020000	24.689933
0.030000	24.689933
0.040000	24.689933
0.050000	24.689933
0.060000	24.689933
0.070000	24.689933
0.080000	24.689933
0.090000	24.689933
0.100000	24.689933
0.110000	24.689933
0.120000	24.689933
0.130000	24.689933
0.140000	24.689933
0.150000	24.689933
0.160000	24.689933
0.170000	24.689933
0.180000	24.689933
0.190000	24.689933
0.200000	24.689933
0.210000	24.689933
0.220000	24.689933
0.230000	24.689933
0.240000	24.689933
0.250000	24.689933
0.260000	24.689933
0.270000	24.689933
0.280000	24.689933
0.290000	24.689933
0.300000	24.689933
0.310000	24.689933
0.320000	24.689933
0.330000	24.689933
0.340000	24.689933
0.350000	24.689933
0.360000	24.689933
0.370000	24.689933
0.380000	24.689933
0.390000	24.689933
0.400000	24.689933
0.410000	24.689933
0.420000	24.689933
0.430000	24.689933
0.440000	24.689933
0.450000	24.689933
0.460000	24.689933
0.470000	24.689933
0.480000	24.689933
0.490000	24.689933
0.500000	24.698345
0.510000	24.698345
0.520000	24.698345
0.530000	24.698345
0.540000	24.698345
0.550000	24.698345
0.560000	24.698345
0.570000	24.698345
0.580000	24.698345
0.590000	24.698345
0.600000	24.698345
0.610000	24.698345
0.620000	24.698345
0.630000	24.698345
0.640000	24.698345
0.650000	24.698345
0.660000	24.698345
0.670000	24.698345
0.680000	24.698345
0.690000	24.698345
0.700000	24.698345
0.710000	24.698345
0.720000	24.698345
0.730000	24.698345
0.740000	24.698345
0.750000	24.698345
0.760000	24.698345
0.770000	24.698345
0.780000	24.698345
0.790000	24.698345
0.800000	24.698345
0.810000	24.698345
0.820000	24.698345
0.830000	24.698345
0.840000	24.698345
0.850000	24.698345
0.860000	24.698345
0.870000	24.698345
0.880000	24.698345
0.890000	24.698345
0.900000	24.698345
0.910000	24.698345
0.920000	24.698345
0.930000	24.698345
0.940000	24.698345
0.950000	24.698345
0.960000	24.698345
0.970000	24.698345
0.980000	24.698345
0.990000	24.698345
1.000000	24.768227
1.010000	24.768227
1.020000	24.768227
1.030000	24.768227
1.040000	24.768227
1.050000	24.768227
1.060000	24.768227
1.070000	24.768227
1.080000	24.768227
1.090000	24.768227
1.100000	24.768227
1.110000	24.768227
1.120000	24.768227
1.130000	24.768227
1.140000	24.768227
1.150000	24.768227
1.160000	24.768227
1.170000	24.768227
1.180000	24.768227
1.190000	24.768227
1.200000	24.768227
1.210000	24.768227
1.220000	24.768227
1.230000	24.768227
1.240000	24.768227
1.250000	24.768227
1.260000	24.768227
1.270000	24.768227
1.280000	24.768227
1.290000	24.768227
1.300000	24.768227
1.310000	24.768227
1.320000	24.768227
1.330000	24.768227
1.340000	24.768227
1.350000	24.768227
1.360000	24.768227
1.370000	24.768227
1.380000	24.768227
1.390000	24.768227
1.400000	24.768227
1.410000	24.768227
1.420000	24.768227
1.430000	24.768227
1.440000	24.768227
1.450000	24.768227
1.460000	24.768227
1.470000	24.768227
1.480000	24.768227
1.490000	24.768227
1.500000	24.927837
1.510000	24.927837
1.520000	24.927837
1.530000	24.927837
1.540000	24.927837
1.550000	24.927837
1.560000	24.927837
1.570000	24.927837
1.580000	24.927837
1.590000	24.927837
1.600000	24.927837
1.610000	24.927837
1.620000	24.927837
1.630000	24.927837
1.640000	24.927837
1.650000	24.927837
1.660000	24.927837
1.670000	24.927837
1.680000	24.927837
1.690000	24.927837
1.700000	24.927837
1.710000	24.927837
1.720000	24.927837
1.730000	24.927837
1.740000	24.927837
1.750000	24.927837
1.760000	24.927837
1.770000	24.927837
1.780000	24.927837
1.790000	24.927837
1.800000	24.927837
1.810000	24.927837
1.820000	24.927837
1.830000	24.927837
1.840000	24.927837
1.850000	24.927837
1.860000	24.927837
1.870000	24.927837
1.880000	24.927837
1.890000	24.927837
1.900000	24.927837
1.910000	24.927837
1.920000	24.927837
1.930000	24.927837
1.940000	24.927837
1.950000	24.927837
1.960000	24.927837
1.970000	24.927837
1.980000	24.927837
1.990000	24.927837
2.000000	25.163589
2.010000	25.163589
2.020000	25.163589
2.030000	25.163589
2.040000	25.163589
2.050000	25.163589
2.060000	25.163589
2.070000	25.163589
2.080000	25.163589
2.090000	25.163589
2.100000	25.163589
2.110000	25.163589
2.120000	25.163589
2.130000	25.163589
2.140000	25.163589
2.150000	25.163589
2.160000	25.163589
2.170000	25.163589
2.180000	25.163589
2.190000	25.163589
2.200000	25.163589
2.210000	25.163589
2.220000	25.163589
2.230000	25.163589
2.240000	25.163589
2.250000	25.163589
2.260000	25.163589
2.270000	25.163589
2.280000	25.163589
2.290000	25.163589
2.300000	25.163589
2.310000	25.163589
2.320000	25.163589
2.330000	25.163589
2.340000	25.163589
2.350000	25.163589
2.360000	25.163589
2.370000	25.163589
2.380000	25.163589
2.390000	25.163589
2.400000	25.163589
2.410000	25.163589
2.420000	25.163589
2.430000	25.163589
2.440000	25.163589
2.450000	25.163589
2.460000	25.163589
2.470000	25.163589
2.480000	25.163589
2.490000	25.163589
2.500000	25.454439
2.510000	25.454439
2.520000	25.454439
2.530000	25.454439
2.540000	25.454439
2.550000	25.454439
2.560000	25.454439
2.570000	25.454439
2.580000	25.454439
2.590000	25.454439
2.600000	25.454439
2.610000	25.454439
2.620000	25.454439
2.630000	25.454439
2.640000	25.454439
2.650000	25.454439
2.660000	25.454439
2.670000	25.454439
2.680000	25.454439
2.690000	25.454439
2.700000	25.454439
2.710000	25.454439
2.720000	25.454439
2.730000	25.454439
2.740000	25.454439
2.750000	25.454439
2.760000	25.454439
2.770000	25.454439
2.780000	25.454439
2.790000	25.454439
2.800000	25.454439
2.810000	25.454439
2.820000	25.454439
2.830000	25.454439
2.840000	25.454439
2.850000	25.454439
2.860000	25.454439
2.870000	25.454439
2.880000	25.454439
2.890000	25.454439
2.900000	25.454439
2.910000	25.454439
2.920000	25.454439
2.930000	25.454439
2.940000	25.454439
2.950000	25.454439
2.960000	25.454439
2.970000	25.454439
2.980000	25.454439
2.990000	25.454439
3.000000	25.782384
3.010000	25.782384
3.020000	25.782384
3.030000	25.782384
3.040000	25.782384
3.050000	25.782384
3.060000	25.782384
3.070000	25.782384
3.080000	25.782384
3.090000	25.782384
3.100000	25.782384
3.110000	25.782384
3.120000	25.782384
3.130000	25.782384
3.140000	25.782384
3.150000	25.782384
3.160000	25.782384
3.170000	25.782384
3.180000	25.782384
3.190000	25.782384
3.200000	25.782384
3.210000	25.782384
3.220000	25.782384
3.230000	25.782384
3.240000	25.782384
3.250000	25.782384
3.260000	25.782384
3.270000	25.782384
3.280000	25.782384
3.290000	25.782384
3.300000	25.782384
3.310000	25.782384
3.320000	25.782384
3.330000	25.782384
3.340000	25.782384
3.350000	25.782384
3.360000	25.782384
3.370000	25.782384
3.380000	25.782384
3.390000	25.782384
3.400000	25.782384
3.410000	25.782384
3.420000	25.782384
3.430000	25.782384
3.440000	25.782384
3.450000	25.782384
3.460000	25.782384
3.470000	25.782384
3.480000	25.782384
3.490000	25.782384
3.500000	26.127441
3.510000	26.127441
3.520000	26.127441
3.530000	26.127441
3.540000	26.127441
3.550000	26.127441
3.560000	26.127441
3.570000	26.127441
3.580000	26.127441
3.590000	26.127441
3.600000	26.127441
3.610000	26.127441
3.620000	26.127441
3.630000	26.127441
3.640000	26.127441
3.650000	26.127441
3.660000	26.127441
3.670000	26.127441
3.680000	26.127441
3.690000	26.127441
3.700000	26.127441
3.710000	26.127441
3.720000	26.127441
3.730000	26.127441
3.740000	26.127441
3.750000	26.127441
3.760000	26.127441
3.770000	26.127441
3.780000	26.127441
3.790000	26.127441
3.800000	26.127441
3.810000	26.127441
3.820000	26.127441
3.830000	26.127441
3.840000	26.127441
3.850000	26.127441
3.860000	26.127441
3.870000	26.127441
3.880000	26.127441
3.890000	26.127441
3.900000	26.127441
3.910000	26.127441
3.920000	26.127441
3.930000	26.127441
3.940000	26.127441
3.950000	26.127441
3.960000	26.127441
3.970000	26.127441
3.980000	26.127441
3.990000	26.127441
4.000000	26.422943
4.010000	26.422943
4.020000	26.422943
4.030000	26.422943
4.040000	26.422943
4.050000	26.422943
4.060000	26.422943
4.070000	26.422943
4.080000	26.422943
4.090000	26.422943
4.100000	26.422943
4.110000	26.422943
4.120000	26.422943
4.130000	26.422943
4.140000	26.422943
4.150000	26.422943
4.160000	26.422943
4.170000	26.422943
4.180000	26.422943
4.190000	26.422943
4.200000	26.422943
4.210000	26.422943
4.220000	26.422943
4.230000	26.422943
4.240000	26.422943
4.250000	26.422943
4.260000	26.422943
4.270000	26.422943
4.280000	26.422943
4.290000	26.422943
4.300000	26.422943
4.310000	26.422943
4.320000	26.422943
4.330000	26.422943
4.340000	26.422943
4.350000	26.422943
4.360000	26.422943
4.370000	26.422943
4.380000	26.422943
4.390000	26.422943
4.400000	26.422943
4.410000	26.422943
4.420000	26.422943
4.430000	26.422943
4.440000	26.422943
4.450000	26.422943
4.460000	26.422943
4.470000	26.422943
4.480000	26.422943
4.490000	26.422943
4.500000	26.639942
4.510000	26.639942
4.520000	26.639942
4.530000	26.639942
4.540000	26.639942
4.550000	26.639942
4.560000	26.639942
4.570000	26.639942
4.580000	26.639942
4.590000	26.639942
4.600000	26.639942
4.610000	26.639942
4.620000	26.639942
4.630000	26.639942
4.640000	26.639942
4.650000	26.639942
4.660000	26.639942
4.670000	26.639942
4.680000	26.639942
4.690000	26.639942
4.700000	26.639942
4.710000	26.639942
4.720000	26.639942
4.730000	26.639942
4.740000	26.639942
4.750000	26.639942
4.760000	26.639942
4.770000	26.639942
4.780000	26.639942
4.790000	26.639942
4.800000	26.639942
4.810000	26.639942
4.820000	26.639942
4.830000	26.639942
4.840000	26.639942
4.850000	26.639942
4.860000	26.639942
4.870000	26.639942
4.880000	26.639942
4.890000	26.639942
4.900000	26.639942
4.910000	26.639942
4.920000	26.639942
4.930000	26.639942
4.940000	26.639942
4.950000	26.639942
4.960000	26.639942
4.970000	26.639942
4.980000	26.639942
4.990000	26.639942
5.000000	26.790817
5.010000	26.790817
5.020000	26.790817
5.030000	26.790817
5.040000	26.790817
5.050000	26.790817
5.060000	26.790817
5.070000	26.790817
5.080000	26.790817
5.090000	26.790817
5.100000	26.790817
5.110000	26.790817
5.120000	26.790817
5.130000	26.790817
5.140000	26.790817
5.150000	26.790817
5.160000	26.790817
5.170000	26.790817
5.180000	26.790817
5.190000	26.790817
5.200000	26.790817
5.210000	26.790817
5.220000	26.790817
5.230000	26.790817
5.240000	26.790817
5.250000	26.790817
5.260000	26.790817
5.270000	26.790817
5.280000	26.790817
5.290000	26.790817
5.300000	26.790817
5.310000	26.790817
5.320000	26.790817
5.330000	26.790817
5.340000	26.790817
5.350000	26.790817
5.360000	26.790817
5.370000	26.790817
5.380000	26.790817
5.390000	26.790817
5.400000	26.790817
5.410000	26.790817
5.420000	26.790817
5.430000	26.790817
5.440000	26.790817
5.450000	26.790817
5.460000	26.790817
5.470000	26.790817
5.480000	26.790817
5.490000	26.790817
5.500000	26.899192
5.510000	26.899192
5.520000	26.899192
5.530000	26.899192
5.540000	26.899192
5.550000	26.899192
5.560000	26.899192
5.570000	26.899192
5.580000	26.899192
5.590000	26.899192
5.600000	26.899192
5.610000	26.899192
5.620000	26.899192
5.630000	26.899192
5.640000	26.899192
5.650000	26.899192
5.660000	26.899192
5.670000	26.899192
5.680000	26.899192
5.690000	26.899192
5.700000	26.899192
5.710000	26.899192
5.720000	26.899192
5.730000	26.899192
5.740000	26.899192
5.750000	26.899192
5.760000	26.899192
5.770000	26.899192
5.780000	26.899192
5.790000	26.899192
5.800000	26.899192
5.810000	26.899192
5.820000	26.899192
5.830000	26.899192
5.840000	26.899192
5.850000	26.899192
5.860000	26.899192
5.870000	26.899192
5.880000	26.899192
5.890000	26.899192
5.900000	26.899192
5.910000	26.899192
5.920000	26.899192
5.930000	26.899192
5.940000	26.899192
5.950000	26.899192
5.960000	26.899192
5.970000	26.899192
5.980000	26.899192
5.990000	26.899192
6.000000	26.971114
6.010000	26.971114
6.020000	26.971114
6.030000	26.971114
6.040000	26.971114
6.050000	26.971114
6.060000	26.971114
6.070000	26.971114
6.080000	26.971114
6.090000	26.971114
6.100000	26.971114
6.110000	26.971114
6.120000	26.971114
6.130000	26.971114
6.140000	26.971114
6.150000	26.971114
6.160000	26.971114
6.170000	26.971114
6.180000	26.971114
6.190000	26.971114
6.200000	26.971114
6.210000	26.971114
6.220000	26.971114
6.230000	26.971114
6.240000	26.971114
6.250000	26.971114
6.260000	26.971114
6.270000	26.971114
6.280000	26.971114
6.290000	26.971114
6.300000	26.971114
6.310000	26.971114
6.320000	26.971114
6.330000	26.971114
6.340000	26.971114
6.350000	26.971114
6.360000	26.971114
6.370000	26.971114
6.380000	26.971114
6.390000	26.971114
6.400000	26.971114
6.410000	26.971114
6.420000	26.971114
6.430000	26.971114
6.440000	26.971114
6.450000	26.971114
6.460000	26.971114
6.470000	26.971114
6.480000	26.971114
6.490000	26.971114
6.500000	27.015278
6.510000	27.015278
6.520000	27.015278
6.530000	27.015278
6.540000	27.015278
6.550000	27.015278
6.560000	27.015278
6.570000	27.015278
6.580000	27.015278
6.590000	27.015278
6.600000	27.015278
6.610000	27.015278
6.620000	27.015278
6.630000	27.015278
6.640000	27.015278
6.650000	27.015278
6.660000	27.015278
6.670000	27.015278
6.680000	27.015278
6.690000	27.015278
6.700000	27.015278
6.710000	27.015278
6.720000	27.015278
6.730000	27.015278
6.740000	27.015278
6.750000	27.015278
6.760000	27.015278
6.770000	27.015278
6.780000	27.015278
6.790000	27.015278
6.800000	27.015278
6.810000	27.015278
6.820000	27.015278
6.830000	27.015278
6.840000	27.015278
6.850000	27.015278
6.860000	27.015278
6.870000	27.015278
6.880000	27.015278
6.890000	27.015278
6.900000	27.015278
6.910000	27.015278
6.920000	27.015278
6.930000	27.015278
6.940000	27.015278
6.950000	27.015278
6.960000	27.015278
6.970000	27.015278
6.980000	27.015278
6.990000	27.015278
7.000000	27.035681
7.010000	27.035681
7.020000	27.035681
7.030000	27.035681
7.040000	27.035681
7.050000	27.035681
7.060000	27.035681
7.070000	27.035681
7.080000	27.035681
7.090000	27.035681
7.100000	27.035681
7.110000	27.035681
7.120000	27.035681
7.130000	27.035681
7.140000	27.035681
7.150000	27.035681
7.160000	27.035681
7.170000	27.035681
7.180000	27.035681
7.190000	27.035681
7.200000	27.035681
7.210000	27.035681
7.220000	27.035681
7.230000	27.035681
7.240000	27.035681
7.250000	27.035681
7.260000	27.035681
7.270000	27.035681
7.280000	27.035681
7.290000	27.035681
7.300000	27.035681
7.310000	27.035681
7.320000	27.035681
7.330000	27.035681
7.340000	27.035681
7.350000	27.035681
7.360000	27.035681
7.370000	27.035681
7.380000	27.035681
7.390000	27.035681
7.400000	27.035681
7.410000	27.035681
7.420000	27.035681
7.430000	27.035681
7.440000	27.035681
7.450000	27.035681
7.460000	27.035681
7.470000	27.035681
7.480000	27.035681
7.490000	27.035681
7.500000	27.039963
7.510000	27.039963
7.520000	27.039963
7.530000	27.039963
7.540000	27.039963
7.550000	27.039963
7.560000	27.039963
7.570000	27.039963
7.580000	27.039963
7.590000	27.039963
7.600000	27.039963
7.610000	27.039963
7.620000	27.039963
7.630000	27.039963
7.640000	27.039963
7.650000	27.039963
7.660000	27.039963
7.670000	27.039963
7.680000	27.039963
7.690000	27.039963
7.700000	27.039963
7.710000	27.039963
7.720000	27.039963
7.730000	27.039963
7.740000	27.039963
7.750000	27.039963
7.760000	27.039963
7.770000	27.039963
7.780000	27.039963
7.790000	27.039963
7.800000	27.039963
7.810000	27.039963
7.820000	27.039963
7.830000	27.039963
7.840000	27.039963
7.850000	27.039963
7.860000	27.039963
7.870000	27.039963
7.880000	27.039963
7.890000	27.039963
7.900000	27.039963
7.910000	27.039963
7.920000	27.039963
7.930000	27.039963
7.940000	27.039963
7.950000	27.039963
7.960000	27.039963
7.970000	27.039963
7.980000	27.039963
7.990000	27.039963
8.000000	27.032368
8.010000	27.032368
8.020000	27.032368
8.030000	27.032368
8.040000	27.032368
8.050000	27.032368
8.060000	27.032368
8.070000	27.032368
8.080000	27.032368
8.090000	27.032368
8.100000	27.032368
8.110000	27.032368
8.120000	27.032368
8.130000	27.032368
8.140000	27.032368
8.150000	27.032368
8.160000	27.032368
8.170000	27.032368
8.180000	27.032368
8.190000	27.032368
8.200000	27.032368
8.210000	27.032368
8.220000	27.032368
8.230000	27.032368
8.240000	27.032368
8.250000	27.032368
8.260000	27.032368
8.270000	27.032368
8.280000	27.032368
8.290000	27.032368
8.300000	27.032368
8.310000	27.032368
8.320000	27.032368
8.330000	27.032368
8.340000	27.032368
8.350000	27.032368
8.360000	27.032368
8.370000	27.032368
8.380000	27.032368
8.390000	27.032368
8.400000	27.032368
8.410000	27.032368
8.420000	27.032368
8.430000	27.032368
8.440000	27.032368
8.450000	27.032368
8.460000	27.032368
8.470000	27.032368
8.480000	27.032368
8.490000	27.032368
8.500000	27.015436
8.510000	27.015436
8.520000	27.015436
8.530000	27.015436
8.540000	27.015436
8.550000	27.015436
8.560000	27.015436
8.570000	27.015436
8.580000	27.015436
8.590000	27.015436
8.600000	27.015436
8.610000	27.015436
8.620000	27.015436
8.630000	27.015436
8.640000	27.015436
8.650000	27.015436
8.660000	27.015436
8.670000	27.015436
8.680000	27.015436
8.690000	27.015436
8.700000	27.015436
8.710000	27.015436
8.720000	27.015436
8.730000	27.015436
8.740000	27.015436
8.750000	27.015436
8.760000	27.015436
8.770000	27.015436
8.780000	27.015436
8.790000	27.015436
8.800000	27.015436
8.810000	27.015436
8.820000	27.015436
8.830000	27.015436
8.840000	27.015436
8.850000	27.015436
8.860000	27.015436
8.870000	27.015436
8.880000	27.015436
8.890000	27.015436
8.900000	27.015436
8.910000	27.015436
8.920000	27.015436
8.930000	27.015436
8.940000	27.015436
8.950000	27.015436
8.960000	27.015436
8.970000	27.015436
8.980000	27.015436
8.990000	27.015436
9.000000	26.991427
9.010000	26.991427
9.020000	26.991427
9.030000	26.991427
9.040000	26.991427
9.050000	26.991427
9.060000	26.991427
9.070000	26.991427
9.080000	26.991427
9.090000	26.991427
9.100000	26.991427
9.110000	26.991427
9.120000	26.991427
9.130000	26.991427
9.140000	26.991427
9.150000	26.991427
9.160000	26.991427
9.170000	26.991427
9.180000	26.991427
9.190000	26.991427
9.200000	26.991427
9.210000	26.991427
9.220000	26.991427
9.230000	26.991427
9.240000	26.991427
9.250000	26.991427
9.260000	26.991427
9.270000	26.991427
9.280000	26.991427
9.290000	26.991427
9.300000	26.991427
9.310000	26.991427
9.320000	26.991427
9.330000	26.991427
9.340000	26.991427
9.350000	26.991427
9.360000	26.991427
9.370000	26.991427
9.380000	26.991427
9.390000	26.991427
9.400000	26.991427
9.410000	26.991427
9.420000	26.991427
9.430000	26.991427
9.440000	26.991427
9.450000	26.991427
9.460000	26.991427
9.470000	26.991427
9.480000	26.991427
9.490000	26.991427
9.500000	26.963078
9.510000	26.963078
9.520000	26.963078
9.530000	26.963078
9.540000	26.963078
9.550000	26.963078
9.560000	26.963078
9.570000	26.963078
9.580000	26.963078
9.590000	26.963078
9.600000	26.963078
9.610000	26.963078
9.620000	26.963078
9.630000	26.963078
9.640000	26.963078
9.650000	26.963078
9.660000	26.963078
9.670000	26.963078
9.680000	26.963078
9.690000	26.963078
9.700000	26.963078
9.710000	26.963078
9.720000	26.963078
9.730000	26.963078
9.740000	26.963078
9.750000	26.963078
9.760000	26.963078
9.770000	26.963078
9.780000	26.963078
9.790000	26.963078
9.800000	26.963078
9.810000	26.963078
9.820000	26.963078
9.830000	26.963078
9.840000	26.963078
9.850000	26.963078
9.860000	26.963078
9.870000	26.963078
9.880000	26.963078
9.890000	26.963078
9.900000	26.963078
9.910000	26.963078
9.920000	26.963078
9.930000	26.963078
9.940000	26.963078
9.950000	26.963078
9.960000	26.963078
9.970000	26.963078
9.980000	26.963078
9.990000	26.963078
10.000000	26.930448
10.010000	26.930448
10.020000	26.930448
10.030000	26.930448
10.040000	26.930448
10.050000	26.930448
10.060000	26.930448
10.070000	26.930448
10.080000	26.930448
10.090000	26.930448
10.100000	26.930448
10.110000	26.930448
10.120000	26.930448
10.130000	26.930448
10.140000	26.930448
10.150000	26.930448
10.160000	26.930448
10.170000	26.930448
10.180000	26.930448
10.190000	26.930448
10.200000	26.930448
10.210000	26.930448
10.220000	26.930448
10.230000	26.930448
10.240000	26.930448
10.250000	26.930448
10.260000	26.930448
10.270000	26.930448
10.280000	26.930448
10.290000	26.930448
10.300000	26.930448
10.310000	26.930448
10.320000	26.930448
10.330000	26.930448
10.340000	26.930448
10.350000	26.930448
10.360000	26.930448
10.370000	26.930448
10.380000	26.930448
10.390000	26.930448
10.400000	26.930448
10.410000	26.930448
10.420000	26.930448
10.430000	26.930448
10.440000	26.930448
10.450000	26.930448
10.460000	26.930448
10.470000	26.930448
10.480000	26.930448
10.490000	26.930448
10.500000	26.893669
10.510000	26.893669
10.520000	26.893669
10.530000	26.893669
10.540000	26.893669
10.550000	26.893669
10.560000	26.893669
10.570000	26.893669
10.580000	26.893669
10.590000	26.893669
10.600000	26.893669
10.610000	26.893669
10.620000	26.893669
10.630000	26.893669
10.640000	26.893669
10.650000	26.893669
10.660000	26.893669
10.670000	26.893669
10.680000	26.893669
10.690000	26.893669
10.700000	26.893669
10.710000	26.893669
10.720000	26.893669
10.730000	26.893669
10.740000	26.893669
10.750000	26.893669
10.760000	26.893669
10.770000	26.893669
10.780000	26.893669
10.790000	26.893669
10.800000	26.893669
10.810000	26.893669
10.820000	26.893669
10.830000	26.893669
10.840000	26.893669
10.850000	26.893669
10.860000	26.893669
10.870000	26.893669
10.880000	26.893669
10.890000	26.893669
10.900000	26.893669
10.910000	26.893669
10.920000	26.893669
10.930000	26.893669
10.940000	26.893669
10.950000	26.893669
10.960000	26.893669
10.970000	26.893669
10.980000	26.893669
10.990000	26.893669
11.000000	26.854713
11.010000	26.854713
11.020000	26.854713
11.030000	26.854713
11.040000	26.854713
11.050000	26.854713
11.060000	26.854713
11.070000	26.854713
11.080000	26.854713
11.090000	26.854713
11.100000	26.854713
11.110000	26.854713
11.120000	26.854713
11.130000	26.854713
11.140000	26.854713
11.150000	26.854713
11.160000	26.854713
11.170000	26.854713
11.180000	26.854713
11.190000	26.854713
11.200000	26.854713
11.210000	26.854713
11.220000	26.854713
11.230000	26.854713
11.240000	26.854713
11.250000	26.854713
11.260000	26.854713
11.270000	26.854713
11.280000	26.854713
11.290000	26.854713
11.300000	26.854713
11.310000	26.854713
11.320000	26.854713
11.330000	26.854713
11.340000	26.854713
11.350000	26.854713
11.360000	26.854713
11.370000	26.854713
11.380000	26.854713
11.390000	26.854713
11.400000	26.854713
11.410000	26.854713
11.420000	26.854713
11.430000	26.854713
11.440000	26.854713
11.450000	26.854713
11.460000	26.854713
11.470000	26.854713
11.480000	26.854713
11.490000	26.854713
11.500000	26.814637
11.510000	26.814637
11.520000	26.814637
11.530000	26.814637
11.540000	26.814637
11.550000	26.814637
11.560000	26.814637
11.570000	26.814637
11.580000	26.814637
11.590000	26.814637
11.600000	26.814637
11.610000	26.814637
11.620000	26.814637
11.630000	26.814637
11.640000	26.814637
11.650000	26.814637
11.660000	26.814637
11.670000	26.814637
11.680000	26.814637
11.690000	26.814637
11.700000	26.814637
11.710000	26.814637
11.720000	26.814637
11.730000	26.814637
11.740000	26.814637
11.750000	26.814637
11.760000	26.814637
11.770000	26.814637
11.780000	26.814637
11.790000	26.814637
11.800000	26.814637
11.810000	26.814637
11.820000	26.814637
11.830000	26.814637
11.840000	26.814637
11.850000	26.814637
11.860000	26.814637
11.870000	26.814637
11.880000	26.814637
11.890000	26.814637
11.900000	26.814637
11.910000	26.814637
11.920000	26.814637
11.930000	26.814637
11.940000	26.814637
11.950000	26.814637
11.960000	26.814637
11.970000	26.814637
11.980000	26.814637
11.990000	26.814637
12.000000	26.773947
12.010000	26.773947
12.020000	26.773947
12.030000	26.773947
12.040000	26.773947
12.050000	26.773947
12.060000	26.773947
12.070000	26.773947
12.080000	26.773947
12.090000	26.773947
12.100000	26.773947
12.110000	26.773947
12.120000	26.773947
12.130000	26.773947
12.140000	26.773947
12.150000	26.773947
12.160000	26.773947
12.170000	26.773947
12.180000	26.773947
12.190000	26.773947
12.200000	26.773947
12.210000	26.773947
12.220000	26.773947
12.230000	26.773947
12.240000	26.773947
12.250000	26.773947
12.260000	26.773947
12.270000	26.773947
12.280000	26.773947
12.290000	26.773947
12.300000	26.773947
12.310000	26.773947
12.320000	26.773947
12.330000	26.773947
12.340000	26.773947
12.350000	26.773947
12.360000	26.773947
12.370000	26.773947
12.380000	26.773947
12.390000	26.773947
12.400000	26.773947
12.410000	26.773947
12.420000	26.773947
12.430000	26.773947
12.440000	26.773947
12.450000	26.773947
12.460000	26.773947
12.470000	26.773947
12.480000	26.773947
12.490000	26.773947
12.500000	26.732525
12.510000	26.732525
12.520000	26.732525
12.530000	26.732525
12.540000	26.732525
12.550000	26.732525
12.560000	26.732525
12.570000	26.732525
12.580000	26.732525
12.590000	26.732525
12.600000	26.732525
12.610000	26.732525
12.620000	26.732525
12.630000	26.732525
12.640000	26.732525
12.650000	26.732525
12.660000	26.732525
12.670000	26.732525
12.680000	26.732525
12.690000	26.732525
12.700000	26.732525
12.710000	26.732525
12.720000	26.732525
12.730000	26.732525
12.740000	26.732525
12.750000	26.732525
12.760000	26.732525
12.770000	26.732525
12.780000	26.732525
12.790000	26.732525
12.800000	26.732525
12.810000	26.732525
12.820000	26.732525
12.830000	26.732525
12.840000	26.732525
12.850000	26.732525
12.860000	26.732525
12.870000	26.732525
12.880000	26.732525
12.890000	26.732525
12.900000	26.732525
12.910000	26.732525
12.920000	26.732525
12.930000	26.732525
12.940000	26.732525
12.950000	26.732525
12.960000	26.732525
12.970000	26.732525
12.980000	26.732525
12.990000	26.732525
13.000000	26.690803
13.010000	26.690803
13.020000	26.690803
13.030000	26.690803
13.040000	26.690803
13.050000	26.690803
13.060000	26.690803
13.070000	26.690803
13.080000	26.690803
13.090000	26.690803
13.100000	26.690803
13.110000	26.690803
13.120000	26.690803
13.130000	26.690803
13.140000	26.690803
13.150000	26.690803
13.160000	26.690803
13.170000	26.690803
13.180000	26.690803
13.190000	26.690803
13.200000	26.690803
13.210000	26.690803
13.220000	26.690803
13.230000	26.690803
13.240000	26.690803
13.250000	26.690803
13.260000	26.690803
13.270000	26.690803
13.280000	26.690803
13.290000	26.690803
13.300000	26.690803
13.310000	26.690803
13.320000	26.690803
13.330000	26.690803
13.340000	26.690803
13.350000	26.690803
13.360000	26.690803
13.370000	26.690803
13.380000	26.690803
13.390000	26.690803
13.400000	26.690803
13.410000	26.690803
13.420000	26.690803
13.430000	26.690803
13.440000	26.690803
13.450000	26.690803
13.460000	26.690803
13.470000	26.690803
13.480000	26.690803
13.490000	26.690803
13.500000	26.649473
13.510000	26.649473
13.520000	26.649473
13.530000	26.649473
13.540000	26.649473
13.550000	26.649473
13.560000	26.649473
13.570000	26.649473
13.580000	26.649473
13.590000	26.649473
13.600000	26.649473
13.610000	26.649473
13.620000	26.649473
13.630000	26.649473
13.640000	26.649473
13.650000	26.649473
13.660000	26.649473
13.670000	26.649473
13.680000	26.649473
13.690000	26.649473
13.700000	26.649473
13.710000	26.649473
13.720000	26.649473
13.730000	26.649473
13.740000	26.649473
13.750000	26.649473
13.760000	26.649473
13.770000	26.649473
13.780000	26.649473
13.790000	26.649473
13.800000	26.649473
13.810000	26.649473
13.820000	26.649473
13.830000	26.649473
13.840000	26.649473
13.850000	26.649473
13.860000	26.649473
13.870000	26.649473
13.880000	26.649473
13.890000	26.649473
13.900000	26.649473
13.910000	26.649473
13.920000	26.649473
13.930000	26.649473
13.940000	26.649473
13.950000	26.649473
13.960000	26.649473
13.970000	26.649473
13.980000	26.649473
13.990000	26.649473
14.000000	26.608067
14.010000	26.608067
14.020000	26.608067
14.030000	26.608067
14.040000	26.608067
14.050000	26.608067
14.060000	26.608067
14.070000	26.608067
14.080000	26.608067
14.090000	26.608067
14.100000	26.608067
14.110000	26.608067
14.120000	26.608067
14.130000	26.608067
14.140000	26.608067
14.150000	26.608067
14.160000	26.608067
14.170000	26.608067
14.180000	26.608067
14.190000	26.608067
14.200000	26.608067
14.210000	26.608067
14.220000	26.608067
14.230000	26.608067
14.240000	26.608067
14.250000	26.608067
14.260000	26.608067
14.270000	26.608067
14.280000	26.608067
14.290000	26.608067
14.300000	26.608067
14.310000	26.608067
14.320000	26.608067
14.330000	26.608067
14.340000	26.608067
14.350000	26.608067
14.360000	26.608067
14.370000	26.608067
14.380000	26.608067
14.390000	26.608067
14.400000	26.608067
14.410000	26.608067
14.420000	26.608067
14.430000	26.608067
14.440000	26.608067
14.450000	26.608067
14.460000	26.608067
14.470000	26.608067
14.480000	26.608067
14.490000	26.608067
14.500000	26.567673
14.510000	26.567673
14.520000	26.567673
14.530000	26.567673
14.540000	26.567673
14.550000	26.567673
14.560000	26.567673
14.570000	26.567673
14.580000	26.567673
14.590000	26.567673
14.600000	26.567673
14.610000	26.567673
14.620000	26.567673
14.630000	26.567673
14.640000	26.567673
14.650000	26.567673
14.660000	26.567673
14.670000	26.567673
14.680000	26.567673
14.690000	26.567673
14.700000	26.567673
14.710000	26.567673
14.720000	26.567673
14.730000	26.567673
14.740000	26.567673
14.750000	26.567673
14.760000	26.567673
14.770000	26.567673
14.780000	26.567673
14.790000	26.567673
14.800000	26.567673
14.810000	26.567673
14.820000	26.567673
14.830000	26.567673
14.840000	26.567673
14.850000	26.567673
14.860000	26.567673
14.870000	26.567673
14.880000	26.567673
14.890000	26.567673
14.900000	26.567673
14.910000	26.567673
14.920000	26.567673
14.930000	26.567673
14.940000	26.567673
14.950000	26.567673
14.960000	26.567673
14.970000	26.567673
14.980000	26.567673
14.990000	26.567673
15.000000	26.527648
15.010000	26.527648
15.020000	26.527648
15.030000	26.527648
15.040000	26.527648
15.050000	26.527648
15.060000	26.527648
15.070000	26.527648
15.080000	26.527648
15.090000	26.527648
15.100000	26.527648
15.110000	26.527648
15.120000	26.527648
15.130000	26.527648
15.140000	26.527648
15.150000	26.527648
15.160000	26.527648
15.170000	26.527648
15.180000	26.527648
15.190000	26.527648
15.200000	26.527648
15.210000	26.527648
15.220000	26.527648
15.230000	26.527648
15.240000	26.527648
15.250000	26.527648
15.260000	26.527648
15.270000	26.527648
15.280000	26.527648
15.290000	26.527648
15.300000	26.527648
15.310000	26.527648
15.320000	26.527648
15.330000	26.527648
15.340000	26.527648
15.350000	26.527648
15.360000	26.527648
15.370000	26.527648
15.380000	26.527648
15.390000	26.527648
15.400000	26.527648
15.410000	26.527648
15.420000	26.527648
15.430000	26.527648
15.440000	26.527648
15.450000	26.527648
15.460000	26.527648
15.470000	26.527648
15.480000	26.527648
15.490000	26.527648
15.500000	26.488512
15.510000	26.488512
15.520000	26.488512
15.530000	26.488512
15.540000	26.488512
15.550000	26.488512
15.560000	26.488512
15.570000	26.488512
15.580000	26.488512
15.590000	26.488512
15.600000	26.488512
15.610000	26.488512
15.620000	26.488512
15.630000	26.488512
15.640000	26.488512
15.650000	26.488512
15.660000	26.488512
15.670000	26.488512
15.680000	26.488512
15.690000	26.488512
15.700000	26.488512
15.710000	26.488512
15.720000	26.488512
15.730000	26.488512
15.740000	26.488512
15.750000	26.488512
15.760000	26.488512
15.770000	26.488512
15.780000	26.488512
15.790000	26.488512
15.800000	26.488512
15.810000	26.488512
15.820000	26.488512
15.830000	26.488512
15.840000	26.488512
15.850000	26.488512
15.860000	26.488512
15.870000	26.488512
15.880000	26.488512
15.890000	26.488512
15.900000	26.488512
15.910000	26.488512
15.920000	26.488512
15.930000	26.488512
15.940000	26.488512
15.950000	26.488512
15.960000	26.488512
15.970000	26.488512
15.980000	26.488512
15.990000	26.488512
16.000000	26.449942
16.010000	26.449942
16.020000	26.449942
16.030000	26.449942
16.040000	26.449942
16.050000	26.449942
16.060000	26.449942
16.070000	26.449942
16.080000	26.449942
16.090000	26.449942
16.100000	26.449942
16.110000	26.449942
16.120000	26.449942
16.130000	26.449942
16.140000	26.449942
16.150000	26.449942
16.160000	26.449942
16.170000	26.449942
16.180000	26.449942
16.190000	26.449942
16.200000	26.449942
16.210000	26.449942
16.220000	26.449942
16.230000	26.449942
16.240000	26.449942
16.250000	26.449942
16.260000	26.449942
16.270000	26.449942
16.280000	26.449942
16.290000	26.449942
16.300000	26.449942
16.310000	26.449942
16.320000	26.449942
16.330000	26.449942
16.340000	26.449942
16.350000	26.449942
16.360000	26.449942
16.370000	26.449942
16.380000	26.449942
16.390000	26.449942
16.400000	26.449942
16.410000	26.449942
16.420000	26.449942
16.430000	26.449942
16.440000	26.449942
16.450000	26.449942
16.460000	26.449942
16.470000	26.449942
16.480000	26.449942
16.490000	26.449942
16.500000	26.412012
16.510000	26.412012
16.520000	26.412012
16.530000	26.412012
16.540000	26.412012
16.550000	26.412012
16.560000	26.412012
16.570000	26.412012
16.580000	26.412012
16.590000	26.412012
16.600000	26.412012
16.610000	26.412012
16.620000	26.412012
16.630000	26.412012
16.640000	26.412012
16.650000	26.412012
16.660000	26.412012
16.670000	26.412012
16.680000	26.412012
16.690000	26.412012
16.700000	26.412012
16.710000	26.412012
16.720000	26.412012
16.730000	26.412012
16.740000	26.412012
16.750000	26.412012
16.760000	26.412012
16.770000	26.412012
16.780000	26.412012
16.790000	26.412012
16.800000	26.412012
16.810000	26.412012
16.820000	26.412012
16.830000	26.412012
16.840000	26.412012
16.850000	26.412012
16.860000	26.412012
16.870000	26.412012
16.880000	26.412012
16.890000	26.412012
16.900000	26.412012
16.910000	26.412012
16.920000	26.412012
16.930000	26.412012
16.940000	26.412012
16.950000	26.412012
16.960000	26.412012
16.970000	26.412012
16.980000	26.412012
16.990000	26.412012
17.000000	26.374566
17.010000	26.374566
17.020000	26.374566
17.030000	26.374566
17.040000	26.374566
17.050000	26.374566
17.060000	26.374566
17.070000	26.374566
17.080000	26.374566
17.090000	26.374566
17.100000	26.374566
17.110000	26.374566
17.120000	26.374566
17.130000	26.374566
17.140000	26.374566
17.150000	26.374566
17.160000	26.374566
17.170000	26.374566
17.180000	26.374566
17.190000	26.374566
17.200000	26.374566
17.210000	26.374566
17.220000	26.374566
17.230000	26.374566
17.240000	26.374566
17.250000	26.374566
17.260000	26.374566
17.270000	26.374566
17.280000	26.374566
17.290000	26.374566
17.300000	26.374566
17.310000	26.374566
17.320000	26.374566
17.330000	26.374566
17.340000	26.374566
17.350000	26.374566
17.360000	26.374566
17.370000	26.374566
17.380000	26.374566
17.390000	26.374566
17.400000	26.374566
17.410000	26.374566
17.420000	26.374566
17.430000	26.374566
17.440000	26.374566
17.450000	26.374566
17.460000	26.374566
17.470000	26.374566
17.480000	26.374566
17.490000	26.374566
17.500000	26.338327
17.510000	26.338327
17.520000	26.338327
17.530000	26.338327
17.540000	26.338327
17.550000	26.338327
17.560000	26.338327
17.570000	26.338327
17.580000	26.338327
17.590000	26.338327
17.600000	26.338327
17.610000	26.338327
17.620000	26.338327
17.630000	26.338327
17.640000	26.338327
17.650000	26.338327
17.660000	26.338327
17.670000	26.338327
17.680000	26.338327
17.690000	26.338327
17.700000	26.338327
17.710000	26.338327
17.720000	26.338327
17.730000	26.338327
17.740000	26.338327
17.750000	26.338327
17.760000	26.338327
17.770000	26.338327
17.780000	26.338327
17.790000	26.338327
17.800000	26.338327
17.810000	26.338327
17.820000	26.338327
17.830000	26.338327
17.840000	26.338327
17.850000	26.338327
17.860000	26.338327
17.870000	26.338327
17.880000	26.338327
17.890000	26.338327
17.900000	26.338327
17.910000	26.338327
17.920000	26.338327
17.930000	26.338327
17.940000	26.338327
17.950000	26.338327
17.960000	26.338327
17.970000	26.338327
17.980000	26.338327
17.990000	26.338327
