LabVIEW Measurement	
Writer_Version	2
Reader_Version	2
Separator	Tab
Decimal_Separator	.
Multi_Headings	No
X_Columns	One
Time_Pref	Absolute
Operator	biomech-dyno
Date	2023/05/24
Time	15:19:49.9492761999999796612
***End_of_Header***	
	
Channels	1	
Samples	10	
Date	2023/05/24	
Time	15:56:50.1960968999998518588	
X_Dimension	Time	
X0	0.0000000000000000E+0	
Delta_X	0.010000	
***End_of_Header***		
X_Value	Untitled	Comment
0.000000	25.171979
0.010000	25.171979
0.020000	25.171979
0.030000	25.171979
0.040000	25.171979
0.050000	25.171979
0.060000	25.171979
0.070000	25.171979
0.080000	25.171979
0.090000	25.171979
0.100000	25.171979
0.110000	25.171979
0.120000	25.171979
0.130000	25.171979
0.140000	25.171979
0.150000	25.171979
0.160000	25.171979
0.170000	25.171979
0.180000	25.171979
0.190000	25.171979
0.200000	25.171979
0.210000	25.171979
0.220000	25.171979
0.230000	25.171979
0.240000	25.171979
0.250000	25.171979
0.260000	25.171979
0.270000	25.171979
0.280000	25.171979
0.290000	25.171979
0.300000	25.171979
0.310000	25.171979
0.320000	25.171979
0.330000	25.171979
0.340000	25.171979
0.350000	25.171979
0.360000	25.171979
0.370000	25.171979
0.380000	25.171979
0.390000	25.171979
0.400000	25.171979
0.410000	25.171979
0.420000	25.171979
0.430000	25.171979
0.440000	25.171979
0.450000	25.171979
0.460000	25.171979
0.470000	25.171979
0.480000	25.171979
0.490000	25.171979
0.500000	25.185412
0.510000	25.185412
0.520000	25.185412
0.530000	25.185412
0.540000	25.185412
0.550000	25.185412
0.560000	25.185412
0.570000	25.185412
0.580000	25.185412
0.590000	25.185412
0.600000	25.185412
0.610000	25.185412
0.620000	25.185412
0.630000	25.185412
0.640000	25.185412
0.650000	25.185412
0.660000	25.185412
0.670000	25.185412
0.680000	25.185412
0.690000	25.185412
0.700000	25.185412
0.710000	25.185412
0.720000	25.185412
0.730000	25.185412
0.740000	25.185412
0.750000	25.185412
0.760000	25.185412
0.770000	25.185412
0.780000	25.185412
0.790000	25.185412
0.800000	25.185412
0.810000	25.185412
0.820000	25.185412
0.830000	25.185412
0.840000	25.185412
0.850000	25.185412
0.860000	25.185412
0.870000	25.185412
0.880000	25.185412
0.890000	25.185412
0.900000	25.185412
0.910000	25.185412
0.920000	25.185412
0.930000	25.185412
0.940000	25.185412
0.950000	25.185412
0.960000	25.185412
0.970000	25.185412
0.980000	25.185412
0.990000	25.185412
1.000000	25.197055
1.010000	25.197055
1.020000	25.197055
1.030000	25.197055
1.040000	25.197055
1.050000	25.197055
1.060000	25.197055
1.070000	25.197055
1.080000	25.197055
1.090000	25.197055
1.100000	25.197055
1.110000	25.197055
1.120000	25.197055
1.130000	25.197055
1.140000	25.197055
1.150000	25.197055
1.160000	25.197055
1.170000	25.197055
1.180000	25.197055
1.190000	25.197055
1.200000	25.197055
1.210000	25.197055
1.220000	25.197055
1.230000	25.197055
1.240000	25.197055
1.250000	25.197055
1.260000	25.197055
1.270000	25.197055
1.280000	25.197055
1.290000	25.197055
1.300000	25.197055
1.310000	25.197055
1.320000	25.197055
1.330000	25.197055
1.340000	25.197055
1.350000	25.197055
1.360000	25.197055
1.370000	25.197055
1.380000	25.197055
1.390000	25.197055
1.400000	25.197055
1.410000	25.197055
1.420000	25.197055
1.430000	25.197055
1.440000	25.197055
1.450000	25.197055
1.460000	25.197055
1.470000	25.197055
1.480000	25.197055
1.490000	25.197055
1.500000	25.207175
1.510000	25.207175
1.520000	25.207175
1.530000	25.207175
1.540000	25.207175
1.550000	25.207175
1.560000	25.207175
1.570000	25.207175
1.580000	25.207175
1.590000	25.207175
1.600000	25.207175
1.610000	25.207175
1.620000	25.207175
1.630000	25.207175
1.640000	25.207175
1.650000	25.207175
1.660000	25.207175
1.670000	25.207175
1.680000	25.207175
1.690000	25.207175
1.700000	25.207175
1.710000	25.207175
1.720000	25.207175
1.730000	25.207175
1.740000	25.207175
1.750000	25.207175
1.760000	25.207175
1.770000	25.207175
1.780000	25.207175
1.790000	25.207175
1.800000	25.207175
1.810000	25.207175
1.820000	25.207175
1.830000	25.207175
1.840000	25.207175
1.850000	25.207175
1.860000	25.207175
1.870000	25.207175
1.880000	25.207175
1.890000	25.207175
1.900000	25.207175
1.910000	25.207175
1.920000	25.207175
1.930000	25.207175
1.940000	25.207175
1.950000	25.207175
1.960000	25.207175
1.970000	25.207175
1.980000	25.207175
1.990000	25.207175
2.000000	25.215677
2.010000	25.215677
2.020000	25.215677
2.030000	25.215677
2.040000	25.215677
2.050000	25.215677
2.060000	25.215677
2.070000	25.215677
2.080000	25.215677
2.090000	25.215677
2.100000	25.215677
2.110000	25.215677
2.120000	25.215677
2.130000	25.215677
2.140000	25.215677
2.150000	25.215677
2.160000	25.215677
2.170000	25.215677
2.180000	25.215677
2.190000	25.215677
2.200000	25.215677
2.210000	25.215677
2.220000	25.215677
2.230000	25.215677
2.240000	25.215677
2.250000	25.215677
2.260000	25.215677
2.270000	25.215677
2.280000	25.215677
2.290000	25.215677
2.300000	25.215677
2.310000	25.215677
2.320000	25.215677
2.330000	25.215677
2.340000	25.215677
2.350000	25.215677
2.360000	25.215677
2.370000	25.215677
2.380000	25.215677
2.390000	25.215677
2.400000	25.215677
2.410000	25.215677
2.420000	25.215677
2.430000	25.215677
2.440000	25.215677
2.450000	25.215677
2.460000	25.215677
2.470000	25.215677
2.480000	25.215677
2.490000	25.215677
2.500000	25.224703
2.510000	25.224703
2.520000	25.224703
2.530000	25.224703
2.540000	25.224703
2.550000	25.224703
2.560000	25.224703
2.570000	25.224703
2.580000	25.224703
2.590000	25.224703
2.600000	25.224703
2.610000	25.224703
2.620000	25.224703
2.630000	25.224703
2.640000	25.224703
2.650000	25.224703
2.660000	25.224703
2.670000	25.224703
2.680000	25.224703
2.690000	25.224703
2.700000	25.224703
2.710000	25.224703
2.720000	25.224703
2.730000	25.224703
2.740000	25.224703
2.750000	25.224703
2.760000	25.224703
2.770000	25.224703
2.780000	25.224703
2.790000	25.224703
2.800000	25.224703
2.810000	25.224703
2.820000	25.224703
2.830000	25.224703
2.840000	25.224703
2.850000	25.224703
2.860000	25.224703
2.870000	25.224703
2.880000	25.224703
2.890000	25.224703
2.900000	25.224703
2.910000	25.224703
2.920000	25.224703
2.930000	25.224703
2.940000	25.224703
2.950000	25.224703
2.960000	25.224703
2.970000	25.224703
2.980000	25.224703
2.990000	25.224703
3.000000	25.236628
3.010000	25.236628
3.020000	25.236628
3.030000	25.236628
3.040000	25.236628
3.050000	25.236628
3.060000	25.236628
3.070000	25.236628
3.080000	25.236628
3.090000	25.236628
3.100000	25.236628
3.110000	25.236628
3.120000	25.236628
3.130000	25.236628
3.140000	25.236628
3.150000	25.236628
3.160000	25.236628
3.170000	25.236628
3.180000	25.236628
3.190000	25.236628
3.200000	25.236628
3.210000	25.236628
3.220000	25.236628
3.230000	25.236628
3.240000	25.236628
3.250000	25.236628
3.260000	25.236628
3.270000	25.236628
3.280000	25.236628
3.290000	25.236628
3.300000	25.236628
3.310000	25.236628
3.320000	25.236628
3.330000	25.236628
3.340000	25.236628
3.350000	25.236628
3.360000	25.236628
3.370000	25.236628
3.380000	25.236628
3.390000	25.236628
3.400000	25.236628
3.410000	25.236628
3.420000	25.236628
3.430000	25.236628
3.440000	25.236628
3.450000	25.236628
3.460000	25.236628
3.470000	25.236628
3.480000	25.236628
3.490000	25.236628
3.500000	25.247005
3.510000	25.247005
3.520000	25.247005
3.530000	25.247005
3.540000	25.247005
3.550000	25.247005
3.560000	25.247005
3.570000	25.247005
3.580000	25.247005
3.590000	25.247005
3.600000	25.247005
3.610000	25.247005
3.620000	25.247005
3.630000	25.247005
3.640000	25.247005
3.650000	25.247005
3.660000	25.247005
3.670000	25.247005
3.680000	25.247005
3.690000	25.247005
3.700000	25.247005
3.710000	25.247005
3.720000	25.247005
3.730000	25.247005
3.740000	25.247005
3.750000	25.247005
3.760000	25.247005
3.770000	25.247005
3.780000	25.247005
3.790000	25.247005
3.800000	25.247005
3.810000	25.247005
3.820000	25.247005
3.830000	25.247005
3.840000	25.247005
3.850000	25.247005
3.860000	25.247005
3.870000	25.247005
3.880000	25.247005
3.890000	25.247005
3.900000	25.247005
3.910000	25.247005
3.920000	25.247005
3.930000	25.247005
3.940000	25.247005
3.950000	25.247005
3.960000	25.247005
3.970000	25.247005
3.980000	25.247005
3.990000	25.247005
4.000000	25.253270
4.010000	25.253270
4.020000	25.253270
4.030000	25.253270
4.040000	25.253270
4.050000	25.253270
4.060000	25.253270
4.070000	25.253270
4.080000	25.253270
4.090000	25.253270
4.100000	25.253270
4.110000	25.253270
4.120000	25.253270
4.130000	25.253270
4.140000	25.253270
4.150000	25.253270
4.160000	25.253270
4.170000	25.253270
4.180000	25.253270
4.190000	25.253270
4.200000	25.253270
4.210000	25.253270
4.220000	25.253270
4.230000	25.253270
4.240000	25.253270
4.250000	25.253270
4.260000	25.253270
4.270000	25.253270
4.280000	25.253270
4.290000	25.253270
4.300000	25.253270
4.310000	25.253270
4.320000	25.253270
4.330000	25.253270
4.340000	25.253270
4.350000	25.253270
4.360000	25.253270
4.370000	25.253270
4.380000	25.253270
4.390000	25.253270
4.400000	25.253270
4.410000	25.253270
4.420000	25.253270
4.430000	25.253270
4.440000	25.253270
4.450000	25.253270
4.460000	25.253270
4.470000	25.253270
4.480000	25.253270
4.490000	25.253270
4.500000	25.262125
4.510000	25.262125
4.520000	25.262125
4.530000	25.262125
4.540000	25.262125
4.550000	25.262125
4.560000	25.262125
4.570000	25.262125
4.580000	25.262125
4.590000	25.262125
4.600000	25.262125
4.610000	25.262125
4.620000	25.262125
4.630000	25.262125
4.640000	25.262125
4.650000	25.262125
4.660000	25.262125
4.670000	25.262125
4.680000	25.262125
4.690000	25.262125
4.700000	25.262125
4.710000	25.262125
4.720000	25.262125
4.730000	25.262125
4.740000	25.262125
4.750000	25.262125
4.760000	25.262125
4.770000	25.262125
4.780000	25.262125
4.790000	25.262125
4.800000	25.262125
4.810000	25.262125
4.820000	25.262125
4.830000	25.262125
4.840000	25.262125
4.850000	25.262125
4.860000	25.262125
4.870000	25.262125
4.880000	25.262125
4.890000	25.262125
4.900000	25.262125
4.910000	25.262125
4.920000	25.262125
4.930000	25.262125
4.940000	25.262125
4.950000	25.262125
4.960000	25.262125
4.970000	25.262125
4.980000	25.262125
4.990000	25.262125
5.000000	25.272548
5.010000	25.272548
5.020000	25.272548
5.030000	25.272548
5.040000	25.272548
5.050000	25.272548
5.060000	25.272548
5.070000	25.272548
5.080000	25.272548
5.090000	25.272548
5.100000	25.272548
5.110000	25.272548
5.120000	25.272548
5.130000	25.272548
5.140000	25.272548
5.150000	25.272548
5.160000	25.272548
5.170000	25.272548
5.180000	25.272548
5.190000	25.272548
5.200000	25.272548
5.210000	25.272548
5.220000	25.272548
5.230000	25.272548
5.240000	25.272548
5.250000	25.272548
5.260000	25.272548
5.270000	25.272548
5.280000	25.272548
5.290000	25.272548
5.300000	25.272548
5.310000	25.272548
5.320000	25.272548
5.330000	25.272548
5.340000	25.272548
5.350000	25.272548
5.360000	25.272548
5.370000	25.272548
5.380000	25.272548
5.390000	25.272548
5.400000	25.272548
5.410000	25.272548
5.420000	25.272548
5.430000	25.272548
5.440000	25.272548
5.450000	25.272548
5.460000	25.272548
5.470000	25.272548
5.480000	25.272548
5.490000	25.272548
5.500000	25.282198
5.510000	25.282198
5.520000	25.282198
5.530000	25.282198
5.540000	25.282198
5.550000	25.282198
5.560000	25.282198
5.570000	25.282198
5.580000	25.282198
5.590000	25.282198
5.600000	25.282198
5.610000	25.282198
5.620000	25.282198
5.630000	25.282198
5.640000	25.282198
5.650000	25.282198
5.660000	25.282198
5.670000	25.282198
5.680000	25.282198
5.690000	25.282198
5.700000	25.282198
5.710000	25.282198
5.720000	25.282198
5.730000	25.282198
5.740000	25.282198
5.750000	25.282198
5.760000	25.282198
5.770000	25.282198
5.780000	25.282198
5.790000	25.282198
5.800000	25.282198
5.810000	25.282198
5.820000	25.282198
5.830000	25.282198
5.840000	25.282198
5.850000	25.282198
5.860000	25.282198
5.870000	25.282198
5.880000	25.282198
5.890000	25.282198
5.900000	25.282198
5.910000	25.282198
5.920000	25.282198
5.930000	25.282198
5.940000	25.282198
5.950000	25.282198
5.960000	25.282198
5.970000	25.282198
5.980000	25.282198
5.990000	25.282198
6.000000	25.291202
6.010000	25.291202
6.020000	25.291202
6.030000	25.291202
6.040000	25.291202
6.050000	25.291202
6.060000	25.291202
6.070000	25.291202
6.080000	25.291202
6.090000	25.291202
6.100000	25.291202
6.110000	25.291202
6.120000	25.291202
6.130000	25.291202
6.140000	25.291202
6.150000	25.291202
6.160000	25.291202
6.170000	25.291202
6.180000	25.291202
6.190000	25.291202
6.200000	25.291202
6.210000	25.291202
6.220000	25.291202
6.230000	25.291202
6.240000	25.291202
6.250000	25.291202
6.260000	25.291202
6.270000	25.291202
6.280000	25.291202
6.290000	25.291202
6.300000	25.291202
6.310000	25.291202
6.320000	25.291202
6.330000	25.291202
6.340000	25.291202
6.350000	25.291202
6.360000	25.291202
6.370000	25.291202
6.380000	25.291202
6.390000	25.291202
6.400000	25.291202
6.410000	25.291202
6.420000	25.291202
6.430000	25.291202
6.440000	25.291202
6.450000	25.291202
6.460000	25.291202
6.470000	25.291202
6.480000	25.291202
6.490000	25.291202
6.500000	25.298704
6.510000	25.298704
6.520000	25.298704
6.530000	25.298704
6.540000	25.298704
6.550000	25.298704
6.560000	25.298704
6.570000	25.298704
6.580000	25.298704
6.590000	25.298704
6.600000	25.298704
6.610000	25.298704
6.620000	25.298704
6.630000	25.298704
6.640000	25.298704
6.650000	25.298704
6.660000	25.298704
6.670000	25.298704
6.680000	25.298704
6.690000	25.298704
6.700000	25.298704
6.710000	25.298704
6.720000	25.298704
6.730000	25.298704
6.740000	25.298704
6.750000	25.298704
6.760000	25.298704
6.770000	25.298704
6.780000	25.298704
6.790000	25.298704
6.800000	25.298704
6.810000	25.298704
6.820000	25.298704
6.830000	25.298704
6.840000	25.298704
6.850000	25.298704
6.860000	25.298704
6.870000	25.298704
6.880000	25.298704
6.890000	25.298704
6.900000	25.298704
6.910000	25.298704
6.920000	25.298704
6.930000	25.298704
6.940000	25.298704
6.950000	25.298704
6.960000	25.298704
6.970000	25.298704
6.980000	25.298704
6.990000	25.298704
7.000000	25.305279
7.010000	25.305279
7.020000	25.305279
7.030000	25.305279
7.040000	25.305279
7.050000	25.305279
7.060000	25.305279
7.070000	25.305279
7.080000	25.305279
7.090000	25.305279
7.100000	25.305279
7.110000	25.305279
7.120000	25.305279
7.130000	25.305279
7.140000	25.305279
7.150000	25.305279
7.160000	25.305279
7.170000	25.305279
7.180000	25.305279
7.190000	25.305279
7.200000	25.305279
7.210000	25.305279
7.220000	25.305279
7.230000	25.305279
7.240000	25.305279
7.250000	25.305279
7.260000	25.305279
7.270000	25.305279
7.280000	25.305279
7.290000	25.305279
7.300000	25.305279
7.310000	25.305279
7.320000	25.305279
7.330000	25.305279
7.340000	25.305279
7.350000	25.305279
7.360000	25.305279
7.370000	25.305279
7.380000	25.305279
7.390000	25.305279
7.400000	25.305279
7.410000	25.305279
7.420000	25.305279
7.430000	25.305279
7.440000	25.305279
7.450000	25.305279
7.460000	25.305279
7.470000	25.305279
7.480000	25.305279
7.490000	25.305279
7.500000	25.311340
7.510000	25.311340
7.520000	25.311340
7.530000	25.311340
7.540000	25.311340
7.550000	25.311340
7.560000	25.311340
7.570000	25.311340
7.580000	25.311340
7.590000	25.311340
7.600000	25.311340
7.610000	25.311340
7.620000	25.311340
7.630000	25.311340
7.640000	25.311340
7.650000	25.311340
7.660000	25.311340
7.670000	25.311340
7.680000	25.311340
7.690000	25.311340
7.700000	25.311340
7.710000	25.311340
7.720000	25.311340
7.730000	25.311340
7.740000	25.311340
7.750000	25.311340
7.760000	25.311340
7.770000	25.311340
7.780000	25.311340
7.790000	25.311340
7.800000	25.311340
7.810000	25.311340
7.820000	25.311340
7.830000	25.311340
7.840000	25.311340
7.850000	25.311340
7.860000	25.311340
7.870000	25.311340
7.880000	25.311340
7.890000	25.311340
7.900000	25.311340
7.910000	25.311340
7.920000	25.311340
7.930000	25.311340
7.940000	25.311340
7.950000	25.311340
7.960000	25.311340
7.970000	25.311340
7.980000	25.311340
7.990000	25.311340
8.000000	25.317296
8.010000	25.317296
8.020000	25.317296
8.030000	25.317296
8.040000	25.317296
8.050000	25.317296
8.060000	25.317296
8.070000	25.317296
8.080000	25.317296
8.090000	25.317296
8.100000	25.317296
8.110000	25.317296
8.120000	25.317296
8.130000	25.317296
8.140000	25.317296
8.150000	25.317296
8.160000	25.317296
8.170000	25.317296
8.180000	25.317296
8.190000	25.317296
8.200000	25.317296
8.210000	25.317296
8.220000	25.317296
8.230000	25.317296
8.240000	25.317296
8.250000	25.317296
8.260000	25.317296
8.270000	25.317296
8.280000	25.317296
8.290000	25.317296
8.300000	25.317296
8.310000	25.317296
8.320000	25.317296
8.330000	25.317296
8.340000	25.317296
8.350000	25.317296
8.360000	25.317296
8.370000	25.317296
8.380000	25.317296
8.390000	25.317296
8.400000	25.317296
8.410000	25.317296
8.420000	25.317296
8.430000	25.317296
8.440000	25.317296
8.450000	25.317296
8.460000	25.317296
8.470000	25.317296
8.480000	25.317296
8.490000	25.317296
8.500000	25.322404
8.510000	25.322404
8.520000	25.322404
8.530000	25.322404
8.540000	25.322404
8.550000	25.322404
8.560000	25.322404
8.570000	25.322404
8.580000	25.322404
8.590000	25.322404
8.600000	25.322404
8.610000	25.322404
8.620000	25.322404
8.630000	25.322404
8.640000	25.322404
8.650000	25.322404
8.660000	25.322404
8.670000	25.322404
8.680000	25.322404
8.690000	25.322404
8.700000	25.322404
8.710000	25.322404
8.720000	25.322404
8.730000	25.322404
8.740000	25.322404
8.750000	25.322404
8.760000	25.322404
8.770000	25.322404
8.780000	25.322404
8.790000	25.322404
8.800000	25.322404
8.810000	25.322404
8.820000	25.322404
8.830000	25.322404
8.840000	25.322404
8.850000	25.322404
8.860000	25.322404
8.870000	25.322404
8.880000	25.322404
8.890000	25.322404
8.900000	25.322404
8.910000	25.322404
8.920000	25.322404
8.930000	25.322404
8.940000	25.322404
8.950000	25.322404
8.960000	25.322404
8.970000	25.322404
8.980000	25.322404
8.990000	25.322404
9.000000	25.326388
9.010000	25.326388
9.020000	25.326388
9.030000	25.326388
9.040000	25.326388
9.050000	25.326388
9.060000	25.326388
9.070000	25.326388
9.080000	25.326388
9.090000	25.326388
9.100000	25.326388
9.110000	25.326388
9.120000	25.326388
9.130000	25.326388
9.140000	25.326388
9.150000	25.326388
9.160000	25.326388
9.170000	25.326388
9.180000	25.326388
9.190000	25.326388
9.200000	25.326388
9.210000	25.326388
9.220000	25.326388
9.230000	25.326388
9.240000	25.326388
9.250000	25.326388
9.260000	25.326388
9.270000	25.326388
9.280000	25.326388
9.290000	25.326388
9.300000	25.326388
9.310000	25.326388
9.320000	25.326388
9.330000	25.326388
9.340000	25.326388
9.350000	25.326388
9.360000	25.326388
9.370000	25.326388
9.380000	25.326388
9.390000	25.326388
9.400000	25.326388
9.410000	25.326388
9.420000	25.326388
9.430000	25.326388
9.440000	25.326388
9.450000	25.326388
9.460000	25.326388
9.470000	25.326388
9.480000	25.326388
9.490000	25.326388
9.500000	25.329498
9.510000	25.329498
9.520000	25.329498
9.530000	25.329498
9.540000	25.329498
9.550000	25.329498
9.560000	25.329498
9.570000	25.329498
9.580000	25.329498
9.590000	25.329498
9.600000	25.329498
9.610000	25.329498
9.620000	25.329498
9.630000	25.329498
9.640000	25.329498
9.650000	25.329498
9.660000	25.329498
9.670000	25.329498
9.680000	25.329498
9.690000	25.329498
9.700000	25.329498
9.710000	25.329498
9.720000	25.329498
9.730000	25.329498
9.740000	25.329498
9.750000	25.329498
9.760000	25.329498
9.770000	25.329498
9.780000	25.329498
9.790000	25.329498
9.800000	25.329498
9.810000	25.329498
9.820000	25.329498
9.830000	25.329498
9.840000	25.329498
9.850000	25.329498
9.860000	25.329498
9.870000	25.329498
9.880000	25.329498
9.890000	25.329498
9.900000	25.329498
9.910000	25.329498
9.920000	25.329498
9.930000	25.329498
9.940000	25.329498
9.950000	25.329498
9.960000	25.329498
9.970000	25.329498
9.980000	25.329498
9.990000	25.329498
10.000000	25.331837
10.010000	25.331837
10.020000	25.331837
10.030000	25.331837
10.040000	25.331837
10.050000	25.331837
10.060000	25.331837
10.070000	25.331837
10.080000	25.331837
10.090000	25.331837
10.100000	25.331837
10.110000	25.331837
10.120000	25.331837
10.130000	25.331837
10.140000	25.331837
10.150000	25.331837
10.160000	25.331837
10.170000	25.331837
10.180000	25.331837
10.190000	25.331837
10.200000	25.331837
10.210000	25.331837
10.220000	25.331837
10.230000	25.331837
10.240000	25.331837
10.250000	25.331837
10.260000	25.331837
10.270000	25.331837
10.280000	25.331837
10.290000	25.331837
10.300000	25.331837
10.310000	25.331837
10.320000	25.331837
10.330000	25.331837
10.340000	25.331837
10.350000	25.331837
10.360000	25.331837
10.370000	25.331837
10.380000	25.331837
10.390000	25.331837
10.400000	25.331837
10.410000	25.331837
10.420000	25.331837
10.430000	25.331837
10.440000	25.331837
10.450000	25.331837
10.460000	25.331837
10.470000	25.331837
10.480000	25.331837
10.490000	25.331837
10.500000	25.333577
10.510000	25.333577
10.520000	25.333577
10.530000	25.333577
10.540000	25.333577
10.550000	25.333577
10.560000	25.333577
10.570000	25.333577
10.580000	25.333577
10.590000	25.333577
10.600000	25.333577
10.610000	25.333577
10.620000	25.333577
10.630000	25.333577
10.640000	25.333577
10.650000	25.333577
10.660000	25.333577
10.670000	25.333577
10.680000	25.333577
10.690000	25.333577
10.700000	25.333577
10.710000	25.333577
10.720000	25.333577
10.730000	25.333577
10.740000	25.333577
10.750000	25.333577
10.760000	25.333577
10.770000	25.333577
10.780000	25.333577
10.790000	25.333577
10.800000	25.333577
10.810000	25.333577
10.820000	25.333577
10.830000	25.333577
10.840000	25.333577
10.850000	25.333577
10.860000	25.333577
10.870000	25.333577
10.880000	25.333577
10.890000	25.333577
10.900000	25.333577
10.910000	25.333577
10.920000	25.333577
10.930000	25.333577
10.940000	25.333577
10.950000	25.333577
10.960000	25.333577
10.970000	25.333577
10.980000	25.333577
10.990000	25.333577
11.000000	25.335436
11.010000	25.335436
11.020000	25.335436
11.030000	25.335436
11.040000	25.335436
11.050000	25.335436
11.060000	25.335436
11.070000	25.335436
11.080000	25.335436
11.090000	25.335436
11.100000	25.335436
11.110000	25.335436
11.120000	25.335436
11.130000	25.335436
11.140000	25.335436
11.150000	25.335436
11.160000	25.335436
11.170000	25.335436
11.180000	25.335436
11.190000	25.335436
11.200000	25.335436
11.210000	25.335436
11.220000	25.335436
11.230000	25.335436
11.240000	25.335436
11.250000	25.335436
11.260000	25.335436
11.270000	25.335436
11.280000	25.335436
11.290000	25.335436
11.300000	25.335436
11.310000	25.335436
11.320000	25.335436
11.330000	25.335436
11.340000	25.335436
11.350000	25.335436
11.360000	25.335436
11.370000	25.335436
11.380000	25.335436
11.390000	25.335436
11.400000	25.335436
11.410000	25.335436
11.420000	25.335436
11.430000	25.335436
11.440000	25.335436
11.450000	25.335436
11.460000	25.335436
11.470000	25.335436
11.480000	25.335436
11.490000	25.335436
11.500000	25.336121
11.510000	25.336121
11.520000	25.336121
11.530000	25.336121
11.540000	25.336121
11.550000	25.336121
11.560000	25.336121
11.570000	25.336121
11.580000	25.336121
11.590000	25.336121
11.600000	25.336121
11.610000	25.336121
11.620000	25.336121
11.630000	25.336121
11.640000	25.336121
11.650000	25.336121
11.660000	25.336121
11.670000	25.336121
11.680000	25.336121
11.690000	25.336121
11.700000	25.336121
11.710000	25.336121
11.720000	25.336121
11.730000	25.336121
11.740000	25.336121
11.750000	25.336121
11.760000	25.336121
11.770000	25.336121
11.780000	25.336121
11.790000	25.336121
11.800000	25.336121
11.810000	25.336121
11.820000	25.336121
11.830000	25.336121
11.840000	25.336121
11.850000	25.336121
11.860000	25.336121
11.870000	25.336121
11.880000	25.336121
11.890000	25.336121
11.900000	25.336121
11.910000	25.336121
11.920000	25.336121
11.930000	25.336121
11.940000	25.336121
11.950000	25.336121
11.960000	25.336121
11.970000	25.336121
11.980000	25.336121
11.990000	25.336121
12.000000	25.335616
12.010000	25.335616
12.020000	25.335616
12.030000	25.335616
12.040000	25.335616
12.050000	25.335616
12.060000	25.335616
12.070000	25.335616
12.080000	25.335616
12.090000	25.335616
12.100000	25.335616
12.110000	25.335616
12.120000	25.335616
12.130000	25.335616
12.140000	25.335616
12.150000	25.335616
12.160000	25.335616
12.170000	25.335616
12.180000	25.335616
12.190000	25.335616
12.200000	25.335616
12.210000	25.335616
12.220000	25.335616
12.230000	25.335616
12.240000	25.335616
12.250000	25.335616
12.260000	25.335616
12.270000	25.335616
12.280000	25.335616
12.290000	25.335616
12.300000	25.335616
12.310000	25.335616
12.320000	25.335616
12.330000	25.335616
12.340000	25.335616
12.350000	25.335616
12.360000	25.335616
12.370000	25.335616
12.380000	25.335616
12.390000	25.335616
12.400000	25.335616
12.410000	25.335616
12.420000	25.335616
12.430000	25.335616
12.440000	25.335616
12.450000	25.335616
12.460000	25.335616
12.470000	25.335616
12.480000	25.335616
12.490000	25.335616
12.500000	25.335016
12.510000	25.335016
12.520000	25.335016
12.530000	25.335016
12.540000	25.335016
12.550000	25.335016
12.560000	25.335016
12.570000	25.335016
12.580000	25.335016
12.590000	25.335016
12.600000	25.335016
12.610000	25.335016
12.620000	25.335016
12.630000	25.335016
12.640000	25.335016
12.650000	25.335016
12.660000	25.335016
12.670000	25.335016
12.680000	25.335016
12.690000	25.335016
12.700000	25.335016
12.710000	25.335016
12.720000	25.335016
12.730000	25.335016
12.740000	25.335016
12.750000	25.335016
12.760000	25.335016
12.770000	25.335016
12.780000	25.335016
12.790000	25.335016
12.800000	25.335016
12.810000	25.335016
12.820000	25.335016
12.830000	25.335016
12.840000	25.335016
12.850000	25.335016
12.860000	25.335016
12.870000	25.335016
12.880000	25.335016
12.890000	25.335016
12.900000	25.335016
12.910000	25.335016
12.920000	25.335016
12.930000	25.335016
12.940000	25.335016
12.950000	25.335016
12.960000	25.335016
12.970000	25.335016
12.980000	25.335016
12.990000	25.335016
13.000000	25.333354
13.010000	25.333354
13.020000	25.333354
13.030000	25.333354
13.040000	25.333354
13.050000	25.333354
13.060000	25.333354
13.070000	25.333354
13.080000	25.333354
13.090000	25.333354
13.100000	25.333354
13.110000	25.333354
13.120000	25.333354
13.130000	25.333354
13.140000	25.333354
13.150000	25.333354
13.160000	25.333354
13.170000	25.333354
13.180000	25.333354
13.190000	25.333354
13.200000	25.333354
13.210000	25.333354
13.220000	25.333354
13.230000	25.333354
13.240000	25.333354
13.250000	25.333354
13.260000	25.333354
13.270000	25.333354
13.280000	25.333354
13.290000	25.333354
13.300000	25.333354
13.310000	25.333354
13.320000	25.333354
13.330000	25.333354
13.340000	25.333354
13.350000	25.333354
13.360000	25.333354
13.370000	25.333354
13.380000	25.333354
13.390000	25.333354
13.400000	25.333354
13.410000	25.333354
13.420000	25.333354
13.430000	25.333354
13.440000	25.333354
13.450000	25.333354
13.460000	25.333354
13.470000	25.333354
13.480000	25.333354
13.490000	25.333354
13.500000	25.331315
13.510000	25.331315
13.520000	25.331315
13.530000	25.331315
13.540000	25.331315
13.550000	25.331315
13.560000	25.331315
13.570000	25.331315
13.580000	25.331315
13.590000	25.331315
13.600000	25.331315
13.610000	25.331315
13.620000	25.331315
13.630000	25.331315
13.640000	25.331315
13.650000	25.331315
13.660000	25.331315
13.670000	25.331315
13.680000	25.331315
13.690000	25.331315
13.700000	25.331315
13.710000	25.331315
13.720000	25.331315
13.730000	25.331315
13.740000	25.331315
13.750000	25.331315
13.760000	25.331315
13.770000	25.331315
13.780000	25.331315
13.790000	25.331315
13.800000	25.331315
13.810000	25.331315
13.820000	25.331315
13.830000	25.331315
13.840000	25.331315
13.850000	25.331315
13.860000	25.331315
13.870000	25.331315
13.880000	25.331315
13.890000	25.331315
13.900000	25.331315
13.910000	25.331315
13.920000	25.331315
13.930000	25.331315
13.940000	25.331315
13.950000	25.331315
13.960000	25.331315
13.970000	25.331315
13.980000	25.331315
13.990000	25.331315
14.000000	25.329456
14.010000	25.329456
14.020000	25.329456
14.030000	25.329456
14.040000	25.329456
14.050000	25.329456
14.060000	25.329456
14.070000	25.329456
14.080000	25.329456
14.090000	25.329456
14.100000	25.329456
14.110000	25.329456
14.120000	25.329456
14.130000	25.329456
14.140000	25.329456
14.150000	25.329456
14.160000	25.329456
14.170000	25.329456
14.180000	25.329456
14.190000	25.329456
14.200000	25.329456
14.210000	25.329456
14.220000	25.329456
14.230000	25.329456
14.240000	25.329456
14.250000	25.329456
14.260000	25.329456
14.270000	25.329456
14.280000	25.329456
14.290000	25.329456
14.300000	25.329456
14.310000	25.329456
14.320000	25.329456
14.330000	25.329456
14.340000	25.329456
14.350000	25.329456
14.360000	25.329456
14.370000	25.329456
14.380000	25.329456
14.390000	25.329456
14.400000	25.329456
14.410000	25.329456
14.420000	25.329456
14.430000	25.329456
14.440000	25.329456
14.450000	25.329456
14.460000	25.329456
14.470000	25.329456
14.480000	25.329456
14.490000	25.329456
14.500000	25.327434
14.510000	25.327434
14.520000	25.327434
14.530000	25.327434
14.540000	25.327434
14.550000	25.327434
14.560000	25.327434
14.570000	25.327434
14.580000	25.327434
14.590000	25.327434
14.600000	25.327434
14.610000	25.327434
14.620000	25.327434
14.630000	25.327434
14.640000	25.327434
14.650000	25.327434
14.660000	25.327434
14.670000	25.327434
14.680000	25.327434
14.690000	25.327434
14.700000	25.327434
14.710000	25.327434
14.720000	25.327434
14.730000	25.327434
14.740000	25.327434
14.750000	25.327434
14.760000	25.327434
14.770000	25.327434
14.780000	25.327434
14.790000	25.327434
14.800000	25.327434
14.810000	25.327434
14.820000	25.327434
14.830000	25.327434
14.840000	25.327434
14.850000	25.327434
14.860000	25.327434
14.870000	25.327434
14.880000	25.327434
14.890000	25.327434
14.900000	25.327434
14.910000	25.327434
14.920000	25.327434
14.930000	25.327434
14.940000	25.327434
14.950000	25.327434
14.960000	25.327434
14.970000	25.327434
14.980000	25.327434
14.990000	25.327434
15.000000	25.325566
15.010000	25.325566
15.020000	25.325566
15.030000	25.325566
15.040000	25.325566
15.050000	25.325566
15.060000	25.325566
15.070000	25.325566
15.080000	25.325566
15.090000	25.325566
15.100000	25.325566
15.110000	25.325566
15.120000	25.325566
15.130000	25.325566
15.140000	25.325566
15.150000	25.325566
15.160000	25.325566
15.170000	25.325566
15.180000	25.325566
15.190000	25.325566
15.200000	25.325566
15.210000	25.325566
15.220000	25.325566
15.230000	25.325566
15.240000	25.325566
15.250000	25.325566
15.260000	25.325566
15.270000	25.325566
15.280000	25.325566
15.290000	25.325566
15.300000	25.325566
15.310000	25.325566
15.320000	25.325566
15.330000	25.325566
15.340000	25.325566
15.350000	25.325566
15.360000	25.325566
15.370000	25.325566
15.380000	25.325566
15.390000	25.325566
15.400000	25.325566
15.410000	25.325566
15.420000	25.325566
15.430000	25.325566
15.440000	25.325566
15.450000	25.325566
15.460000	25.325566
15.470000	25.325566
15.480000	25.325566
15.490000	25.325566
15.500000	25.323218
15.510000	25.323218
15.520000	25.323218
15.530000	25.323218
15.540000	25.323218
15.550000	25.323218
15.560000	25.323218
15.570000	25.323218
15.580000	25.323218
15.590000	25.323218
15.600000	25.323218
15.610000	25.323218
15.620000	25.323218
15.630000	25.323218
15.640000	25.323218
15.650000	25.323218
15.660000	25.323218
15.670000	25.323218
15.680000	25.323218
15.690000	25.323218
15.700000	25.323218
15.710000	25.323218
15.720000	25.323218
15.730000	25.323218
15.740000	25.323218
15.750000	25.323218
15.760000	25.323218
15.770000	25.323218
15.780000	25.323218
15.790000	25.323218
15.800000	25.323218
15.810000	25.323218
15.820000	25.323218
15.830000	25.323218
15.840000	25.323218
15.850000	25.323218
15.860000	25.323218
15.870000	25.323218
15.880000	25.323218
15.890000	25.323218
15.900000	25.323218
15.910000	25.323218
15.920000	25.323218
15.930000	25.323218
15.940000	25.323218
15.950000	25.323218
15.960000	25.323218
15.970000	25.323218
15.980000	25.323218
15.990000	25.323218
16.000000	25.320270
16.010000	25.320270
16.020000	25.320270
16.030000	25.320270
16.040000	25.320270
16.050000	25.320270
16.060000	25.320270
16.070000	25.320270
16.080000	25.320270
16.090000	25.320270
16.100000	25.320270
16.110000	25.320270
16.120000	25.320270
16.130000	25.320270
16.140000	25.320270
16.150000	25.320270
16.160000	25.320270
16.170000	25.320270
16.180000	25.320270
16.190000	25.320270
16.200000	25.320270
16.210000	25.320270
16.220000	25.320270
16.230000	25.320270
16.240000	25.320270
16.250000	25.320270
16.260000	25.320270
16.270000	25.320270
16.280000	25.320270
16.290000	25.320270
16.300000	25.320270
16.310000	25.320270
16.320000	25.320270
16.330000	25.320270
16.340000	25.320270
16.350000	25.320270
16.360000	25.320270
16.370000	25.320270
16.380000	25.320270
16.390000	25.320270
16.400000	25.320270
16.410000	25.320270
16.420000	25.320270
16.430000	25.320270
16.440000	25.320270
16.450000	25.320270
16.460000	25.320270
16.470000	25.320270
16.480000	25.320270
16.490000	25.320270
16.500000	25.317168
16.510000	25.317168
16.520000	25.317168
16.530000	25.317168
16.540000	25.317168
16.550000	25.317168
16.560000	25.317168
16.570000	25.317168
16.580000	25.317168
16.590000	25.317168
16.600000	25.317168
16.610000	25.317168
16.620000	25.317168
16.630000	25.317168
16.640000	25.317168
16.650000	25.317168
16.660000	25.317168
16.670000	25.317168
16.680000	25.317168
16.690000	25.317168
16.700000	25.317168
16.710000	25.317168
16.720000	25.317168
16.730000	25.317168
16.740000	25.317168
16.750000	25.317168
16.760000	25.317168
16.770000	25.317168
16.780000	25.317168
16.790000	25.317168
16.800000	25.317168
16.810000	25.317168
16.820000	25.317168
16.830000	25.317168
16.840000	25.317168
16.850000	25.317168
16.860000	25.317168
16.870000	25.317168
16.880000	25.317168
16.890000	25.317168
16.900000	25.317168
16.910000	25.317168
16.920000	25.317168
16.930000	25.317168
16.940000	25.317168
16.950000	25.317168
16.960000	25.317168
16.970000	25.317168
16.980000	25.317168
16.990000	25.317168
17.000000	25.313002
17.010000	25.313002
17.020000	25.313002
17.030000	25.313002
17.040000	25.313002
17.050000	25.313002
17.060000	25.313002
17.070000	25.313002
17.080000	25.313002
17.090000	25.313002
17.100000	25.313002
17.110000	25.313002
17.120000	25.313002
17.130000	25.313002
17.140000	25.313002
17.150000	25.313002
17.160000	25.313002
17.170000	25.313002
17.180000	25.313002
17.190000	25.313002
17.200000	25.313002
17.210000	25.313002
17.220000	25.313002
17.230000	25.313002
17.240000	25.313002
17.250000	25.313002
17.260000	25.313002
17.270000	25.313002
17.280000	25.313002
17.290000	25.313002
17.300000	25.313002
17.310000	25.313002
17.320000	25.313002
17.330000	25.313002
17.340000	25.313002
17.350000	25.313002
17.360000	25.313002
17.370000	25.313002
17.380000	25.313002
17.390000	25.313002
17.400000	25.313002
17.410000	25.313002
17.420000	25.313002
17.430000	25.313002
17.440000	25.313002
17.450000	25.313002
17.460000	25.313002
17.470000	25.313002
17.480000	25.313002
17.490000	25.313002
17.500000	25.309660
17.510000	25.309660
17.520000	25.309660
17.530000	25.309660
17.540000	25.309660
17.550000	25.309660
17.560000	25.309660
17.570000	25.309660
17.580000	25.309660
17.590000	25.309660
17.600000	25.309660
17.610000	25.309660
17.620000	25.309660
17.630000	25.309660
17.640000	25.309660
17.650000	25.309660
17.660000	25.309660
17.670000	25.309660
17.680000	25.309660
17.690000	25.309660
17.700000	25.309660
17.710000	25.309660
17.720000	25.309660
17.730000	25.309660
17.740000	25.309660
17.750000	25.309660
17.760000	25.309660
17.770000	25.309660
17.780000	25.309660
17.790000	25.309660
17.800000	25.309660
17.810000	25.309660
17.820000	25.309660
17.830000	25.309660
17.840000	25.309660
17.850000	25.309660
17.860000	25.309660
17.870000	25.309660
17.880000	25.309660
17.890000	25.309660
17.900000	25.309660
17.910000	25.309660
17.920000	25.309660
17.930000	25.309660
17.940000	25.309660
17.950000	25.309660
17.960000	25.309660
17.970000	25.309660
17.980000	25.309660
17.990000	25.309660
