LabVIEW Measurement	
Writer_Version	2
Reader_Version	2
Separator	Tab
Decimal_Separator	.
Multi_Headings	No
X_Columns	One
Time_Pref	Absolute
Operator	biomech-dyno
Date	2023/05/24
Time	15:19:49.9492761999999796612
***End_of_Header***	
	
Channels	1	
Samples	10	
Date	2023/05/24	
Time	15:57:59.4171329999997374077	
X_Dimension	Time	
X0	0.0000000000000000E+0	
Delta_X	0.010000	
***End_of_Header***		
X_Value	Untitled	Comment
0.000000	24.739874
0.010000	24.739874
0.020000	24.739874
0.030000	24.739874
0.040000	24.739874
0.050000	24.739874
0.060000	24.739874
0.070000	24.739874
0.080000	24.739874
0.090000	24.739874
0.100000	24.739874
0.110000	24.739874
0.120000	24.739874
0.130000	24.739874
0.140000	24.739874
0.150000	24.739874
0.160000	24.739874
0.170000	24.739874
0.180000	24.739874
0.190000	24.739874
0.200000	24.739874
0.210000	24.739874
0.220000	24.739874
0.230000	24.739874
0.240000	24.739874
0.250000	24.739874
0.260000	24.739874
0.270000	24.739874
0.280000	24.739874
0.290000	24.739874
0.300000	24.739874
0.310000	24.739874
0.320000	24.739874
0.330000	24.739874
0.340000	24.739874
0.350000	24.739874
0.360000	24.739874
0.370000	24.739874
0.380000	24.739874
0.390000	24.739874
0.400000	24.739874
0.410000	24.739874
0.420000	24.739874
0.430000	24.739874
0.440000	24.739874
0.450000	24.739874
0.460000	24.739874
0.470000	24.739874
0.480000	24.739874
0.490000	24.739874
0.500000	24.744219
0.510000	24.744219
0.520000	24.744219
0.530000	24.744219
0.540000	24.744219
0.550000	24.744219
0.560000	24.744219
0.570000	24.744219
0.580000	24.744219
0.590000	24.744219
0.600000	24.744219
0.610000	24.744219
0.620000	24.744219
0.630000	24.744219
0.640000	24.744219
0.650000	24.744219
0.660000	24.744219
0.670000	24.744219
0.680000	24.744219
0.690000	24.744219
0.700000	24.744219
0.710000	24.744219
0.720000	24.744219
0.730000	24.744219
0.740000	24.744219
0.750000	24.744219
0.760000	24.744219
0.770000	24.744219
0.780000	24.744219
0.790000	24.744219
0.800000	24.744219
0.810000	24.744219
0.820000	24.744219
0.830000	24.744219
0.840000	24.744219
0.850000	24.744219
0.860000	24.744219
0.870000	24.744219
0.880000	24.744219
0.890000	24.744219
0.900000	24.744219
0.910000	24.744219
0.920000	24.744219
0.930000	24.744219
0.940000	24.744219
0.950000	24.744219
0.960000	24.744219
0.970000	24.744219
0.980000	24.744219
0.990000	24.744219
1.000000	24.753255
1.010000	24.753255
1.020000	24.753255
1.030000	24.753255
1.040000	24.753255
1.050000	24.753255
1.060000	24.753255
1.070000	24.753255
1.080000	24.753255
1.090000	24.753255
1.100000	24.753255
1.110000	24.753255
1.120000	24.753255
1.130000	24.753255
1.140000	24.753255
1.150000	24.753255
1.160000	24.753255
1.170000	24.753255
1.180000	24.753255
1.190000	24.753255
1.200000	24.753255
1.210000	24.753255
1.220000	24.753255
1.230000	24.753255
1.240000	24.753255
1.250000	24.753255
1.260000	24.753255
1.270000	24.753255
1.280000	24.753255
1.290000	24.753255
1.300000	24.753255
1.310000	24.753255
1.320000	24.753255
1.330000	24.753255
1.340000	24.753255
1.350000	24.753255
1.360000	24.753255
1.370000	24.753255
1.380000	24.753255
1.390000	24.753255
1.400000	24.753255
1.410000	24.753255
1.420000	24.753255
1.430000	24.753255
1.440000	24.753255
1.450000	24.753255
1.460000	24.753255
1.470000	24.753255
1.480000	24.753255
1.490000	24.753255
1.500000	24.770342
1.510000	24.770342
1.520000	24.770342
1.530000	24.770342
1.540000	24.770342
1.550000	24.770342
1.560000	24.770342
1.570000	24.770342
1.580000	24.770342
1.590000	24.770342
1.600000	24.770342
1.610000	24.770342
1.620000	24.770342
1.630000	24.770342
1.640000	24.770342
1.650000	24.770342
1.660000	24.770342
1.670000	24.770342
1.680000	24.770342
1.690000	24.770342
1.700000	24.770342
1.710000	24.770342
1.720000	24.770342
1.730000	24.770342
1.740000	24.770342
1.750000	24.770342
1.760000	24.770342
1.770000	24.770342
1.780000	24.770342
1.790000	24.770342
1.800000	24.770342
1.810000	24.770342
1.820000	24.770342
1.830000	24.770342
1.840000	24.770342
1.850000	24.770342
1.860000	24.770342
1.870000	24.770342
1.880000	24.770342
1.890000	24.770342
1.900000	24.770342
1.910000	24.770342
1.920000	24.770342
1.930000	24.770342
1.940000	24.770342
1.950000	24.770342
1.960000	24.770342
1.970000	24.770342
1.980000	24.770342
1.990000	24.770342
2.000000	24.793696
2.010000	24.793696
2.020000	24.793696
2.030000	24.793696
2.040000	24.793696
2.050000	24.793696
2.060000	24.793696
2.070000	24.793696
2.080000	24.793696
2.090000	24.793696
2.100000	24.793696
2.110000	24.793696
2.120000	24.793696
2.130000	24.793696
2.140000	24.793696
2.150000	24.793696
2.160000	24.793696
2.170000	24.793696
2.180000	24.793696
2.190000	24.793696
2.200000	24.793696
2.210000	24.793696
2.220000	24.793696
2.230000	24.793696
2.240000	24.793696
2.250000	24.793696
2.260000	24.793696
2.270000	24.793696
2.280000	24.793696
2.290000	24.793696
2.300000	24.793696
2.310000	24.793696
2.320000	24.793696
2.330000	24.793696
2.340000	24.793696
2.350000	24.793696
2.360000	24.793696
2.370000	24.793696
2.380000	24.793696
2.390000	24.793696
2.400000	24.793696
2.410000	24.793696
2.420000	24.793696
2.430000	24.793696
2.440000	24.793696
2.450000	24.793696
2.460000	24.793696
2.470000	24.793696
2.480000	24.793696
2.490000	24.793696
2.500000	24.822165
2.510000	24.822165
2.520000	24.822165
2.530000	24.822165
2.540000	24.822165
2.550000	24.822165
2.560000	24.822165
2.570000	24.822165
2.580000	24.822165
2.590000	24.822165
2.600000	24.822165
2.610000	24.822165
2.620000	24.822165
2.630000	24.822165
2.640000	24.822165
2.650000	24.822165
2.660000	24.822165
2.670000	24.822165
2.680000	24.822165
2.690000	24.822165
2.700000	24.822165
2.710000	24.822165
2.720000	24.822165
2.730000	24.822165
2.740000	24.822165
2.750000	24.822165
2.760000	24.822165
2.770000	24.822165
2.780000	24.822165
2.790000	24.822165
2.800000	24.822165
2.810000	24.822165
2.820000	24.822165
2.830000	24.822165
2.840000	24.822165
2.850000	24.822165
2.860000	24.822165
2.870000	24.822165
2.880000	24.822165
2.890000	24.822165
2.900000	24.822165
2.910000	24.822165
2.920000	24.822165
2.930000	24.822165
2.940000	24.822165
2.950000	24.822165
2.960000	24.822165
2.970000	24.822165
2.980000	24.822165
2.990000	24.822165
3.000000	24.853784
3.010000	24.853784
3.020000	24.853784
3.030000	24.853784
3.040000	24.853784
3.050000	24.853784
3.060000	24.853784
3.070000	24.853784
3.080000	24.853784
3.090000	24.853784
3.100000	24.853784
3.110000	24.853784
3.120000	24.853784
3.130000	24.853784
3.140000	24.853784
3.150000	24.853784
3.160000	24.853784
3.170000	24.853784
3.180000	24.853784
3.190000	24.853784
3.200000	24.853784
3.210000	24.853784
3.220000	24.853784
3.230000	24.853784
3.240000	24.853784
3.250000	24.853784
3.260000	24.853784
3.270000	24.853784
3.280000	24.853784
3.290000	24.853784
3.300000	24.853784
3.310000	24.853784
3.320000	24.853784
3.330000	24.853784
3.340000	24.853784
3.350000	24.853784
3.360000	24.853784
3.370000	24.853784
3.380000	24.853784
3.390000	24.853784
3.400000	24.853784
3.410000	24.853784
3.420000	24.853784
3.430000	24.853784
3.440000	24.853784
3.450000	24.853784
3.460000	24.853784
3.470000	24.853784
3.480000	24.853784
3.490000	24.853784
3.500000	24.887137
3.510000	24.887137
3.520000	24.887137
3.530000	24.887137
3.540000	24.887137
3.550000	24.887137
3.560000	24.887137
3.570000	24.887137
3.580000	24.887137
3.590000	24.887137
3.600000	24.887137
3.610000	24.887137
3.620000	24.887137
3.630000	24.887137
3.640000	24.887137
3.650000	24.887137
3.660000	24.887137
3.670000	24.887137
3.680000	24.887137
3.690000	24.887137
3.700000	24.887137
3.710000	24.887137
3.720000	24.887137
3.730000	24.887137
3.740000	24.887137
3.750000	24.887137
3.760000	24.887137
3.770000	24.887137
3.780000	24.887137
3.790000	24.887137
3.800000	24.887137
3.810000	24.887137
3.820000	24.887137
3.830000	24.887137
3.840000	24.887137
3.850000	24.887137
3.860000	24.887137
3.870000	24.887137
3.880000	24.887137
3.890000	24.887137
3.900000	24.887137
3.910000	24.887137
3.920000	24.887137
3.930000	24.887137
3.940000	24.887137
3.950000	24.887137
3.960000	24.887137
3.970000	24.887137
3.980000	24.887137
3.990000	24.887137
4.000000	24.916259
4.010000	24.916259
4.020000	24.916259
4.030000	24.916259
4.040000	24.916259
4.050000	24.916259
4.060000	24.916259
4.070000	24.916259
4.080000	24.916259
4.090000	24.916259
4.100000	24.916259
4.110000	24.916259
4.120000	24.916259
4.130000	24.916259
4.140000	24.916259
4.150000	24.916259
4.160000	24.916259
4.170000	24.916259
4.180000	24.916259
4.190000	24.916259
4.200000	24.916259
4.210000	24.916259
4.220000	24.916259
4.230000	24.916259
4.240000	24.916259
4.250000	24.916259
4.260000	24.916259
4.270000	24.916259
4.280000	24.916259
4.290000	24.916259
4.300000	24.916259
4.310000	24.916259
4.320000	24.916259
4.330000	24.916259
4.340000	24.916259
4.350000	24.916259
4.360000	24.916259
4.370000	24.916259
4.380000	24.916259
4.390000	24.916259
4.400000	24.916259
4.410000	24.916259
4.420000	24.916259
4.430000	24.916259
4.440000	24.916259
4.450000	24.916259
4.460000	24.916259
4.470000	24.916259
4.480000	24.916259
4.490000	24.916259
4.500000	24.940984
4.510000	24.940984
4.520000	24.940984
4.530000	24.940984
4.540000	24.940984
4.550000	24.940984
4.560000	24.940984
4.570000	24.940984
4.580000	24.940984
4.590000	24.940984
4.600000	24.940984
4.610000	24.940984
4.620000	24.940984
4.630000	24.940984
4.640000	24.940984
4.650000	24.940984
4.660000	24.940984
4.670000	24.940984
4.680000	24.940984
4.690000	24.940984
4.700000	24.940984
4.710000	24.940984
4.720000	24.940984
4.730000	24.940984
4.740000	24.940984
4.750000	24.940984
4.760000	24.940984
4.770000	24.940984
4.780000	24.940984
4.790000	24.940984
4.800000	24.940984
4.810000	24.940984
4.820000	24.940984
4.830000	24.940984
4.840000	24.940984
4.850000	24.940984
4.860000	24.940984
4.870000	24.940984
4.880000	24.940984
4.890000	24.940984
4.900000	24.940984
4.910000	24.940984
4.920000	24.940984
4.930000	24.940984
4.940000	24.940984
4.950000	24.940984
4.960000	24.940984
4.970000	24.940984
4.980000	24.940984
4.990000	24.940984
5.000000	24.960949
5.010000	24.960949
5.020000	24.960949
5.030000	24.960949
5.040000	24.960949
5.050000	24.960949
5.060000	24.960949
5.070000	24.960949
5.080000	24.960949
5.090000	24.960949
5.100000	24.960949
5.110000	24.960949
5.120000	24.960949
5.130000	24.960949
5.140000	24.960949
5.150000	24.960949
5.160000	24.960949
5.170000	24.960949
5.180000	24.960949
5.190000	24.960949
5.200000	24.960949
5.210000	24.960949
5.220000	24.960949
5.230000	24.960949
5.240000	24.960949
5.250000	24.960949
5.260000	24.960949
5.270000	24.960949
5.280000	24.960949
5.290000	24.960949
5.300000	24.960949
5.310000	24.960949
5.320000	24.960949
5.330000	24.960949
5.340000	24.960949
5.350000	24.960949
5.360000	24.960949
5.370000	24.960949
5.380000	24.960949
5.390000	24.960949
5.400000	24.960949
5.410000	24.960949
5.420000	24.960949
5.430000	24.960949
5.440000	24.960949
5.450000	24.960949
5.460000	24.960949
5.470000	24.960949
5.480000	24.960949
5.490000	24.960949
5.500000	24.976098
5.510000	24.976098
5.520000	24.976098
5.530000	24.976098
5.540000	24.976098
5.550000	24.976098
5.560000	24.976098
5.570000	24.976098
5.580000	24.976098
5.590000	24.976098
5.600000	24.976098
5.610000	24.976098
5.620000	24.976098
5.630000	24.976098
5.640000	24.976098
5.650000	24.976098
5.660000	24.976098
5.670000	24.976098
5.680000	24.976098
5.690000	24.976098
5.700000	24.976098
5.710000	24.976098
5.720000	24.976098
5.730000	24.976098
5.740000	24.976098
5.750000	24.976098
5.760000	24.976098
5.770000	24.976098
5.780000	24.976098
5.790000	24.976098
5.800000	24.976098
5.810000	24.976098
5.820000	24.976098
5.830000	24.976098
5.840000	24.976098
5.850000	24.976098
5.860000	24.976098
5.870000	24.976098
5.880000	24.976098
5.890000	24.976098
5.900000	24.976098
5.910000	24.976098
5.920000	24.976098
5.930000	24.976098
5.940000	24.976098
5.950000	24.976098
5.960000	24.976098
5.970000	24.976098
5.980000	24.976098
5.990000	24.976098
6.000000	24.987213
6.010000	24.987213
6.020000	24.987213
6.030000	24.987213
6.040000	24.987213
6.050000	24.987213
6.060000	24.987213
6.070000	24.987213
6.080000	24.987213
6.090000	24.987213
6.100000	24.987213
6.110000	24.987213
6.120000	24.987213
6.130000	24.987213
6.140000	24.987213
6.150000	24.987213
6.160000	24.987213
6.170000	24.987213
6.180000	24.987213
6.190000	24.987213
6.200000	24.987213
6.210000	24.987213
6.220000	24.987213
6.230000	24.987213
6.240000	24.987213
6.250000	24.987213
6.260000	24.987213
6.270000	24.987213
6.280000	24.987213
6.290000	24.987213
6.300000	24.987213
6.310000	24.987213
6.320000	24.987213
6.330000	24.987213
6.340000	24.987213
6.350000	24.987213
6.360000	24.987213
6.370000	24.987213
6.380000	24.987213
6.390000	24.987213
6.400000	24.987213
6.410000	24.987213
6.420000	24.987213
6.430000	24.987213
6.440000	24.987213
6.450000	24.987213
6.460000	24.987213
6.470000	24.987213
6.480000	24.987213
6.490000	24.987213
6.500000	24.996117
6.510000	24.996117
6.520000	24.996117
6.530000	24.996117
6.540000	24.996117
6.550000	24.996117
6.560000	24.996117
6.570000	24.996117
6.580000	24.996117
6.590000	24.996117
6.600000	24.996117
6.610000	24.996117
6.620000	24.996117
6.630000	24.996117
6.640000	24.996117
6.650000	24.996117
6.660000	24.996117
6.670000	24.996117
6.680000	24.996117
6.690000	24.996117
6.700000	24.996117
6.710000	24.996117
6.720000	24.996117
6.730000	24.996117
6.740000	24.996117
6.750000	24.996117
6.760000	24.996117
6.770000	24.996117
6.780000	24.996117
6.790000	24.996117
6.800000	24.996117
6.810000	24.996117
6.820000	24.996117
6.830000	24.996117
6.840000	24.996117
6.850000	24.996117
6.860000	24.996117
6.870000	24.996117
6.880000	24.996117
6.890000	24.996117
6.900000	24.996117
6.910000	24.996117
6.920000	24.996117
6.930000	24.996117
6.940000	24.996117
6.950000	24.996117
6.960000	24.996117
6.970000	24.996117
6.980000	24.996117
6.990000	24.996117
7.000000	25.003665
7.010000	25.003665
7.020000	25.003665
7.030000	25.003665
7.040000	25.003665
7.050000	25.003665
7.060000	25.003665
7.070000	25.003665
7.080000	25.003665
7.090000	25.003665
7.100000	25.003665
7.110000	25.003665
7.120000	25.003665
7.130000	25.003665
7.140000	25.003665
7.150000	25.003665
7.160000	25.003665
7.170000	25.003665
7.180000	25.003665
7.190000	25.003665
7.200000	25.003665
7.210000	25.003665
7.220000	25.003665
7.230000	25.003665
7.240000	25.003665
7.250000	25.003665
7.260000	25.003665
7.270000	25.003665
7.280000	25.003665
7.290000	25.003665
7.300000	25.003665
7.310000	25.003665
7.320000	25.003665
7.330000	25.003665
7.340000	25.003665
7.350000	25.003665
7.360000	25.003665
7.370000	25.003665
7.380000	25.003665
7.390000	25.003665
7.400000	25.003665
7.410000	25.003665
7.420000	25.003665
7.430000	25.003665
7.440000	25.003665
7.450000	25.003665
7.460000	25.003665
7.470000	25.003665
7.480000	25.003665
7.490000	25.003665
7.500000	25.008159
7.510000	25.008159
7.520000	25.008159
7.530000	25.008159
7.540000	25.008159
7.550000	25.008159
7.560000	25.008159
7.570000	25.008159
7.580000	25.008159
7.590000	25.008159
7.600000	25.008159
7.610000	25.008159
7.620000	25.008159
7.630000	25.008159
7.640000	25.008159
7.650000	25.008159
7.660000	25.008159
7.670000	25.008159
7.680000	25.008159
7.690000	25.008159
7.700000	25.008159
7.710000	25.008159
7.720000	25.008159
7.730000	25.008159
7.740000	25.008159
7.750000	25.008159
7.760000	25.008159
7.770000	25.008159
7.780000	25.008159
7.790000	25.008159
7.800000	25.008159
7.810000	25.008159
7.820000	25.008159
7.830000	25.008159
7.840000	25.008159
7.850000	25.008159
7.860000	25.008159
7.870000	25.008159
7.880000	25.008159
7.890000	25.008159
7.900000	25.008159
7.910000	25.008159
7.920000	25.008159
7.930000	25.008159
7.940000	25.008159
7.950000	25.008159
7.960000	25.008159
7.970000	25.008159
7.980000	25.008159
7.990000	25.008159
8.000000	25.011393
8.010000	25.011393
8.020000	25.011393
8.030000	25.011393
8.040000	25.011393
8.050000	25.011393
8.060000	25.011393
8.070000	25.011393
8.080000	25.011393
8.090000	25.011393
8.100000	25.011393
8.110000	25.011393
8.120000	25.011393
8.130000	25.011393
8.140000	25.011393
8.150000	25.011393
8.160000	25.011393
8.170000	25.011393
8.180000	25.011393
8.190000	25.011393
8.200000	25.011393
8.210000	25.011393
8.220000	25.011393
8.230000	25.011393
8.240000	25.011393
8.250000	25.011393
8.260000	25.011393
8.270000	25.011393
8.280000	25.011393
8.290000	25.011393
8.300000	25.011393
8.310000	25.011393
8.320000	25.011393
8.330000	25.011393
8.340000	25.011393
8.350000	25.011393
8.360000	25.011393
8.370000	25.011393
8.380000	25.011393
8.390000	25.011393
8.400000	25.011393
8.410000	25.011393
8.420000	25.011393
8.430000	25.011393
8.440000	25.011393
8.450000	25.011393
8.460000	25.011393
8.470000	25.011393
8.480000	25.011393
8.490000	25.011393
8.500000	25.013532
8.510000	25.013532
8.520000	25.013532
8.530000	25.013532
8.540000	25.013532
8.550000	25.013532
8.560000	25.013532
8.570000	25.013532
8.580000	25.013532
8.590000	25.013532
8.600000	25.013532
8.610000	25.013532
8.620000	25.013532
8.630000	25.013532
8.640000	25.013532
8.650000	25.013532
8.660000	25.013532
8.670000	25.013532
8.680000	25.013532
8.690000	25.013532
8.700000	25.013532
8.710000	25.013532
8.720000	25.013532
8.730000	25.013532
8.740000	25.013532
8.750000	25.013532
8.760000	25.013532
8.770000	25.013532
8.780000	25.013532
8.790000	25.013532
8.800000	25.013532
8.810000	25.013532
8.820000	25.013532
8.830000	25.013532
8.840000	25.013532
8.850000	25.013532
8.860000	25.013532
8.870000	25.013532
8.880000	25.013532
8.890000	25.013532
8.900000	25.013532
8.910000	25.013532
8.920000	25.013532
8.930000	25.013532
8.940000	25.013532
8.950000	25.013532
8.960000	25.013532
8.970000	25.013532
8.980000	25.013532
8.990000	25.013532
9.000000	25.013808
9.010000	25.013808
9.020000	25.013808
9.030000	25.013808
9.040000	25.013808
9.050000	25.013808
9.060000	25.013808
9.070000	25.013808
9.080000	25.013808
9.090000	25.013808
9.100000	25.013808
9.110000	25.013808
9.120000	25.013808
9.130000	25.013808
9.140000	25.013808
9.150000	25.013808
9.160000	25.013808
9.170000	25.013808
9.180000	25.013808
9.190000	25.013808
9.200000	25.013808
9.210000	25.013808
9.220000	25.013808
9.230000	25.013808
9.240000	25.013808
9.250000	25.013808
9.260000	25.013808
9.270000	25.013808
9.280000	25.013808
9.290000	25.013808
9.300000	25.013808
9.310000	25.013808
9.320000	25.013808
9.330000	25.013808
9.340000	25.013808
9.350000	25.013808
9.360000	25.013808
9.370000	25.013808
9.380000	25.013808
9.390000	25.013808
9.400000	25.013808
9.410000	25.013808
9.420000	25.013808
9.430000	25.013808
9.440000	25.013808
9.450000	25.013808
9.460000	25.013808
9.470000	25.013808
9.480000	25.013808
9.490000	25.013808
9.500000	25.014015
9.510000	25.014015
9.520000	25.014015
9.530000	25.014015
9.540000	25.014015
9.550000	25.014015
9.560000	25.014015
9.570000	25.014015
9.580000	25.014015
9.590000	25.014015
9.600000	25.014015
9.610000	25.014015
9.620000	25.014015
9.630000	25.014015
9.640000	25.014015
9.650000	25.014015
9.660000	25.014015
9.670000	25.014015
9.680000	25.014015
9.690000	25.014015
9.700000	25.014015
9.710000	25.014015
9.720000	25.014015
9.730000	25.014015
9.740000	25.014015
9.750000	25.014015
9.760000	25.014015
9.770000	25.014015
9.780000	25.014015
9.790000	25.014015
9.800000	25.014015
9.810000	25.014015
9.820000	25.014015
9.830000	25.014015
9.840000	25.014015
9.850000	25.014015
9.860000	25.014015
9.870000	25.014015
9.880000	25.014015
9.890000	25.014015
9.900000	25.014015
9.910000	25.014015
9.920000	25.014015
9.930000	25.014015
9.940000	25.014015
9.950000	25.014015
9.960000	25.014015
9.970000	25.014015
9.980000	25.014015
9.990000	25.014015
10.000000	25.012808
10.010000	25.012808
10.020000	25.012808
10.030000	25.012808
10.040000	25.012808
10.050000	25.012808
10.060000	25.012808
10.070000	25.012808
10.080000	25.012808
10.090000	25.012808
10.100000	25.012808
10.110000	25.012808
10.120000	25.012808
10.130000	25.012808
10.140000	25.012808
10.150000	25.012808
10.160000	25.012808
10.170000	25.012808
10.180000	25.012808
10.190000	25.012808
10.200000	25.012808
10.210000	25.012808
10.220000	25.012808
10.230000	25.012808
10.240000	25.012808
10.250000	25.012808
10.260000	25.012808
10.270000	25.012808
10.280000	25.012808
10.290000	25.012808
10.300000	25.012808
10.310000	25.012808
10.320000	25.012808
10.330000	25.012808
10.340000	25.012808
10.350000	25.012808
10.360000	25.012808
10.370000	25.012808
10.380000	25.012808
10.390000	25.012808
10.400000	25.012808
10.410000	25.012808
10.420000	25.012808
10.430000	25.012808
10.440000	25.012808
10.450000	25.012808
10.460000	25.012808
10.470000	25.012808
10.480000	25.012808
10.490000	25.012808
10.500000	25.011255
10.510000	25.011255
10.520000	25.011255
10.530000	25.011255
10.540000	25.011255
10.550000	25.011255
10.560000	25.011255
10.570000	25.011255
10.580000	25.011255
10.590000	25.011255
10.600000	25.011255
10.610000	25.011255
10.620000	25.011255
10.630000	25.011255
10.640000	25.011255
10.650000	25.011255
10.660000	25.011255
10.670000	25.011255
10.680000	25.011255
10.690000	25.011255
10.700000	25.011255
10.710000	25.011255
10.720000	25.011255
10.730000	25.011255
10.740000	25.011255
10.750000	25.011255
10.760000	25.011255
10.770000	25.011255
10.780000	25.011255
10.790000	25.011255
10.800000	25.011255
10.810000	25.011255
10.820000	25.011255
10.830000	25.011255
10.840000	25.011255
10.850000	25.011255
10.860000	25.011255
10.870000	25.011255
10.880000	25.011255
10.890000	25.011255
10.900000	25.011255
10.910000	25.011255
10.920000	25.011255
10.930000	25.011255
10.940000	25.011255
10.950000	25.011255
10.960000	25.011255
10.970000	25.011255
10.980000	25.011255
10.990000	25.011255
11.000000	25.009479
11.010000	25.009479
11.020000	25.009479
11.030000	25.009479
11.040000	25.009479
11.050000	25.009479
11.060000	25.009479
11.070000	25.009479
11.080000	25.009479
11.090000	25.009479
11.100000	25.009479
11.110000	25.009479
11.120000	25.009479
11.130000	25.009479
11.140000	25.009479
11.150000	25.009479
11.160000	25.009479
11.170000	25.009479
11.180000	25.009479
11.190000	25.009479
11.200000	25.009479
11.210000	25.009479
11.220000	25.009479
11.230000	25.009479
11.240000	25.009479
11.250000	25.009479
11.260000	25.009479
11.270000	25.009479
11.280000	25.009479
11.290000	25.009479
11.300000	25.009479
11.310000	25.009479
11.320000	25.009479
11.330000	25.009479
11.340000	25.009479
11.350000	25.009479
11.360000	25.009479
11.370000	25.009479
11.380000	25.009479
11.390000	25.009479
11.400000	25.009479
11.410000	25.009479
11.420000	25.009479
11.430000	25.009479
11.440000	25.009479
11.450000	25.009479
11.460000	25.009479
11.470000	25.009479
11.480000	25.009479
11.490000	25.009479
11.500000	25.007305
11.510000	25.007305
11.520000	25.007305
11.530000	25.007305
11.540000	25.007305
11.550000	25.007305
11.560000	25.007305
11.570000	25.007305
11.580000	25.007305
11.590000	25.007305
11.600000	25.007305
11.610000	25.007305
11.620000	25.007305
11.630000	25.007305
11.640000	25.007305
11.650000	25.007305
11.660000	25.007305
11.670000	25.007305
11.680000	25.007305
11.690000	25.007305
11.700000	25.007305
11.710000	25.007305
11.720000	25.007305
11.730000	25.007305
11.740000	25.007305
11.750000	25.007305
11.760000	25.007305
11.770000	25.007305
11.780000	25.007305
11.790000	25.007305
11.800000	25.007305
11.810000	25.007305
11.820000	25.007305
11.830000	25.007305
11.840000	25.007305
11.850000	25.007305
11.860000	25.007305
11.870000	25.007305
11.880000	25.007305
11.890000	25.007305
11.900000	25.007305
11.910000	25.007305
11.920000	25.007305
11.930000	25.007305
11.940000	25.007305
11.950000	25.007305
11.960000	25.007305
11.970000	25.007305
11.980000	25.007305
11.990000	25.007305
12.000000	25.004097
12.010000	25.004097
12.020000	25.004097
12.030000	25.004097
12.040000	25.004097
12.050000	25.004097
12.060000	25.004097
12.070000	25.004097
12.080000	25.004097
12.090000	25.004097
12.100000	25.004097
12.110000	25.004097
12.120000	25.004097
12.130000	25.004097
12.140000	25.004097
12.150000	25.004097
12.160000	25.004097
12.170000	25.004097
12.180000	25.004097
12.190000	25.004097
12.200000	25.004097
12.210000	25.004097
12.220000	25.004097
12.230000	25.004097
12.240000	25.004097
12.250000	25.004097
12.260000	25.004097
12.270000	25.004097
12.280000	25.004097
12.290000	25.004097
12.300000	25.004097
12.310000	25.004097
12.320000	25.004097
12.330000	25.004097
12.340000	25.004097
12.350000	25.004097
12.360000	25.004097
12.370000	25.004097
12.380000	25.004097
12.390000	25.004097
12.400000	25.004097
12.410000	25.004097
12.420000	25.004097
12.430000	25.004097
12.440000	25.004097
12.450000	25.004097
12.460000	25.004097
12.470000	25.004097
12.480000	25.004097
12.490000	25.004097
12.500000	25.000482
12.510000	25.000482
12.520000	25.000482
12.530000	25.000482
12.540000	25.000482
12.550000	25.000482
12.560000	25.000482
12.570000	25.000482
12.580000	25.000482
12.590000	25.000482
12.600000	25.000482
12.610000	25.000482
12.620000	25.000482
12.630000	25.000482
12.640000	25.000482
12.650000	25.000482
12.660000	25.000482
12.670000	25.000482
12.680000	25.000482
12.690000	25.000482
12.700000	25.000482
12.710000	25.000482
12.720000	25.000482
12.730000	25.000482
12.740000	25.000482
12.750000	25.000482
12.760000	25.000482
12.770000	25.000482
12.780000	25.000482
12.790000	25.000482
12.800000	25.000482
12.810000	25.000482
12.820000	25.000482
12.830000	25.000482
12.840000	25.000482
12.850000	25.000482
12.860000	25.000482
12.870000	25.000482
12.880000	25.000482
12.890000	25.000482
12.900000	25.000482
12.910000	25.000482
12.920000	25.000482
12.930000	25.000482
12.940000	25.000482
12.950000	25.000482
12.960000	25.000482
12.970000	25.000482
12.980000	25.000482
12.990000	25.000482
13.000000	24.996117
13.010000	24.996117
13.020000	24.996117
13.030000	24.996117
13.040000	24.996117
13.050000	24.996117
13.060000	24.996117
13.070000	24.996117
13.080000	24.996117
13.090000	24.996117
13.100000	24.996117
13.110000	24.996117
13.120000	24.996117
13.130000	24.996117
13.140000	24.996117
13.150000	24.996117
13.160000	24.996117
13.170000	24.996117
13.180000	24.996117
13.190000	24.996117
13.200000	24.996117
13.210000	24.996117
13.220000	24.996117
13.230000	24.996117
13.240000	24.996117
13.250000	24.996117
13.260000	24.996117
13.270000	24.996117
13.280000	24.996117
13.290000	24.996117
13.300000	24.996117
13.310000	24.996117
13.320000	24.996117
13.330000	24.996117
13.340000	24.996117
13.350000	24.996117
13.360000	24.996117
13.370000	24.996117
13.380000	24.996117
13.390000	24.996117
13.400000	24.996117
13.410000	24.996117
13.420000	24.996117
13.430000	24.996117
13.440000	24.996117
13.450000	24.996117
13.460000	24.996117
13.470000	24.996117
13.480000	24.996117
13.490000	24.996117
13.500000	24.991579
13.510000	24.991579
13.520000	24.991579
13.530000	24.991579
13.540000	24.991579
13.550000	24.991579
13.560000	24.991579
13.570000	24.991579
13.580000	24.991579
13.590000	24.991579
13.600000	24.991579
13.610000	24.991579
13.620000	24.991579
13.630000	24.991579
13.640000	24.991579
13.650000	24.991579
13.660000	24.991579
13.670000	24.991579
13.680000	24.991579
13.690000	24.991579
13.700000	24.991579
13.710000	24.991579
13.720000	24.991579
13.730000	24.991579
13.740000	24.991579
13.750000	24.991579
13.760000	24.991579
13.770000	24.991579
13.780000	24.991579
13.790000	24.991579
13.800000	24.991579
13.810000	24.991579
13.820000	24.991579
13.830000	24.991579
13.840000	24.991579
13.850000	24.991579
13.860000	24.991579
13.870000	24.991579
13.880000	24.991579
13.890000	24.991579
13.900000	24.991579
13.910000	24.991579
13.920000	24.991579
13.930000	24.991579
13.940000	24.991579
13.950000	24.991579
13.960000	24.991579
13.970000	24.991579
13.980000	24.991579
13.990000	24.991579
14.000000	24.985858
14.010000	24.985858
14.020000	24.985858
14.030000	24.985858
14.040000	24.985858
14.050000	24.985858
14.060000	24.985858
14.070000	24.985858
14.080000	24.985858
14.090000	24.985858
14.100000	24.985858
14.110000	24.985858
14.120000	24.985858
14.130000	24.985858
14.140000	24.985858
14.150000	24.985858
14.160000	24.985858
14.170000	24.985858
14.180000	24.985858
14.190000	24.985858
14.200000	24.985858
14.210000	24.985858
14.220000	24.985858
14.230000	24.985858
14.240000	24.985858
14.250000	24.985858
14.260000	24.985858
14.270000	24.985858
14.280000	24.985858
14.290000	24.985858
14.300000	24.985858
14.310000	24.985858
14.320000	24.985858
14.330000	24.985858
14.340000	24.985858
14.350000	24.985858
14.360000	24.985858
14.370000	24.985858
14.380000	24.985858
14.390000	24.985858
14.400000	24.985858
14.410000	24.985858
14.420000	24.985858
14.430000	24.985858
14.440000	24.985858
14.450000	24.985858
14.460000	24.985858
14.470000	24.985858
14.480000	24.985858
14.490000	24.985858
14.500000	24.979895
14.510000	24.979895
14.520000	24.979895
14.530000	24.979895
14.540000	24.979895
14.550000	24.979895
14.560000	24.979895
14.570000	24.979895
14.580000	24.979895
14.590000	24.979895
14.600000	24.979895
14.610000	24.979895
14.620000	24.979895
14.630000	24.979895
14.640000	24.979895
14.650000	24.979895
14.660000	24.979895
14.670000	24.979895
14.680000	24.979895
14.690000	24.979895
14.700000	24.979895
14.710000	24.979895
14.720000	24.979895
14.730000	24.979895
14.740000	24.979895
14.750000	24.979895
14.760000	24.979895
14.770000	24.979895
14.780000	24.979895
14.790000	24.979895
14.800000	24.979895
14.810000	24.979895
14.820000	24.979895
14.830000	24.979895
14.840000	24.979895
14.850000	24.979895
14.860000	24.979895
14.870000	24.979895
14.880000	24.979895
14.890000	24.979895
14.900000	24.979895
14.910000	24.979895
14.920000	24.979895
14.930000	24.979895
14.940000	24.979895
14.950000	24.979895
14.960000	24.979895
14.970000	24.979895
14.980000	24.979895
14.990000	24.979895
15.000000	24.975157
15.010000	24.975157
15.020000	24.975157
15.030000	24.975157
15.040000	24.975157
15.050000	24.975157
15.060000	24.975157
15.070000	24.975157
15.080000	24.975157
15.090000	24.975157
15.100000	24.975157
15.110000	24.975157
15.120000	24.975157
15.130000	24.975157
15.140000	24.975157
15.150000	24.975157
15.160000	24.975157
15.170000	24.975157
15.180000	24.975157
15.190000	24.975157
15.200000	24.975157
15.210000	24.975157
15.220000	24.975157
15.230000	24.975157
15.240000	24.975157
15.250000	24.975157
15.260000	24.975157
15.270000	24.975157
15.280000	24.975157
15.290000	24.975157
15.300000	24.975157
15.310000	24.975157
15.320000	24.975157
15.330000	24.975157
15.340000	24.975157
15.350000	24.975157
15.360000	24.975157
15.370000	24.975157
15.380000	24.975157
15.390000	24.975157
15.400000	24.975157
15.410000	24.975157
15.420000	24.975157
15.430000	24.975157
15.440000	24.975157
15.450000	24.975157
15.460000	24.975157
15.470000	24.975157
15.480000	24.975157
15.490000	24.975157
15.500000	24.970004
15.510000	24.970004
15.520000	24.970004
15.530000	24.970004
15.540000	24.970004
15.550000	24.970004
15.560000	24.970004
15.570000	24.970004
15.580000	24.970004
15.590000	24.970004
15.600000	24.970004
15.610000	24.970004
15.620000	24.970004
15.630000	24.970004
15.640000	24.970004
15.650000	24.970004
15.660000	24.970004
15.670000	24.970004
15.680000	24.970004
15.690000	24.970004
15.700000	24.970004
15.710000	24.970004
15.720000	24.970004
15.730000	24.970004
15.740000	24.970004
15.750000	24.970004
15.760000	24.970004
15.770000	24.970004
15.780000	24.970004
15.790000	24.970004
15.800000	24.970004
15.810000	24.970004
15.820000	24.970004
15.830000	24.970004
15.840000	24.970004
15.850000	24.970004
15.860000	24.970004
15.870000	24.970004
15.880000	24.970004
15.890000	24.970004
15.900000	24.970004
15.910000	24.970004
15.920000	24.970004
15.930000	24.970004
15.940000	24.970004
15.950000	24.970004
15.960000	24.970004
15.970000	24.970004
15.980000	24.970004
15.990000	24.970004
16.000000	24.965662
16.010000	24.965662
16.020000	24.965662
16.030000	24.965662
16.040000	24.965662
16.050000	24.965662
16.060000	24.965662
16.070000	24.965662
16.080000	24.965662
16.090000	24.965662
16.100000	24.965662
16.110000	24.965662
16.120000	24.965662
16.130000	24.965662
16.140000	24.965662
16.150000	24.965662
16.160000	24.965662
16.170000	24.965662
16.180000	24.965662
16.190000	24.965662
16.200000	24.965662
16.210000	24.965662
16.220000	24.965662
16.230000	24.965662
16.240000	24.965662
16.250000	24.965662
16.260000	24.965662
16.270000	24.965662
16.280000	24.965662
16.290000	24.965662
16.300000	24.965662
16.310000	24.965662
16.320000	24.965662
16.330000	24.965662
16.340000	24.965662
16.350000	24.965662
16.360000	24.965662
16.370000	24.965662
16.380000	24.965662
16.390000	24.965662
16.400000	24.965662
16.410000	24.965662
16.420000	24.965662
16.430000	24.965662
16.440000	24.965662
16.450000	24.965662
16.460000	24.965662
16.470000	24.965662
16.480000	24.965662
16.490000	24.965662
16.500000	24.961424
16.510000	24.961424
16.520000	24.961424
16.530000	24.961424
16.540000	24.961424
16.550000	24.961424
16.560000	24.961424
16.570000	24.961424
16.580000	24.961424
16.590000	24.961424
16.600000	24.961424
16.610000	24.961424
16.620000	24.961424
16.630000	24.961424
16.640000	24.961424
16.650000	24.961424
16.660000	24.961424
16.670000	24.961424
16.680000	24.961424
16.690000	24.961424
16.700000	24.961424
16.710000	24.961424
16.720000	24.961424
16.730000	24.961424
16.740000	24.961424
16.750000	24.961424
16.760000	24.961424
16.770000	24.961424
16.780000	24.961424
16.790000	24.961424
16.800000	24.961424
16.810000	24.961424
16.820000	24.961424
16.830000	24.961424
16.840000	24.961424
16.850000	24.961424
16.860000	24.961424
16.870000	24.961424
16.880000	24.961424
16.890000	24.961424
16.900000	24.961424
16.910000	24.961424
16.920000	24.961424
16.930000	24.961424
16.940000	24.961424
16.950000	24.961424
16.960000	24.961424
16.970000	24.961424
16.980000	24.961424
16.990000	24.961424
17.000000	24.956459
17.010000	24.956459
17.020000	24.956459
17.030000	24.956459
17.040000	24.956459
17.050000	24.956459
17.060000	24.956459
17.070000	24.956459
17.080000	24.956459
17.090000	24.956459
17.100000	24.956459
17.110000	24.956459
17.120000	24.956459
17.130000	24.956459
17.140000	24.956459
17.150000	24.956459
17.160000	24.956459
17.170000	24.956459
17.180000	24.956459
17.190000	24.956459
17.200000	24.956459
17.210000	24.956459
17.220000	24.956459
17.230000	24.956459
17.240000	24.956459
17.250000	24.956459
17.260000	24.956459
17.270000	24.956459
17.280000	24.956459
17.290000	24.956459
17.300000	24.956459
17.310000	24.956459
17.320000	24.956459
17.330000	24.956459
17.340000	24.956459
17.350000	24.956459
17.360000	24.956459
17.370000	24.956459
17.380000	24.956459
17.390000	24.956459
17.400000	24.956459
17.410000	24.956459
17.420000	24.956459
17.430000	24.956459
17.440000	24.956459
17.450000	24.956459
17.460000	24.956459
17.470000	24.956459
17.480000	24.956459
17.490000	24.956459
17.500000	24.951633
17.510000	24.951633
17.520000	24.951633
17.530000	24.951633
17.540000	24.951633
17.550000	24.951633
17.560000	24.951633
17.570000	24.951633
17.580000	24.951633
17.590000	24.951633
17.600000	24.951633
17.610000	24.951633
17.620000	24.951633
17.630000	24.951633
17.640000	24.951633
17.650000	24.951633
17.660000	24.951633
17.670000	24.951633
17.680000	24.951633
17.690000	24.951633
17.700000	24.951633
17.710000	24.951633
17.720000	24.951633
17.730000	24.951633
17.740000	24.951633
17.750000	24.951633
17.760000	24.951633
17.770000	24.951633
17.780000	24.951633
17.790000	24.951633
17.800000	24.951633
17.810000	24.951633
17.820000	24.951633
17.830000	24.951633
17.840000	24.951633
17.850000	24.951633
17.860000	24.951633
17.870000	24.951633
17.880000	24.951633
17.890000	24.951633
17.900000	24.951633
17.910000	24.951633
17.920000	24.951633
17.930000	24.951633
17.940000	24.951633
17.950000	24.951633
17.960000	24.951633
17.970000	24.951633
17.980000	24.951633
17.990000	24.951633
