LabVIEW Measurement	
Writer_Version	2
Reader_Version	2
Separator	Tab
Decimal_Separator	.
Multi_Headings	No
X_Columns	One
Time_Pref	Absolute
Operator	biomech-dyno
Date	2023/05/24
Time	15:19:49.9492761999999796612
***End_of_Header***	
	
Channels	1	
Samples	10	
Date	2023/05/24	
Time	16:12:16.4799477999997048825	
X_Dimension	Time	
X0	0.0000000000000000E+0	
Delta_X	0.010000	
***End_of_Header***		
X_Value	Untitled	Comment
0.000000	24.648456
0.010000	24.648456
0.020000	24.648456
0.030000	24.648456
0.040000	24.648456
0.050000	24.648456
0.060000	24.648456
0.070000	24.648456
0.080000	24.648456
0.090000	24.648456
0.100000	24.648456
0.110000	24.648456
0.120000	24.648456
0.130000	24.648456
0.140000	24.648456
0.150000	24.648456
0.160000	24.648456
0.170000	24.648456
0.180000	24.648456
0.190000	24.648456
0.200000	24.648456
0.210000	24.648456
0.220000	24.648456
0.230000	24.648456
0.240000	24.648456
0.250000	24.648456
0.260000	24.648456
0.270000	24.648456
0.280000	24.648456
0.290000	24.648456
0.300000	24.648456
0.310000	24.648456
0.320000	24.648456
0.330000	24.648456
0.340000	24.648456
0.350000	24.648456
0.360000	24.648456
0.370000	24.648456
0.380000	24.648456
0.390000	24.648456
0.400000	24.648456
0.410000	24.648456
0.420000	24.648456
0.430000	24.648456
0.440000	24.648456
0.450000	24.648456
0.460000	24.648456
0.470000	24.648456
0.480000	24.648456
0.490000	24.648456
0.500000	24.657319
0.510000	24.657319
0.520000	24.657319
0.530000	24.657319
0.540000	24.657319
0.550000	24.657319
0.560000	24.657319
0.570000	24.657319
0.580000	24.657319
0.590000	24.657319
0.600000	24.657319
0.610000	24.657319
0.620000	24.657319
0.630000	24.657319
0.640000	24.657319
0.650000	24.657319
0.660000	24.657319
0.670000	24.657319
0.680000	24.657319
0.690000	24.657319
0.700000	24.657319
0.710000	24.657319
0.720000	24.657319
0.730000	24.657319
0.740000	24.657319
0.750000	24.657319
0.760000	24.657319
0.770000	24.657319
0.780000	24.657319
0.790000	24.657319
0.800000	24.657319
0.810000	24.657319
0.820000	24.657319
0.830000	24.657319
0.840000	24.657319
0.850000	24.657319
0.860000	24.657319
0.870000	24.657319
0.880000	24.657319
0.890000	24.657319
0.900000	24.657319
0.910000	24.657319
0.920000	24.657319
0.930000	24.657319
0.940000	24.657319
0.950000	24.657319
0.960000	24.657319
0.970000	24.657319
0.980000	24.657319
0.990000	24.657319
1.000000	24.694083
1.010000	24.694083
1.020000	24.694083
1.030000	24.694083
1.040000	24.694083
1.050000	24.694083
1.060000	24.694083
1.070000	24.694083
1.080000	24.694083
1.090000	24.694083
1.100000	24.694083
1.110000	24.694083
1.120000	24.694083
1.130000	24.694083
1.140000	24.694083
1.150000	24.694083
1.160000	24.694083
1.170000	24.694083
1.180000	24.694083
1.190000	24.694083
1.200000	24.694083
1.210000	24.694083
1.220000	24.694083
1.230000	24.694083
1.240000	24.694083
1.250000	24.694083
1.260000	24.694083
1.270000	24.694083
1.280000	24.694083
1.290000	24.694083
1.300000	24.694083
1.310000	24.694083
1.320000	24.694083
1.330000	24.694083
1.340000	24.694083
1.350000	24.694083
1.360000	24.694083
1.370000	24.694083
1.380000	24.694083
1.390000	24.694083
1.400000	24.694083
1.410000	24.694083
1.420000	24.694083
1.430000	24.694083
1.440000	24.694083
1.450000	24.694083
1.460000	24.694083
1.470000	24.694083
1.480000	24.694083
1.490000	24.694083
1.500000	24.773281
1.510000	24.773281
1.520000	24.773281
1.530000	24.773281
1.540000	24.773281
1.550000	24.773281
1.560000	24.773281
1.570000	24.773281
1.580000	24.773281
1.590000	24.773281
1.600000	24.773281
1.610000	24.773281
1.620000	24.773281
1.630000	24.773281
1.640000	24.773281
1.650000	24.773281
1.660000	24.773281
1.670000	24.773281
1.680000	24.773281
1.690000	24.773281
1.700000	24.773281
1.710000	24.773281
1.720000	24.773281
1.730000	24.773281
1.740000	24.773281
1.750000	24.773281
1.760000	24.773281
1.770000	24.773281
1.780000	24.773281
1.790000	24.773281
1.800000	24.773281
1.810000	24.773281
1.820000	24.773281
1.830000	24.773281
1.840000	24.773281
1.850000	24.773281
1.860000	24.773281
1.870000	24.773281
1.880000	24.773281
1.890000	24.773281
1.900000	24.773281
1.910000	24.773281
1.920000	24.773281
1.930000	24.773281
1.940000	24.773281
1.950000	24.773281
1.960000	24.773281
1.970000	24.773281
1.980000	24.773281
1.990000	24.773281
2.000000	24.887760
2.010000	24.887760
2.020000	24.887760
2.030000	24.887760
2.040000	24.887760
2.050000	24.887760
2.060000	24.887760
2.070000	24.887760
2.080000	24.887760
2.090000	24.887760
2.100000	24.887760
2.110000	24.887760
2.120000	24.887760
2.130000	24.887760
2.140000	24.887760
2.150000	24.887760
2.160000	24.887760
2.170000	24.887760
2.180000	24.887760
2.190000	24.887760
2.200000	24.887760
2.210000	24.887760
2.220000	24.887760
2.230000	24.887760
2.240000	24.887760
2.250000	24.887760
2.260000	24.887760
2.270000	24.887760
2.280000	24.887760
2.290000	24.887760
2.300000	24.887760
2.310000	24.887760
2.320000	24.887760
2.330000	24.887760
2.340000	24.887760
2.350000	24.887760
2.360000	24.887760
2.370000	24.887760
2.380000	24.887760
2.390000	24.887760
2.400000	24.887760
2.410000	24.887760
2.420000	24.887760
2.430000	24.887760
2.440000	24.887760
2.450000	24.887760
2.460000	24.887760
2.470000	24.887760
2.480000	24.887760
2.490000	24.887760
2.500000	25.028622
2.510000	25.028622
2.520000	25.028622
2.530000	25.028622
2.540000	25.028622
2.550000	25.028622
2.560000	25.028622
2.570000	25.028622
2.580000	25.028622
2.590000	25.028622
2.600000	25.028622
2.610000	25.028622
2.620000	25.028622
2.630000	25.028622
2.640000	25.028622
2.650000	25.028622
2.660000	25.028622
2.670000	25.028622
2.680000	25.028622
2.690000	25.028622
2.700000	25.028622
2.710000	25.028622
2.720000	25.028622
2.730000	25.028622
2.740000	25.028622
2.750000	25.028622
2.760000	25.028622
2.770000	25.028622
2.780000	25.028622
2.790000	25.028622
2.800000	25.028622
2.810000	25.028622
2.820000	25.028622
2.830000	25.028622
2.840000	25.028622
2.850000	25.028622
2.860000	25.028622
2.870000	25.028622
2.880000	25.028622
2.890000	25.028622
2.900000	25.028622
2.910000	25.028622
2.920000	25.028622
2.930000	25.028622
2.940000	25.028622
2.950000	25.028622
2.960000	25.028622
2.970000	25.028622
2.980000	25.028622
2.990000	25.028622
3.000000	25.188042
3.010000	25.188042
3.020000	25.188042
3.030000	25.188042
3.040000	25.188042
3.050000	25.188042
3.060000	25.188042
3.070000	25.188042
3.080000	25.188042
3.090000	25.188042
3.100000	25.188042
3.110000	25.188042
3.120000	25.188042
3.130000	25.188042
3.140000	25.188042
3.150000	25.188042
3.160000	25.188042
3.170000	25.188042
3.180000	25.188042
3.190000	25.188042
3.200000	25.188042
3.210000	25.188042
3.220000	25.188042
3.230000	25.188042
3.240000	25.188042
3.250000	25.188042
3.260000	25.188042
3.270000	25.188042
3.280000	25.188042
3.290000	25.188042
3.300000	25.188042
3.310000	25.188042
3.320000	25.188042
3.330000	25.188042
3.340000	25.188042
3.350000	25.188042
3.360000	25.188042
3.370000	25.188042
3.380000	25.188042
3.390000	25.188042
3.400000	25.188042
3.410000	25.188042
3.420000	25.188042
3.430000	25.188042
3.440000	25.188042
3.450000	25.188042
3.460000	25.188042
3.470000	25.188042
3.480000	25.188042
3.490000	25.188042
3.500000	25.352378
3.510000	25.352378
3.520000	25.352378
3.530000	25.352378
3.540000	25.352378
3.550000	25.352378
3.560000	25.352378
3.570000	25.352378
3.580000	25.352378
3.590000	25.352378
3.600000	25.352378
3.610000	25.352378
3.620000	25.352378
3.630000	25.352378
3.640000	25.352378
3.650000	25.352378
3.660000	25.352378
3.670000	25.352378
3.680000	25.352378
3.690000	25.352378
3.700000	25.352378
3.710000	25.352378
3.720000	25.352378
3.730000	25.352378
3.740000	25.352378
3.750000	25.352378
3.760000	25.352378
3.770000	25.352378
3.780000	25.352378
3.790000	25.352378
3.800000	25.352378
3.810000	25.352378
3.820000	25.352378
3.830000	25.352378
3.840000	25.352378
3.850000	25.352378
3.860000	25.352378
3.870000	25.352378
3.880000	25.352378
3.890000	25.352378
3.900000	25.352378
3.910000	25.352378
3.920000	25.352378
3.930000	25.352378
3.940000	25.352378
3.950000	25.352378
3.960000	25.352378
3.970000	25.352378
3.980000	25.352378
3.990000	25.352378
4.000000	25.486681
4.010000	25.486681
4.020000	25.486681
4.030000	25.486681
4.040000	25.486681
4.050000	25.486681
4.060000	25.486681
4.070000	25.486681
4.080000	25.486681
4.090000	25.486681
4.100000	25.486681
4.110000	25.486681
4.120000	25.486681
4.130000	25.486681
4.140000	25.486681
4.150000	25.486681
4.160000	25.486681
4.170000	25.486681
4.180000	25.486681
4.190000	25.486681
4.200000	25.486681
4.210000	25.486681
4.220000	25.486681
4.230000	25.486681
4.240000	25.486681
4.250000	25.486681
4.260000	25.486681
4.270000	25.486681
4.280000	25.486681
4.290000	25.486681
4.300000	25.486681
4.310000	25.486681
4.320000	25.486681
4.330000	25.486681
4.340000	25.486681
4.350000	25.486681
4.360000	25.486681
4.370000	25.486681
4.380000	25.486681
4.390000	25.486681
4.400000	25.486681
4.410000	25.486681
4.420000	25.486681
4.430000	25.486681
4.440000	25.486681
4.450000	25.486681
4.460000	25.486681
4.470000	25.486681
4.480000	25.486681
4.490000	25.486681
4.500000	25.587125
4.510000	25.587125
4.520000	25.587125
4.530000	25.587125
4.540000	25.587125
4.550000	25.587125
4.560000	25.587125
4.570000	25.587125
4.580000	25.587125
4.590000	25.587125
4.600000	25.587125
4.610000	25.587125
4.620000	25.587125
4.630000	25.587125
4.640000	25.587125
4.650000	25.587125
4.660000	25.587125
4.670000	25.587125
4.680000	25.587125
4.690000	25.587125
4.700000	25.587125
4.710000	25.587125
4.720000	25.587125
4.730000	25.587125
4.740000	25.587125
4.750000	25.587125
4.760000	25.587125
4.770000	25.587125
4.780000	25.587125
4.790000	25.587125
4.800000	25.587125
4.810000	25.587125
4.820000	25.587125
4.830000	25.587125
4.840000	25.587125
4.850000	25.587125
4.860000	25.587125
4.870000	25.587125
4.880000	25.587125
4.890000	25.587125
4.900000	25.587125
4.910000	25.587125
4.920000	25.587125
4.930000	25.587125
4.940000	25.587125
4.950000	25.587125
4.960000	25.587125
4.970000	25.587125
4.980000	25.587125
4.990000	25.587125
5.000000	25.660054
5.010000	25.660054
5.020000	25.660054
5.030000	25.660054
5.040000	25.660054
5.050000	25.660054
5.060000	25.660054
5.070000	25.660054
5.080000	25.660054
5.090000	25.660054
5.100000	25.660054
5.110000	25.660054
5.120000	25.660054
5.130000	25.660054
5.140000	25.660054
5.150000	25.660054
5.160000	25.660054
5.170000	25.660054
5.180000	25.660054
5.190000	25.660054
5.200000	25.660054
5.210000	25.660054
5.220000	25.660054
5.230000	25.660054
5.240000	25.660054
5.250000	25.660054
5.260000	25.660054
5.270000	25.660054
5.280000	25.660054
5.290000	25.660054
5.300000	25.660054
5.310000	25.660054
5.320000	25.660054
5.330000	25.660054
5.340000	25.660054
5.350000	25.660054
5.360000	25.660054
5.370000	25.660054
5.380000	25.660054
5.390000	25.660054
5.400000	25.660054
5.410000	25.660054
5.420000	25.660054
5.430000	25.660054
5.440000	25.660054
5.450000	25.660054
5.460000	25.660054
5.470000	25.660054
5.480000	25.660054
5.490000	25.660054
5.500000	25.711608
5.510000	25.711608
5.520000	25.711608
5.530000	25.711608
5.540000	25.711608
5.550000	25.711608
5.560000	25.711608
5.570000	25.711608
5.580000	25.711608
5.590000	25.711608
5.600000	25.711608
5.610000	25.711608
5.620000	25.711608
5.630000	25.711608
5.640000	25.711608
5.650000	25.711608
5.660000	25.711608
5.670000	25.711608
5.680000	25.711608
5.690000	25.711608
5.700000	25.711608
5.710000	25.711608
5.720000	25.711608
5.730000	25.711608
5.740000	25.711608
5.750000	25.711608
5.760000	25.711608
5.770000	25.711608
5.780000	25.711608
5.790000	25.711608
5.800000	25.711608
5.810000	25.711608
5.820000	25.711608
5.830000	25.711608
5.840000	25.711608
5.850000	25.711608
5.860000	25.711608
5.870000	25.711608
5.880000	25.711608
5.890000	25.711608
5.900000	25.711608
5.910000	25.711608
5.920000	25.711608
5.930000	25.711608
5.940000	25.711608
5.950000	25.711608
5.960000	25.711608
5.970000	25.711608
5.980000	25.711608
5.990000	25.711608
6.000000	25.746112
6.010000	25.746112
6.020000	25.746112
6.030000	25.746112
6.040000	25.746112
6.050000	25.746112
6.060000	25.746112
6.070000	25.746112
6.080000	25.746112
6.090000	25.746112
6.100000	25.746112
6.110000	25.746112
6.120000	25.746112
6.130000	25.746112
6.140000	25.746112
6.150000	25.746112
6.160000	25.746112
6.170000	25.746112
6.180000	25.746112
6.190000	25.746112
6.200000	25.746112
6.210000	25.746112
6.220000	25.746112
6.230000	25.746112
6.240000	25.746112
6.250000	25.746112
6.260000	25.746112
6.270000	25.746112
6.280000	25.746112
6.290000	25.746112
6.300000	25.746112
6.310000	25.746112
6.320000	25.746112
6.330000	25.746112
6.340000	25.746112
6.350000	25.746112
6.360000	25.746112
6.370000	25.746112
6.380000	25.746112
6.390000	25.746112
6.400000	25.746112
6.410000	25.746112
6.420000	25.746112
6.430000	25.746112
6.440000	25.746112
6.450000	25.746112
6.460000	25.746112
6.470000	25.746112
6.480000	25.746112
6.490000	25.746112
6.500000	25.767797
6.510000	25.767797
6.520000	25.767797
6.530000	25.767797
6.540000	25.767797
6.550000	25.767797
6.560000	25.767797
6.570000	25.767797
6.580000	25.767797
6.590000	25.767797
6.600000	25.767797
6.610000	25.767797
6.620000	25.767797
6.630000	25.767797
6.640000	25.767797
6.650000	25.767797
6.660000	25.767797
6.670000	25.767797
6.680000	25.767797
6.690000	25.767797
6.700000	25.767797
6.710000	25.767797
6.720000	25.767797
6.730000	25.767797
6.740000	25.767797
6.750000	25.767797
6.760000	25.767797
6.770000	25.767797
6.780000	25.767797
6.790000	25.767797
6.800000	25.767797
6.810000	25.767797
6.820000	25.767797
6.830000	25.767797
6.840000	25.767797
6.850000	25.767797
6.860000	25.767797
6.870000	25.767797
6.880000	25.767797
6.890000	25.767797
6.900000	25.767797
6.910000	25.767797
6.920000	25.767797
6.930000	25.767797
6.940000	25.767797
6.950000	25.767797
6.960000	25.767797
6.970000	25.767797
6.980000	25.767797
6.990000	25.767797
7.000000	25.780278
7.010000	25.780278
7.020000	25.780278
7.030000	25.780278
7.040000	25.780278
7.050000	25.780278
7.060000	25.780278
7.070000	25.780278
7.080000	25.780278
7.090000	25.780278
7.100000	25.780278
7.110000	25.780278
7.120000	25.780278
7.130000	25.780278
7.140000	25.780278
7.150000	25.780278
7.160000	25.780278
7.170000	25.780278
7.180000	25.780278
7.190000	25.780278
7.200000	25.780278
7.210000	25.780278
7.220000	25.780278
7.230000	25.780278
7.240000	25.780278
7.250000	25.780278
7.260000	25.780278
7.270000	25.780278
7.280000	25.780278
7.290000	25.780278
7.300000	25.780278
7.310000	25.780278
7.320000	25.780278
7.330000	25.780278
7.340000	25.780278
7.350000	25.780278
7.360000	25.780278
7.370000	25.780278
7.380000	25.780278
7.390000	25.780278
7.400000	25.780278
7.410000	25.780278
7.420000	25.780278
7.430000	25.780278
7.440000	25.780278
7.450000	25.780278
7.460000	25.780278
7.470000	25.780278
7.480000	25.780278
7.490000	25.780278
7.500000	25.784769
7.510000	25.784769
7.520000	25.784769
7.530000	25.784769
7.540000	25.784769
7.550000	25.784769
7.560000	25.784769
7.570000	25.784769
7.580000	25.784769
7.590000	25.784769
7.600000	25.784769
7.610000	25.784769
7.620000	25.784769
7.630000	25.784769
7.640000	25.784769
7.650000	25.784769
7.660000	25.784769
7.670000	25.784769
7.680000	25.784769
7.690000	25.784769
7.700000	25.784769
7.710000	25.784769
7.720000	25.784769
7.730000	25.784769
7.740000	25.784769
7.750000	25.784769
7.760000	25.784769
7.770000	25.784769
7.780000	25.784769
7.790000	25.784769
7.800000	25.784769
7.810000	25.784769
7.820000	25.784769
7.830000	25.784769
7.840000	25.784769
7.850000	25.784769
7.860000	25.784769
7.870000	25.784769
7.880000	25.784769
7.890000	25.784769
7.900000	25.784769
7.910000	25.784769
7.920000	25.784769
7.930000	25.784769
7.940000	25.784769
7.950000	25.784769
7.960000	25.784769
7.970000	25.784769
7.980000	25.784769
7.990000	25.784769
8.000000	25.784532
8.010000	25.784532
8.020000	25.784532
8.030000	25.784532
8.040000	25.784532
8.050000	25.784532
8.060000	25.784532
8.070000	25.784532
8.080000	25.784532
8.090000	25.784532
8.100000	25.784532
8.110000	25.784532
8.120000	25.784532
8.130000	25.784532
8.140000	25.784532
8.150000	25.784532
8.160000	25.784532
8.170000	25.784532
8.180000	25.784532
8.190000	25.784532
8.200000	25.784532
8.210000	25.784532
8.220000	25.784532
8.230000	25.784532
8.240000	25.784532
8.250000	25.784532
8.260000	25.784532
8.270000	25.784532
8.280000	25.784532
8.290000	25.784532
8.300000	25.784532
8.310000	25.784532
8.320000	25.784532
8.330000	25.784532
8.340000	25.784532
8.350000	25.784532
8.360000	25.784532
8.370000	25.784532
8.380000	25.784532
8.390000	25.784532
8.400000	25.784532
8.410000	25.784532
8.420000	25.784532
8.430000	25.784532
8.440000	25.784532
8.450000	25.784532
8.460000	25.784532
8.470000	25.784532
8.480000	25.784532
8.490000	25.784532
8.500000	25.779098
8.510000	25.779098
8.520000	25.779098
8.530000	25.779098
8.540000	25.779098
8.550000	25.779098
8.560000	25.779098
8.570000	25.779098
8.580000	25.779098
8.590000	25.779098
8.600000	25.779098
8.610000	25.779098
8.620000	25.779098
8.630000	25.779098
8.640000	25.779098
8.650000	25.779098
8.660000	25.779098
8.670000	25.779098
8.680000	25.779098
8.690000	25.779098
8.700000	25.779098
8.710000	25.779098
8.720000	25.779098
8.730000	25.779098
8.740000	25.779098
8.750000	25.779098
8.760000	25.779098
8.770000	25.779098
8.780000	25.779098
8.790000	25.779098
8.800000	25.779098
8.810000	25.779098
8.820000	25.779098
8.830000	25.779098
8.840000	25.779098
8.850000	25.779098
8.860000	25.779098
8.870000	25.779098
8.880000	25.779098
8.890000	25.779098
8.900000	25.779098
8.910000	25.779098
8.920000	25.779098
8.930000	25.779098
8.940000	25.779098
8.950000	25.779098
8.960000	25.779098
8.970000	25.779098
8.980000	25.779098
8.990000	25.779098
9.000000	25.770183
9.010000	25.770183
9.020000	25.770183
9.030000	25.770183
9.040000	25.770183
9.050000	25.770183
9.060000	25.770183
9.070000	25.770183
9.080000	25.770183
9.090000	25.770183
9.100000	25.770183
9.110000	25.770183
9.120000	25.770183
9.130000	25.770183
9.140000	25.770183
9.150000	25.770183
9.160000	25.770183
9.170000	25.770183
9.180000	25.770183
9.190000	25.770183
9.200000	25.770183
9.210000	25.770183
9.220000	25.770183
9.230000	25.770183
9.240000	25.770183
9.250000	25.770183
9.260000	25.770183
9.270000	25.770183
9.280000	25.770183
9.290000	25.770183
9.300000	25.770183
9.310000	25.770183
9.320000	25.770183
9.330000	25.770183
9.340000	25.770183
9.350000	25.770183
9.360000	25.770183
9.370000	25.770183
9.380000	25.770183
9.390000	25.770183
9.400000	25.770183
9.410000	25.770183
9.420000	25.770183
9.430000	25.770183
9.440000	25.770183
9.450000	25.770183
9.460000	25.770183
9.470000	25.770183
9.480000	25.770183
9.490000	25.770183
9.500000	25.758463
9.510000	25.758463
9.520000	25.758463
9.530000	25.758463
9.540000	25.758463
9.550000	25.758463
9.560000	25.758463
9.570000	25.758463
9.580000	25.758463
9.590000	25.758463
9.600000	25.758463
9.610000	25.758463
9.620000	25.758463
9.630000	25.758463
9.640000	25.758463
9.650000	25.758463
9.660000	25.758463
9.670000	25.758463
9.680000	25.758463
9.690000	25.758463
9.700000	25.758463
9.710000	25.758463
9.720000	25.758463
9.730000	25.758463
9.740000	25.758463
9.750000	25.758463
9.760000	25.758463
9.770000	25.758463
9.780000	25.758463
9.790000	25.758463
9.800000	25.758463
9.810000	25.758463
9.820000	25.758463
9.830000	25.758463
9.840000	25.758463
9.850000	25.758463
9.860000	25.758463
9.870000	25.758463
9.880000	25.758463
9.890000	25.758463
9.900000	25.758463
9.910000	25.758463
9.920000	25.758463
9.930000	25.758463
9.940000	25.758463
9.950000	25.758463
9.960000	25.758463
9.970000	25.758463
9.980000	25.758463
9.990000	25.758463
10.000000	25.745407
10.010000	25.745407
10.020000	25.745407
10.030000	25.745407
10.040000	25.745407
10.050000	25.745407
10.060000	25.745407
10.070000	25.745407
10.080000	25.745407
10.090000	25.745407
10.100000	25.745407
10.110000	25.745407
10.120000	25.745407
10.130000	25.745407
10.140000	25.745407
10.150000	25.745407
10.160000	25.745407
10.170000	25.745407
10.180000	25.745407
10.190000	25.745407
10.200000	25.745407
10.210000	25.745407
10.220000	25.745407
10.230000	25.745407
10.240000	25.745407
10.250000	25.745407
10.260000	25.745407
10.270000	25.745407
10.280000	25.745407
10.290000	25.745407
10.300000	25.745407
10.310000	25.745407
10.320000	25.745407
10.330000	25.745407
10.340000	25.745407
10.350000	25.745407
10.360000	25.745407
10.370000	25.745407
10.380000	25.745407
10.390000	25.745407
10.400000	25.745407
10.410000	25.745407
10.420000	25.745407
10.430000	25.745407
10.440000	25.745407
10.450000	25.745407
10.460000	25.745407
10.470000	25.745407
10.480000	25.745407
10.490000	25.745407
10.500000	25.731064
10.510000	25.731064
10.520000	25.731064
10.530000	25.731064
10.540000	25.731064
10.550000	25.731064
10.560000	25.731064
10.570000	25.731064
10.580000	25.731064
10.590000	25.731064
10.600000	25.731064
10.610000	25.731064
10.620000	25.731064
10.630000	25.731064
10.640000	25.731064
10.650000	25.731064
10.660000	25.731064
10.670000	25.731064
10.680000	25.731064
10.690000	25.731064
10.700000	25.731064
10.710000	25.731064
10.720000	25.731064
10.730000	25.731064
10.740000	25.731064
10.750000	25.731064
10.760000	25.731064
10.770000	25.731064
10.780000	25.731064
10.790000	25.731064
10.800000	25.731064
10.810000	25.731064
10.820000	25.731064
10.830000	25.731064
10.840000	25.731064
10.850000	25.731064
10.860000	25.731064
10.870000	25.731064
10.880000	25.731064
10.890000	25.731064
10.900000	25.731064
10.910000	25.731064
10.920000	25.731064
10.930000	25.731064
10.940000	25.731064
10.950000	25.731064
10.960000	25.731064
10.970000	25.731064
10.980000	25.731064
10.990000	25.731064
11.000000	25.715425
11.010000	25.715425
11.020000	25.715425
11.030000	25.715425
11.040000	25.715425
11.050000	25.715425
11.060000	25.715425
11.070000	25.715425
11.080000	25.715425
11.090000	25.715425
11.100000	25.715425
11.110000	25.715425
11.120000	25.715425
11.130000	25.715425
11.140000	25.715425
11.150000	25.715425
11.160000	25.715425
11.170000	25.715425
11.180000	25.715425
11.190000	25.715425
11.200000	25.715425
11.210000	25.715425
11.220000	25.715425
11.230000	25.715425
11.240000	25.715425
11.250000	25.715425
11.260000	25.715425
11.270000	25.715425
11.280000	25.715425
11.290000	25.715425
11.300000	25.715425
11.310000	25.715425
11.320000	25.715425
11.330000	25.715425
11.340000	25.715425
11.350000	25.715425
11.360000	25.715425
11.370000	25.715425
11.380000	25.715425
11.390000	25.715425
11.400000	25.715425
11.410000	25.715425
11.420000	25.715425
11.430000	25.715425
11.440000	25.715425
11.450000	25.715425
11.460000	25.715425
11.470000	25.715425
11.480000	25.715425
11.490000	25.715425
11.500000	25.698727
11.510000	25.698727
11.520000	25.698727
11.530000	25.698727
11.540000	25.698727
11.550000	25.698727
11.560000	25.698727
11.570000	25.698727
11.580000	25.698727
11.590000	25.698727
11.600000	25.698727
11.610000	25.698727
11.620000	25.698727
11.630000	25.698727
11.640000	25.698727
11.650000	25.698727
11.660000	25.698727
11.670000	25.698727
11.680000	25.698727
11.690000	25.698727
11.700000	25.698727
11.710000	25.698727
11.720000	25.698727
11.730000	25.698727
11.740000	25.698727
11.750000	25.698727
11.760000	25.698727
11.770000	25.698727
11.780000	25.698727
11.790000	25.698727
11.800000	25.698727
11.810000	25.698727
11.820000	25.698727
11.830000	25.698727
11.840000	25.698727
11.850000	25.698727
11.860000	25.698727
11.870000	25.698727
11.880000	25.698727
11.890000	25.698727
11.900000	25.698727
11.910000	25.698727
11.920000	25.698727
11.930000	25.698727
11.940000	25.698727
11.950000	25.698727
11.960000	25.698727
11.970000	25.698727
11.980000	25.698727
11.990000	25.698727
12.000000	25.681163
12.010000	25.681163
12.020000	25.681163
12.030000	25.681163
12.040000	25.681163
12.050000	25.681163
12.060000	25.681163
12.070000	25.681163
12.080000	25.681163
12.090000	25.681163
12.100000	25.681163
12.110000	25.681163
12.120000	25.681163
12.130000	25.681163
12.140000	25.681163
12.150000	25.681163
12.160000	25.681163
12.170000	25.681163
12.180000	25.681163
12.190000	25.681163
12.200000	25.681163
12.210000	25.681163
12.220000	25.681163
12.230000	25.681163
12.240000	25.681163
12.250000	25.681163
12.260000	25.681163
12.270000	25.681163
12.280000	25.681163
12.290000	25.681163
12.300000	25.681163
12.310000	25.681163
12.320000	25.681163
12.330000	25.681163
12.340000	25.681163
12.350000	25.681163
12.360000	25.681163
12.370000	25.681163
12.380000	25.681163
12.390000	25.681163
12.400000	25.681163
12.410000	25.681163
12.420000	25.681163
12.430000	25.681163
12.440000	25.681163
12.450000	25.681163
12.460000	25.681163
12.470000	25.681163
12.480000	25.681163
12.490000	25.681163
12.500000	25.662479
12.510000	25.662479
12.520000	25.662479
12.530000	25.662479
12.540000	25.662479
12.550000	25.662479
12.560000	25.662479
12.570000	25.662479
12.580000	25.662479
12.590000	25.662479
12.600000	25.662479
12.610000	25.662479
12.620000	25.662479
12.630000	25.662479
12.640000	25.662479
12.650000	25.662479
12.660000	25.662479
12.670000	25.662479
12.680000	25.662479
12.690000	25.662479
12.700000	25.662479
12.710000	25.662479
12.720000	25.662479
12.730000	25.662479
12.740000	25.662479
12.750000	25.662479
12.760000	25.662479
12.770000	25.662479
12.780000	25.662479
12.790000	25.662479
12.800000	25.662479
12.810000	25.662479
12.820000	25.662479
12.830000	25.662479
12.840000	25.662479
12.850000	25.662479
12.860000	25.662479
12.870000	25.662479
12.880000	25.662479
12.890000	25.662479
12.900000	25.662479
12.910000	25.662479
12.920000	25.662479
12.930000	25.662479
12.940000	25.662479
12.950000	25.662479
12.960000	25.662479
12.970000	25.662479
12.980000	25.662479
12.990000	25.662479
13.000000	25.643771
13.010000	25.643771
13.020000	25.643771
13.030000	25.643771
13.040000	25.643771
13.050000	25.643771
13.060000	25.643771
13.070000	25.643771
13.080000	25.643771
13.090000	25.643771
13.100000	25.643771
13.110000	25.643771
13.120000	25.643771
13.130000	25.643771
13.140000	25.643771
13.150000	25.643771
13.160000	25.643771
13.170000	25.643771
13.180000	25.643771
13.190000	25.643771
13.200000	25.643771
13.210000	25.643771
13.220000	25.643771
13.230000	25.643771
13.240000	25.643771
13.250000	25.643771
13.260000	25.643771
13.270000	25.643771
13.280000	25.643771
13.290000	25.643771
13.300000	25.643771
13.310000	25.643771
13.320000	25.643771
13.330000	25.643771
13.340000	25.643771
13.350000	25.643771
13.360000	25.643771
13.370000	25.643771
13.380000	25.643771
13.390000	25.643771
13.400000	25.643771
13.410000	25.643771
13.420000	25.643771
13.430000	25.643771
13.440000	25.643771
13.450000	25.643771
13.460000	25.643771
13.470000	25.643771
13.480000	25.643771
13.490000	25.643771
13.500000	25.625609
13.510000	25.625609
13.520000	25.625609
13.530000	25.625609
13.540000	25.625609
13.550000	25.625609
13.560000	25.625609
13.570000	25.625609
13.580000	25.625609
13.590000	25.625609
13.600000	25.625609
13.610000	25.625609
13.620000	25.625609
13.630000	25.625609
13.640000	25.625609
13.650000	25.625609
13.660000	25.625609
13.670000	25.625609
13.680000	25.625609
13.690000	25.625609
13.700000	25.625609
13.710000	25.625609
13.720000	25.625609
13.730000	25.625609
13.740000	25.625609
13.750000	25.625609
13.760000	25.625609
13.770000	25.625609
13.780000	25.625609
13.790000	25.625609
13.800000	25.625609
13.810000	25.625609
13.820000	25.625609
13.830000	25.625609
13.840000	25.625609
13.850000	25.625609
13.860000	25.625609
13.870000	25.625609
13.880000	25.625609
13.890000	25.625609
13.900000	25.625609
13.910000	25.625609
13.920000	25.625609
13.930000	25.625609
13.940000	25.625609
13.950000	25.625609
13.960000	25.625609
13.970000	25.625609
13.980000	25.625609
13.990000	25.625609
14.000000	25.607286
14.010000	25.607286
14.020000	25.607286
14.030000	25.607286
14.040000	25.607286
14.050000	25.607286
14.060000	25.607286
14.070000	25.607286
14.080000	25.607286
14.090000	25.607286
14.100000	25.607286
14.110000	25.607286
14.120000	25.607286
14.130000	25.607286
14.140000	25.607286
14.150000	25.607286
14.160000	25.607286
14.170000	25.607286
14.180000	25.607286
14.190000	25.607286
14.200000	25.607286
14.210000	25.607286
14.220000	25.607286
14.230000	25.607286
14.240000	25.607286
14.250000	25.607286
14.260000	25.607286
14.270000	25.607286
14.280000	25.607286
14.290000	25.607286
14.300000	25.607286
14.310000	25.607286
14.320000	25.607286
14.330000	25.607286
14.340000	25.607286
14.350000	25.607286
14.360000	25.607286
14.370000	25.607286
14.380000	25.607286
14.390000	25.607286
14.400000	25.607286
14.410000	25.607286
14.420000	25.607286
14.430000	25.607286
14.440000	25.607286
14.450000	25.607286
14.460000	25.607286
14.470000	25.607286
14.480000	25.607286
14.490000	25.607286
14.500000	25.588975
14.510000	25.588975
14.520000	25.588975
14.530000	25.588975
14.540000	25.588975
14.550000	25.588975
14.560000	25.588975
14.570000	25.588975
14.580000	25.588975
14.590000	25.588975
14.600000	25.588975
14.610000	25.588975
14.620000	25.588975
14.630000	25.588975
14.640000	25.588975
14.650000	25.588975
14.660000	25.588975
14.670000	25.588975
14.680000	25.588975
14.690000	25.588975
14.700000	25.588975
14.710000	25.588975
14.720000	25.588975
14.730000	25.588975
14.740000	25.588975
14.750000	25.588975
14.760000	25.588975
14.770000	25.588975
14.780000	25.588975
14.790000	25.588975
14.800000	25.588975
14.810000	25.588975
14.820000	25.588975
14.830000	25.588975
14.840000	25.588975
14.850000	25.588975
14.860000	25.588975
14.870000	25.588975
14.880000	25.588975
14.890000	25.588975
14.900000	25.588975
14.910000	25.588975
14.920000	25.588975
14.930000	25.588975
14.940000	25.588975
14.950000	25.588975
14.960000	25.588975
14.970000	25.588975
14.980000	25.588975
14.990000	25.588975
15.000000	25.571176
15.010000	25.571176
15.020000	25.571176
15.030000	25.571176
15.040000	25.571176
15.050000	25.571176
15.060000	25.571176
15.070000	25.571176
15.080000	25.571176
15.090000	25.571176
15.100000	25.571176
15.110000	25.571176
15.120000	25.571176
15.130000	25.571176
15.140000	25.571176
15.150000	25.571176
15.160000	25.571176
15.170000	25.571176
15.180000	25.571176
15.190000	25.571176
15.200000	25.571176
15.210000	25.571176
15.220000	25.571176
15.230000	25.571176
15.240000	25.571176
15.250000	25.571176
15.260000	25.571176
15.270000	25.571176
15.280000	25.571176
15.290000	25.571176
15.300000	25.571176
15.310000	25.571176
15.320000	25.571176
15.330000	25.571176
15.340000	25.571176
15.350000	25.571176
15.360000	25.571176
15.370000	25.571176
15.380000	25.571176
15.390000	25.571176
15.400000	25.571176
15.410000	25.571176
15.420000	25.571176
15.430000	25.571176
15.440000	25.571176
15.450000	25.571176
15.460000	25.571176
15.470000	25.571176
15.480000	25.571176
15.490000	25.571176
15.500000	25.553516
15.510000	25.553516
15.520000	25.553516
15.530000	25.553516
15.540000	25.553516
15.550000	25.553516
15.560000	25.553516
15.570000	25.553516
15.580000	25.553516
15.590000	25.553516
15.600000	25.553516
15.610000	25.553516
15.620000	25.553516
15.630000	25.553516
15.640000	25.553516
15.650000	25.553516
15.660000	25.553516
15.670000	25.553516
15.680000	25.553516
15.690000	25.553516
15.700000	25.553516
15.710000	25.553516
15.720000	25.553516
15.730000	25.553516
15.740000	25.553516
15.750000	25.553516
15.760000	25.553516
15.770000	25.553516
15.780000	25.553516
15.790000	25.553516
15.800000	25.553516
15.810000	25.553516
15.820000	25.553516
15.830000	25.553516
15.840000	25.553516
15.850000	25.553516
15.860000	25.553516
15.870000	25.553516
15.880000	25.553516
15.890000	25.553516
15.900000	25.553516
15.910000	25.553516
15.920000	25.553516
15.930000	25.553516
15.940000	25.553516
15.950000	25.553516
15.960000	25.553516
15.970000	25.553516
15.980000	25.553516
15.990000	25.553516
16.000000	25.536310
16.010000	25.536310
16.020000	25.536310
16.030000	25.536310
16.040000	25.536310
16.050000	25.536310
16.060000	25.536310
16.070000	25.536310
16.080000	25.536310
16.090000	25.536310
16.100000	25.536310
16.110000	25.536310
16.120000	25.536310
16.130000	25.536310
16.140000	25.536310
16.150000	25.536310
16.160000	25.536310
16.170000	25.536310
16.180000	25.536310
16.190000	25.536310
16.200000	25.536310
16.210000	25.536310
16.220000	25.536310
16.230000	25.536310
16.240000	25.536310
16.250000	25.536310
16.260000	25.536310
16.270000	25.536310
16.280000	25.536310
16.290000	25.536310
16.300000	25.536310
16.310000	25.536310
16.320000	25.536310
16.330000	25.536310
16.340000	25.536310
16.350000	25.536310
16.360000	25.536310
16.370000	25.536310
16.380000	25.536310
16.390000	25.536310
16.400000	25.536310
16.410000	25.536310
16.420000	25.536310
16.430000	25.536310
16.440000	25.536310
16.450000	25.536310
16.460000	25.536310
16.470000	25.536310
16.480000	25.536310
16.490000	25.536310
16.500000	25.519355
16.510000	25.519355
16.520000	25.519355
16.530000	25.519355
16.540000	25.519355
16.550000	25.519355
16.560000	25.519355
16.570000	25.519355
16.580000	25.519355
16.590000	25.519355
16.600000	25.519355
16.610000	25.519355
16.620000	25.519355
16.630000	25.519355
16.640000	25.519355
16.650000	25.519355
16.660000	25.519355
16.670000	25.519355
16.680000	25.519355
16.690000	25.519355
16.700000	25.519355
16.710000	25.519355
16.720000	25.519355
16.730000	25.519355
16.740000	25.519355
16.750000	25.519355
16.760000	25.519355
16.770000	25.519355
16.780000	25.519355
16.790000	25.519355
16.800000	25.519355
16.810000	25.519355
16.820000	25.519355
16.830000	25.519355
16.840000	25.519355
16.850000	25.519355
16.860000	25.519355
16.870000	25.519355
16.880000	25.519355
16.890000	25.519355
16.900000	25.519355
16.910000	25.519355
16.920000	25.519355
16.930000	25.519355
16.940000	25.519355
16.950000	25.519355
16.960000	25.519355
16.970000	25.519355
16.980000	25.519355
16.990000	25.519355
17.000000	25.502316
17.010000	25.502316
17.020000	25.502316
17.030000	25.502316
17.040000	25.502316
17.050000	25.502316
17.060000	25.502316
17.070000	25.502316
17.080000	25.502316
17.090000	25.502316
17.100000	25.502316
17.110000	25.502316
17.120000	25.502316
17.130000	25.502316
17.140000	25.502316
17.150000	25.502316
17.160000	25.502316
17.170000	25.502316
17.180000	25.502316
17.190000	25.502316
17.200000	25.502316
17.210000	25.502316
17.220000	25.502316
17.230000	25.502316
17.240000	25.502316
17.250000	25.502316
17.260000	25.502316
17.270000	25.502316
17.280000	25.502316
17.290000	25.502316
17.300000	25.502316
17.310000	25.502316
17.320000	25.502316
17.330000	25.502316
17.340000	25.502316
17.350000	25.502316
17.360000	25.502316
17.370000	25.502316
17.380000	25.502316
17.390000	25.502316
17.400000	25.502316
17.410000	25.502316
17.420000	25.502316
17.430000	25.502316
17.440000	25.502316
17.450000	25.502316
17.460000	25.502316
17.470000	25.502316
17.480000	25.502316
17.490000	25.502316
17.500000	25.484956
17.510000	25.484956
17.520000	25.484956
17.530000	25.484956
17.540000	25.484956
17.550000	25.484956
17.560000	25.484956
17.570000	25.484956
17.580000	25.484956
17.590000	25.484956
17.600000	25.484956
17.610000	25.484956
17.620000	25.484956
17.630000	25.484956
17.640000	25.484956
17.650000	25.484956
17.660000	25.484956
17.670000	25.484956
17.680000	25.484956
17.690000	25.484956
17.700000	25.484956
17.710000	25.484956
17.720000	25.484956
17.730000	25.484956
17.740000	25.484956
17.750000	25.484956
17.760000	25.484956
17.770000	25.484956
17.780000	25.484956
17.790000	25.484956
17.800000	25.484956
17.810000	25.484956
17.820000	25.484956
17.830000	25.484956
17.840000	25.484956
17.850000	25.484956
17.860000	25.484956
17.870000	25.484956
17.880000	25.484956
17.890000	25.484956
17.900000	25.484956
17.910000	25.484956
17.920000	25.484956
17.930000	25.484956
17.940000	25.484956
17.950000	25.484956
17.960000	25.484956
17.970000	25.484956
17.980000	25.484956
17.990000	25.484956
