LabVIEW Measurement	
Writer_Version	2
Reader_Version	2
Separator	Tab
Decimal_Separator	.
Multi_Headings	No
X_Columns	One
Time_Pref	Absolute
Operator	biomech-dyno
Date	2023/05/24
Time	15:19:49.9492761999999796612
***End_of_Header***	
	
Channels	1	
Samples	10	
Date	2023/05/24	
Time	16:12:53.5376460999996750067	
X_Dimension	Time	
X0	0.0000000000000000E+0	
Delta_X	0.010000	
***End_of_Header***		
X_Value	Untitled	Comment
0.000000	24.754348
0.010000	24.754348
0.020000	24.754348
0.030000	24.754348
0.040000	24.754348
0.050000	24.754348
0.060000	24.754348
0.070000	24.754348
0.080000	24.754348
0.090000	24.754348
0.100000	24.754348
0.110000	24.754348
0.120000	24.754348
0.130000	24.754348
0.140000	24.754348
0.150000	24.754348
0.160000	24.754348
0.170000	24.754348
0.180000	24.754348
0.190000	24.754348
0.200000	24.754348
0.210000	24.754348
0.220000	24.754348
0.230000	24.754348
0.240000	24.754348
0.250000	24.754348
0.260000	24.754348
0.270000	24.754348
0.280000	24.754348
0.290000	24.754348
0.300000	24.754348
0.310000	24.754348
0.320000	24.754348
0.330000	24.754348
0.340000	24.754348
0.350000	24.754348
0.360000	24.754348
0.370000	24.754348
0.380000	24.754348
0.390000	24.754348
0.400000	24.754348
0.410000	24.754348
0.420000	24.754348
0.430000	24.754348
0.440000	24.754348
0.450000	24.754348
0.460000	24.754348
0.470000	24.754348
0.480000	24.754348
0.490000	24.754348
0.500000	24.768418
0.510000	24.768418
0.520000	24.768418
0.530000	24.768418
0.540000	24.768418
0.550000	24.768418
0.560000	24.768418
0.570000	24.768418
0.580000	24.768418
0.590000	24.768418
0.600000	24.768418
0.610000	24.768418
0.620000	24.768418
0.630000	24.768418
0.640000	24.768418
0.650000	24.768418
0.660000	24.768418
0.670000	24.768418
0.680000	24.768418
0.690000	24.768418
0.700000	24.768418
0.710000	24.768418
0.720000	24.768418
0.730000	24.768418
0.740000	24.768418
0.750000	24.768418
0.760000	24.768418
0.770000	24.768418
0.780000	24.768418
0.790000	24.768418
0.800000	24.768418
0.810000	24.768418
0.820000	24.768418
0.830000	24.768418
0.840000	24.768418
0.850000	24.768418
0.860000	24.768418
0.870000	24.768418
0.880000	24.768418
0.890000	24.768418
0.900000	24.768418
0.910000	24.768418
0.920000	24.768418
0.930000	24.768418
0.940000	24.768418
0.950000	24.768418
0.960000	24.768418
0.970000	24.768418
0.980000	24.768418
0.990000	24.768418
1.000000	24.841850
1.010000	24.841850
1.020000	24.841850
1.030000	24.841850
1.040000	24.841850
1.050000	24.841850
1.060000	24.841850
1.070000	24.841850
1.080000	24.841850
1.090000	24.841850
1.100000	24.841850
1.110000	24.841850
1.120000	24.841850
1.130000	24.841850
1.140000	24.841850
1.150000	24.841850
1.160000	24.841850
1.170000	24.841850
1.180000	24.841850
1.190000	24.841850
1.200000	24.841850
1.210000	24.841850
1.220000	24.841850
1.230000	24.841850
1.240000	24.841850
1.250000	24.841850
1.260000	24.841850
1.270000	24.841850
1.280000	24.841850
1.290000	24.841850
1.300000	24.841850
1.310000	24.841850
1.320000	24.841850
1.330000	24.841850
1.340000	24.841850
1.350000	24.841850
1.360000	24.841850
1.370000	24.841850
1.380000	24.841850
1.390000	24.841850
1.400000	24.841850
1.410000	24.841850
1.420000	24.841850
1.430000	24.841850
1.440000	24.841850
1.450000	24.841850
1.460000	24.841850
1.470000	24.841850
1.480000	24.841850
1.490000	24.841850
1.500000	25.007650
1.510000	25.007650
1.520000	25.007650
1.530000	25.007650
1.540000	25.007650
1.550000	25.007650
1.560000	25.007650
1.570000	25.007650
1.580000	25.007650
1.590000	25.007650
1.600000	25.007650
1.610000	25.007650
1.620000	25.007650
1.630000	25.007650
1.640000	25.007650
1.650000	25.007650
1.660000	25.007650
1.670000	25.007650
1.680000	25.007650
1.690000	25.007650
1.700000	25.007650
1.710000	25.007650
1.720000	25.007650
1.730000	25.007650
1.740000	25.007650
1.750000	25.007650
1.760000	25.007650
1.770000	25.007650
1.780000	25.007650
1.790000	25.007650
1.800000	25.007650
1.810000	25.007650
1.820000	25.007650
1.830000	25.007650
1.840000	25.007650
1.850000	25.007650
1.860000	25.007650
1.870000	25.007650
1.880000	25.007650
1.890000	25.007650
1.900000	25.007650
1.910000	25.007650
1.920000	25.007650
1.930000	25.007650
1.940000	25.007650
1.950000	25.007650
1.960000	25.007650
1.970000	25.007650
1.980000	25.007650
1.990000	25.007650
2.000000	25.255570
2.010000	25.255570
2.020000	25.255570
2.030000	25.255570
2.040000	25.255570
2.050000	25.255570
2.060000	25.255570
2.070000	25.255570
2.080000	25.255570
2.090000	25.255570
2.100000	25.255570
2.110000	25.255570
2.120000	25.255570
2.130000	25.255570
2.140000	25.255570
2.150000	25.255570
2.160000	25.255570
2.170000	25.255570
2.180000	25.255570
2.190000	25.255570
2.200000	25.255570
2.210000	25.255570
2.220000	25.255570
2.230000	25.255570
2.240000	25.255570
2.250000	25.255570
2.260000	25.255570
2.270000	25.255570
2.280000	25.255570
2.290000	25.255570
2.300000	25.255570
2.310000	25.255570
2.320000	25.255570
2.330000	25.255570
2.340000	25.255570
2.350000	25.255570
2.360000	25.255570
2.370000	25.255570
2.380000	25.255570
2.390000	25.255570
2.400000	25.255570
2.410000	25.255570
2.420000	25.255570
2.430000	25.255570
2.440000	25.255570
2.450000	25.255570
2.460000	25.255570
2.470000	25.255570
2.480000	25.255570
2.490000	25.255570
2.500000	25.558215
2.510000	25.558215
2.520000	25.558215
2.530000	25.558215
2.540000	25.558215
2.550000	25.558215
2.560000	25.558215
2.570000	25.558215
2.580000	25.558215
2.590000	25.558215
2.600000	25.558215
2.610000	25.558215
2.620000	25.558215
2.630000	25.558215
2.640000	25.558215
2.650000	25.558215
2.660000	25.558215
2.670000	25.558215
2.680000	25.558215
2.690000	25.558215
2.700000	25.558215
2.710000	25.558215
2.720000	25.558215
2.730000	25.558215
2.740000	25.558215
2.750000	25.558215
2.760000	25.558215
2.770000	25.558215
2.780000	25.558215
2.790000	25.558215
2.800000	25.558215
2.810000	25.558215
2.820000	25.558215
2.830000	25.558215
2.840000	25.558215
2.850000	25.558215
2.860000	25.558215
2.870000	25.558215
2.880000	25.558215
2.890000	25.558215
2.900000	25.558215
2.910000	25.558215
2.920000	25.558215
2.930000	25.558215
2.940000	25.558215
2.950000	25.558215
2.960000	25.558215
2.970000	25.558215
2.980000	25.558215
2.990000	25.558215
3.000000	25.901720
3.010000	25.901720
3.020000	25.901720
3.030000	25.901720
3.040000	25.901720
3.050000	25.901720
3.060000	25.901720
3.070000	25.901720
3.080000	25.901720
3.090000	25.901720
3.100000	25.901720
3.110000	25.901720
3.120000	25.901720
3.130000	25.901720
3.140000	25.901720
3.150000	25.901720
3.160000	25.901720
3.170000	25.901720
3.180000	25.901720
3.190000	25.901720
3.200000	25.901720
3.210000	25.901720
3.220000	25.901720
3.230000	25.901720
3.240000	25.901720
3.250000	25.901720
3.260000	25.901720
3.270000	25.901720
3.280000	25.901720
3.290000	25.901720
3.300000	25.901720
3.310000	25.901720
3.320000	25.901720
3.330000	25.901720
3.340000	25.901720
3.350000	25.901720
3.360000	25.901720
3.370000	25.901720
3.380000	25.901720
3.390000	25.901720
3.400000	25.901720
3.410000	25.901720
3.420000	25.901720
3.430000	25.901720
3.440000	25.901720
3.450000	25.901720
3.460000	25.901720
3.470000	25.901720
3.480000	25.901720
3.490000	25.901720
3.500000	26.254048
3.510000	26.254048
3.520000	26.254048
3.530000	26.254048
3.540000	26.254048
3.550000	26.254048
3.560000	26.254048
3.570000	26.254048
3.580000	26.254048
3.590000	26.254048
3.600000	26.254048
3.610000	26.254048
3.620000	26.254048
3.630000	26.254048
3.640000	26.254048
3.650000	26.254048
3.660000	26.254048
3.670000	26.254048
3.680000	26.254048
3.690000	26.254048
3.700000	26.254048
3.710000	26.254048
3.720000	26.254048
3.730000	26.254048
3.740000	26.254048
3.750000	26.254048
3.760000	26.254048
3.770000	26.254048
3.780000	26.254048
3.790000	26.254048
3.800000	26.254048
3.810000	26.254048
3.820000	26.254048
3.830000	26.254048
3.840000	26.254048
3.850000	26.254048
3.860000	26.254048
3.870000	26.254048
3.880000	26.254048
3.890000	26.254048
3.900000	26.254048
3.910000	26.254048
3.920000	26.254048
3.930000	26.254048
3.940000	26.254048
3.950000	26.254048
3.960000	26.254048
3.970000	26.254048
3.980000	26.254048
3.990000	26.254048
4.000000	26.540812
4.010000	26.540812
4.020000	26.540812
4.030000	26.540812
4.040000	26.540812
4.050000	26.540812
4.060000	26.540812
4.070000	26.540812
4.080000	26.540812
4.090000	26.540812
4.100000	26.540812
4.110000	26.540812
4.120000	26.540812
4.130000	26.540812
4.140000	26.540812
4.150000	26.540812
4.160000	26.540812
4.170000	26.540812
4.180000	26.540812
4.190000	26.540812
4.200000	26.540812
4.210000	26.540812
4.220000	26.540812
4.230000	26.540812
4.240000	26.540812
4.250000	26.540812
4.260000	26.540812
4.270000	26.540812
4.280000	26.540812
4.290000	26.540812
4.300000	26.540812
4.310000	26.540812
4.320000	26.540812
4.330000	26.540812
4.340000	26.540812
4.350000	26.540812
4.360000	26.540812
4.370000	26.540812
4.380000	26.540812
4.390000	26.540812
4.400000	26.540812
4.410000	26.540812
4.420000	26.540812
4.430000	26.540812
4.440000	26.540812
4.450000	26.540812
4.460000	26.540812
4.470000	26.540812
4.480000	26.540812
4.490000	26.540812
4.500000	26.750034
4.510000	26.750034
4.520000	26.750034
4.530000	26.750034
4.540000	26.750034
4.550000	26.750034
4.560000	26.750034
4.570000	26.750034
4.580000	26.750034
4.590000	26.750034
4.600000	26.750034
4.610000	26.750034
4.620000	26.750034
4.630000	26.750034
4.640000	26.750034
4.650000	26.750034
4.660000	26.750034
4.670000	26.750034
4.680000	26.750034
4.690000	26.750034
4.700000	26.750034
4.710000	26.750034
4.720000	26.750034
4.730000	26.750034
4.740000	26.750034
4.750000	26.750034
4.760000	26.750034
4.770000	26.750034
4.780000	26.750034
4.790000	26.750034
4.800000	26.750034
4.810000	26.750034
4.820000	26.750034
4.830000	26.750034
4.840000	26.750034
4.850000	26.750034
4.860000	26.750034
4.870000	26.750034
4.880000	26.750034
4.890000	26.750034
4.900000	26.750034
4.910000	26.750034
4.920000	26.750034
4.930000	26.750034
4.940000	26.750034
4.950000	26.750034
4.960000	26.750034
4.970000	26.750034
4.980000	26.750034
4.990000	26.750034
5.000000	26.899765
5.010000	26.899765
5.020000	26.899765
5.030000	26.899765
5.040000	26.899765
5.050000	26.899765
5.060000	26.899765
5.070000	26.899765
5.080000	26.899765
5.090000	26.899765
5.100000	26.899765
5.110000	26.899765
5.120000	26.899765
5.130000	26.899765
5.140000	26.899765
5.150000	26.899765
5.160000	26.899765
5.170000	26.899765
5.180000	26.899765
5.190000	26.899765
5.200000	26.899765
5.210000	26.899765
5.220000	26.899765
5.230000	26.899765
5.240000	26.899765
5.250000	26.899765
5.260000	26.899765
5.270000	26.899765
5.280000	26.899765
5.290000	26.899765
5.300000	26.899765
5.310000	26.899765
5.320000	26.899765
5.330000	26.899765
5.340000	26.899765
5.350000	26.899765
5.360000	26.899765
5.370000	26.899765
5.380000	26.899765
5.390000	26.899765
5.400000	26.899765
5.410000	26.899765
5.420000	26.899765
5.430000	26.899765
5.440000	26.899765
5.450000	26.899765
5.460000	26.899765
5.470000	26.899765
5.480000	26.899765
5.490000	26.899765
5.500000	27.002036
5.510000	27.002036
5.520000	27.002036
5.530000	27.002036
5.540000	27.002036
5.550000	27.002036
5.560000	27.002036
5.570000	27.002036
5.580000	27.002036
5.590000	27.002036
5.600000	27.002036
5.610000	27.002036
5.620000	27.002036
5.630000	27.002036
5.640000	27.002036
5.650000	27.002036
5.660000	27.002036
5.670000	27.002036
5.680000	27.002036
5.690000	27.002036
5.700000	27.002036
5.710000	27.002036
5.720000	27.002036
5.730000	27.002036
5.740000	27.002036
5.750000	27.002036
5.760000	27.002036
5.770000	27.002036
5.780000	27.002036
5.790000	27.002036
5.800000	27.002036
5.810000	27.002036
5.820000	27.002036
5.830000	27.002036
5.840000	27.002036
5.850000	27.002036
5.860000	27.002036
5.870000	27.002036
5.880000	27.002036
5.890000	27.002036
5.900000	27.002036
5.910000	27.002036
5.920000	27.002036
5.930000	27.002036
5.940000	27.002036
5.950000	27.002036
5.960000	27.002036
5.970000	27.002036
5.980000	27.002036
5.990000	27.002036
6.000000	27.069330
6.010000	27.069330
6.020000	27.069330
6.030000	27.069330
6.040000	27.069330
6.050000	27.069330
6.060000	27.069330
6.070000	27.069330
6.080000	27.069330
6.090000	27.069330
6.100000	27.069330
6.110000	27.069330
6.120000	27.069330
6.130000	27.069330
6.140000	27.069330
6.150000	27.069330
6.160000	27.069330
6.170000	27.069330
6.180000	27.069330
6.190000	27.069330
6.200000	27.069330
6.210000	27.069330
6.220000	27.069330
6.230000	27.069330
6.240000	27.069330
6.250000	27.069330
6.260000	27.069330
6.270000	27.069330
6.280000	27.069330
6.290000	27.069330
6.300000	27.069330
6.310000	27.069330
6.320000	27.069330
6.330000	27.069330
6.340000	27.069330
6.350000	27.069330
6.360000	27.069330
6.370000	27.069330
6.380000	27.069330
6.390000	27.069330
6.400000	27.069330
6.410000	27.069330
6.420000	27.069330
6.430000	27.069330
6.440000	27.069330
6.450000	27.069330
6.460000	27.069330
6.470000	27.069330
6.480000	27.069330
6.490000	27.069330
6.500000	27.110376
6.510000	27.110376
6.520000	27.110376
6.530000	27.110376
6.540000	27.110376
6.550000	27.110376
6.560000	27.110376
6.570000	27.110376
6.580000	27.110376
6.590000	27.110376
6.600000	27.110376
6.610000	27.110376
6.620000	27.110376
6.630000	27.110376
6.640000	27.110376
6.650000	27.110376
6.660000	27.110376
6.670000	27.110376
6.680000	27.110376
6.690000	27.110376
6.700000	27.110376
6.710000	27.110376
6.720000	27.110376
6.730000	27.110376
6.740000	27.110376
6.750000	27.110376
6.760000	27.110376
6.770000	27.110376
6.780000	27.110376
6.790000	27.110376
6.800000	27.110376
6.810000	27.110376
6.820000	27.110376
6.830000	27.110376
6.840000	27.110376
6.850000	27.110376
6.860000	27.110376
6.870000	27.110376
6.880000	27.110376
6.890000	27.110376
6.900000	27.110376
6.910000	27.110376
6.920000	27.110376
6.930000	27.110376
6.940000	27.110376
6.950000	27.110376
6.960000	27.110376
6.970000	27.110376
6.980000	27.110376
6.990000	27.110376
7.000000	27.130866
7.010000	27.130866
7.020000	27.130866
7.030000	27.130866
7.040000	27.130866
7.050000	27.130866
7.060000	27.130866
7.070000	27.130866
7.080000	27.130866
7.090000	27.130866
7.100000	27.130866
7.110000	27.130866
7.120000	27.130866
7.130000	27.130866
7.140000	27.130866
7.150000	27.130866
7.160000	27.130866
7.170000	27.130866
7.180000	27.130866
7.190000	27.130866
7.200000	27.130866
7.210000	27.130866
7.220000	27.130866
7.230000	27.130866
7.240000	27.130866
7.250000	27.130866
7.260000	27.130866
7.270000	27.130866
7.280000	27.130866
7.290000	27.130866
7.300000	27.130866
7.310000	27.130866
7.320000	27.130866
7.330000	27.130866
7.340000	27.130866
7.350000	27.130866
7.360000	27.130866
7.370000	27.130866
7.380000	27.130866
7.390000	27.130866
7.400000	27.130866
7.410000	27.130866
7.420000	27.130866
7.430000	27.130866
7.440000	27.130866
7.450000	27.130866
7.460000	27.130866
7.470000	27.130866
7.480000	27.130866
7.490000	27.130866
7.500000	27.135189
7.510000	27.135189
7.520000	27.135189
7.530000	27.135189
7.540000	27.135189
7.550000	27.135189
7.560000	27.135189
7.570000	27.135189
7.580000	27.135189
7.590000	27.135189
7.600000	27.135189
7.610000	27.135189
7.620000	27.135189
7.630000	27.135189
7.640000	27.135189
7.650000	27.135189
7.660000	27.135189
7.670000	27.135189
7.680000	27.135189
7.690000	27.135189
7.700000	27.135189
7.710000	27.135189
7.720000	27.135189
7.730000	27.135189
7.740000	27.135189
7.750000	27.135189
7.760000	27.135189
7.770000	27.135189
7.780000	27.135189
7.790000	27.135189
7.800000	27.135189
7.810000	27.135189
7.820000	27.135189
7.830000	27.135189
7.840000	27.135189
7.850000	27.135189
7.860000	27.135189
7.870000	27.135189
7.880000	27.135189
7.890000	27.135189
7.900000	27.135189
7.910000	27.135189
7.920000	27.135189
7.930000	27.135189
7.940000	27.135189
7.950000	27.135189
7.960000	27.135189
7.970000	27.135189
7.980000	27.135189
7.990000	27.135189
8.000000	27.127683
8.010000	27.127683
8.020000	27.127683
8.030000	27.127683
8.040000	27.127683
8.050000	27.127683
8.060000	27.127683
8.070000	27.127683
8.080000	27.127683
8.090000	27.127683
8.100000	27.127683
8.110000	27.127683
8.120000	27.127683
8.130000	27.127683
8.140000	27.127683
8.150000	27.127683
8.160000	27.127683
8.170000	27.127683
8.180000	27.127683
8.190000	27.127683
8.200000	27.127683
8.210000	27.127683
8.220000	27.127683
8.230000	27.127683
8.240000	27.127683
8.250000	27.127683
8.260000	27.127683
8.270000	27.127683
8.280000	27.127683
8.290000	27.127683
8.300000	27.127683
8.310000	27.127683
8.320000	27.127683
8.330000	27.127683
8.340000	27.127683
8.350000	27.127683
8.360000	27.127683
8.370000	27.127683
8.380000	27.127683
8.390000	27.127683
8.400000	27.127683
8.410000	27.127683
8.420000	27.127683
8.430000	27.127683
8.440000	27.127683
8.450000	27.127683
8.460000	27.127683
8.470000	27.127683
8.480000	27.127683
8.490000	27.127683
8.500000	27.112716
8.510000	27.112716
8.520000	27.112716
8.530000	27.112716
8.540000	27.112716
8.550000	27.112716
8.560000	27.112716
8.570000	27.112716
8.580000	27.112716
8.590000	27.112716
8.600000	27.112716
8.610000	27.112716
8.620000	27.112716
8.630000	27.112716
8.640000	27.112716
8.650000	27.112716
8.660000	27.112716
8.670000	27.112716
8.680000	27.112716
8.690000	27.112716
8.700000	27.112716
8.710000	27.112716
8.720000	27.112716
8.730000	27.112716
8.740000	27.112716
8.750000	27.112716
8.760000	27.112716
8.770000	27.112716
8.780000	27.112716
8.790000	27.112716
8.800000	27.112716
8.810000	27.112716
8.820000	27.112716
8.830000	27.112716
8.840000	27.112716
8.850000	27.112716
8.860000	27.112716
8.870000	27.112716
8.880000	27.112716
8.890000	27.112716
8.900000	27.112716
8.910000	27.112716
8.920000	27.112716
8.930000	27.112716
8.940000	27.112716
8.950000	27.112716
8.960000	27.112716
8.970000	27.112716
8.980000	27.112716
8.990000	27.112716
9.000000	27.089795
9.010000	27.089795
9.020000	27.089795
9.030000	27.089795
9.040000	27.089795
9.050000	27.089795
9.060000	27.089795
9.070000	27.089795
9.080000	27.089795
9.090000	27.089795
9.100000	27.089795
9.110000	27.089795
9.120000	27.089795
9.130000	27.089795
9.140000	27.089795
9.150000	27.089795
9.160000	27.089795
9.170000	27.089795
9.180000	27.089795
9.190000	27.089795
9.200000	27.089795
9.210000	27.089795
9.220000	27.089795
9.230000	27.089795
9.240000	27.089795
9.250000	27.089795
9.260000	27.089795
9.270000	27.089795
9.280000	27.089795
9.290000	27.089795
9.300000	27.089795
9.310000	27.089795
9.320000	27.089795
9.330000	27.089795
9.340000	27.089795
9.350000	27.089795
9.360000	27.089795
9.370000	27.089795
9.380000	27.089795
9.390000	27.089795
9.400000	27.089795
9.410000	27.089795
9.420000	27.089795
9.430000	27.089795
9.440000	27.089795
9.450000	27.089795
9.460000	27.089795
9.470000	27.089795
9.480000	27.089795
9.490000	27.089795
9.500000	27.061516
9.510000	27.061516
9.520000	27.061516
9.530000	27.061516
9.540000	27.061516
9.550000	27.061516
9.560000	27.061516
9.570000	27.061516
9.580000	27.061516
9.590000	27.061516
9.600000	27.061516
9.610000	27.061516
9.620000	27.061516
9.630000	27.061516
9.640000	27.061516
9.650000	27.061516
9.660000	27.061516
9.670000	27.061516
9.680000	27.061516
9.690000	27.061516
9.700000	27.061516
9.710000	27.061516
9.720000	27.061516
9.730000	27.061516
9.740000	27.061516
9.750000	27.061516
9.760000	27.061516
9.770000	27.061516
9.780000	27.061516
9.790000	27.061516
9.800000	27.061516
9.810000	27.061516
9.820000	27.061516
9.830000	27.061516
9.840000	27.061516
9.850000	27.061516
9.860000	27.061516
9.870000	27.061516
9.880000	27.061516
9.890000	27.061516
9.900000	27.061516
9.910000	27.061516
9.920000	27.061516
9.930000	27.061516
9.940000	27.061516
9.950000	27.061516
9.960000	27.061516
9.970000	27.061516
9.980000	27.061516
9.990000	27.061516
10.000000	27.028732
10.010000	27.028732
10.020000	27.028732
10.030000	27.028732
10.040000	27.028732
10.050000	27.028732
10.060000	27.028732
10.070000	27.028732
10.080000	27.028732
10.090000	27.028732
10.100000	27.028732
10.110000	27.028732
10.120000	27.028732
10.130000	27.028732
10.140000	27.028732
10.150000	27.028732
10.160000	27.028732
10.170000	27.028732
10.180000	27.028732
10.190000	27.028732
10.200000	27.028732
10.210000	27.028732
10.220000	27.028732
10.230000	27.028732
10.240000	27.028732
10.250000	27.028732
10.260000	27.028732
10.270000	27.028732
10.280000	27.028732
10.290000	27.028732
10.300000	27.028732
10.310000	27.028732
10.320000	27.028732
10.330000	27.028732
10.340000	27.028732
10.350000	27.028732
10.360000	27.028732
10.370000	27.028732
10.380000	27.028732
10.390000	27.028732
10.400000	27.028732
10.410000	27.028732
10.420000	27.028732
10.430000	27.028732
10.440000	27.028732
10.450000	27.028732
10.460000	27.028732
10.470000	27.028732
10.480000	27.028732
10.490000	27.028732
10.500000	26.992935
10.510000	26.992935
10.520000	26.992935
10.530000	26.992935
10.540000	26.992935
10.550000	26.992935
10.560000	26.992935
10.570000	26.992935
10.580000	26.992935
10.590000	26.992935
10.600000	26.992935
10.610000	26.992935
10.620000	26.992935
10.630000	26.992935
10.640000	26.992935
10.650000	26.992935
10.660000	26.992935
10.670000	26.992935
10.680000	26.992935
10.690000	26.992935
10.700000	26.992935
10.710000	26.992935
10.720000	26.992935
10.730000	26.992935
10.740000	26.992935
10.750000	26.992935
10.760000	26.992935
10.770000	26.992935
10.780000	26.992935
10.790000	26.992935
10.800000	26.992935
10.810000	26.992935
10.820000	26.992935
10.830000	26.992935
10.840000	26.992935
10.850000	26.992935
10.860000	26.992935
10.870000	26.992935
10.880000	26.992935
10.890000	26.992935
10.900000	26.992935
10.910000	26.992935
10.920000	26.992935
10.930000	26.992935
10.940000	26.992935
10.950000	26.992935
10.960000	26.992935
10.970000	26.992935
10.980000	26.992935
10.990000	26.992935
11.000000	26.954949
11.010000	26.954949
11.020000	26.954949
11.030000	26.954949
11.040000	26.954949
11.050000	26.954949
11.060000	26.954949
11.070000	26.954949
11.080000	26.954949
11.090000	26.954949
11.100000	26.954949
11.110000	26.954949
11.120000	26.954949
11.130000	26.954949
11.140000	26.954949
11.150000	26.954949
11.160000	26.954949
11.170000	26.954949
11.180000	26.954949
11.190000	26.954949
11.200000	26.954949
11.210000	26.954949
11.220000	26.954949
11.230000	26.954949
11.240000	26.954949
11.250000	26.954949
11.260000	26.954949
11.270000	26.954949
11.280000	26.954949
11.290000	26.954949
11.300000	26.954949
11.310000	26.954949
11.320000	26.954949
11.330000	26.954949
11.340000	26.954949
11.350000	26.954949
11.360000	26.954949
11.370000	26.954949
11.380000	26.954949
11.390000	26.954949
11.400000	26.954949
11.410000	26.954949
11.420000	26.954949
11.430000	26.954949
11.440000	26.954949
11.450000	26.954949
11.460000	26.954949
11.470000	26.954949
11.480000	26.954949
11.490000	26.954949
11.500000	26.915632
11.510000	26.915632
11.520000	26.915632
11.530000	26.915632
11.540000	26.915632
11.550000	26.915632
11.560000	26.915632
11.570000	26.915632
11.580000	26.915632
11.590000	26.915632
11.600000	26.915632
11.610000	26.915632
11.620000	26.915632
11.630000	26.915632
11.640000	26.915632
11.650000	26.915632
11.660000	26.915632
11.670000	26.915632
11.680000	26.915632
11.690000	26.915632
11.700000	26.915632
11.710000	26.915632
11.720000	26.915632
11.730000	26.915632
11.740000	26.915632
11.750000	26.915632
11.760000	26.915632
11.770000	26.915632
11.780000	26.915632
11.790000	26.915632
11.800000	26.915632
11.810000	26.915632
11.820000	26.915632
11.830000	26.915632
11.840000	26.915632
11.850000	26.915632
11.860000	26.915632
11.870000	26.915632
11.880000	26.915632
11.890000	26.915632
11.900000	26.915632
11.910000	26.915632
11.920000	26.915632
11.930000	26.915632
11.940000	26.915632
11.950000	26.915632
11.960000	26.915632
11.970000	26.915632
11.980000	26.915632
11.990000	26.915632
12.000000	26.875678
12.010000	26.875678
12.020000	26.875678
12.030000	26.875678
12.040000	26.875678
12.050000	26.875678
12.060000	26.875678
12.070000	26.875678
12.080000	26.875678
12.090000	26.875678
12.100000	26.875678
12.110000	26.875678
12.120000	26.875678
12.130000	26.875678
12.140000	26.875678
12.150000	26.875678
12.160000	26.875678
12.170000	26.875678
12.180000	26.875678
12.190000	26.875678
12.200000	26.875678
12.210000	26.875678
12.220000	26.875678
12.230000	26.875678
12.240000	26.875678
12.250000	26.875678
12.260000	26.875678
12.270000	26.875678
12.280000	26.875678
12.290000	26.875678
12.300000	26.875678
12.310000	26.875678
12.320000	26.875678
12.330000	26.875678
12.340000	26.875678
12.350000	26.875678
12.360000	26.875678
12.370000	26.875678
12.380000	26.875678
12.390000	26.875678
12.400000	26.875678
12.410000	26.875678
12.420000	26.875678
12.430000	26.875678
12.440000	26.875678
12.450000	26.875678
12.460000	26.875678
12.470000	26.875678
12.480000	26.875678
12.490000	26.875678
12.500000	26.834695
12.510000	26.834695
12.520000	26.834695
12.530000	26.834695
12.540000	26.834695
12.550000	26.834695
12.560000	26.834695
12.570000	26.834695
12.580000	26.834695
12.590000	26.834695
12.600000	26.834695
12.610000	26.834695
12.620000	26.834695
12.630000	26.834695
12.640000	26.834695
12.650000	26.834695
12.660000	26.834695
12.670000	26.834695
12.680000	26.834695
12.690000	26.834695
12.700000	26.834695
12.710000	26.834695
12.720000	26.834695
12.730000	26.834695
12.740000	26.834695
12.750000	26.834695
12.760000	26.834695
12.770000	26.834695
12.780000	26.834695
12.790000	26.834695
12.800000	26.834695
12.810000	26.834695
12.820000	26.834695
12.830000	26.834695
12.840000	26.834695
12.850000	26.834695
12.860000	26.834695
12.870000	26.834695
12.880000	26.834695
12.890000	26.834695
12.900000	26.834695
12.910000	26.834695
12.920000	26.834695
12.930000	26.834695
12.940000	26.834695
12.950000	26.834695
12.960000	26.834695
12.970000	26.834695
12.980000	26.834695
12.990000	26.834695
13.000000	26.793014
13.010000	26.793014
13.020000	26.793014
13.030000	26.793014
13.040000	26.793014
13.050000	26.793014
13.060000	26.793014
13.070000	26.793014
13.080000	26.793014
13.090000	26.793014
13.100000	26.793014
13.110000	26.793014
13.120000	26.793014
13.130000	26.793014
13.140000	26.793014
13.150000	26.793014
13.160000	26.793014
13.170000	26.793014
13.180000	26.793014
13.190000	26.793014
13.200000	26.793014
13.210000	26.793014
13.220000	26.793014
13.230000	26.793014
13.240000	26.793014
13.250000	26.793014
13.260000	26.793014
13.270000	26.793014
13.280000	26.793014
13.290000	26.793014
13.300000	26.793014
13.310000	26.793014
13.320000	26.793014
13.330000	26.793014
13.340000	26.793014
13.350000	26.793014
13.360000	26.793014
13.370000	26.793014
13.380000	26.793014
13.390000	26.793014
13.400000	26.793014
13.410000	26.793014
13.420000	26.793014
13.430000	26.793014
13.440000	26.793014
13.450000	26.793014
13.460000	26.793014
13.470000	26.793014
13.480000	26.793014
13.490000	26.793014
13.500000	26.752441
13.510000	26.752441
13.520000	26.752441
13.530000	26.752441
13.540000	26.752441
13.550000	26.752441
13.560000	26.752441
13.570000	26.752441
13.580000	26.752441
13.590000	26.752441
13.600000	26.752441
13.610000	26.752441
13.620000	26.752441
13.630000	26.752441
13.640000	26.752441
13.650000	26.752441
13.660000	26.752441
13.670000	26.752441
13.680000	26.752441
13.690000	26.752441
13.700000	26.752441
13.710000	26.752441
13.720000	26.752441
13.730000	26.752441
13.740000	26.752441
13.750000	26.752441
13.760000	26.752441
13.770000	26.752441
13.780000	26.752441
13.790000	26.752441
13.800000	26.752441
13.810000	26.752441
13.820000	26.752441
13.830000	26.752441
13.840000	26.752441
13.850000	26.752441
13.860000	26.752441
13.870000	26.752441
13.880000	26.752441
13.890000	26.752441
13.900000	26.752441
13.910000	26.752441
13.920000	26.752441
13.930000	26.752441
13.940000	26.752441
13.950000	26.752441
13.960000	26.752441
13.970000	26.752441
13.980000	26.752441
13.990000	26.752441
14.000000	26.711635
14.010000	26.711635
14.020000	26.711635
14.030000	26.711635
14.040000	26.711635
14.050000	26.711635
14.060000	26.711635
14.070000	26.711635
14.080000	26.711635
14.090000	26.711635
14.100000	26.711635
14.110000	26.711635
14.120000	26.711635
14.130000	26.711635
14.140000	26.711635
14.150000	26.711635
14.160000	26.711635
14.170000	26.711635
14.180000	26.711635
14.190000	26.711635
14.200000	26.711635
14.210000	26.711635
14.220000	26.711635
14.230000	26.711635
14.240000	26.711635
14.250000	26.711635
14.260000	26.711635
14.270000	26.711635
14.280000	26.711635
14.290000	26.711635
14.300000	26.711635
14.310000	26.711635
14.320000	26.711635
14.330000	26.711635
14.340000	26.711635
14.350000	26.711635
14.360000	26.711635
14.370000	26.711635
14.380000	26.711635
14.390000	26.711635
14.400000	26.711635
14.410000	26.711635
14.420000	26.711635
14.430000	26.711635
14.440000	26.711635
14.450000	26.711635
14.460000	26.711635
14.470000	26.711635
14.480000	26.711635
14.490000	26.711635
14.500000	26.671739
14.510000	26.671739
14.520000	26.671739
14.530000	26.671739
14.540000	26.671739
14.550000	26.671739
14.560000	26.671739
14.570000	26.671739
14.580000	26.671739
14.590000	26.671739
14.600000	26.671739
14.610000	26.671739
14.620000	26.671739
14.630000	26.671739
14.640000	26.671739
14.650000	26.671739
14.660000	26.671739
14.670000	26.671739
14.680000	26.671739
14.690000	26.671739
14.700000	26.671739
14.710000	26.671739
14.720000	26.671739
14.730000	26.671739
14.740000	26.671739
14.750000	26.671739
14.760000	26.671739
14.770000	26.671739
14.780000	26.671739
14.790000	26.671739
14.800000	26.671739
14.810000	26.671739
14.820000	26.671739
14.830000	26.671739
14.840000	26.671739
14.850000	26.671739
14.860000	26.671739
14.870000	26.671739
14.880000	26.671739
14.890000	26.671739
14.900000	26.671739
14.910000	26.671739
14.920000	26.671739
14.930000	26.671739
14.940000	26.671739
14.950000	26.671739
14.960000	26.671739
14.970000	26.671739
14.980000	26.671739
14.990000	26.671739
15.000000	26.633123
15.010000	26.633123
15.020000	26.633123
15.030000	26.633123
15.040000	26.633123
15.050000	26.633123
15.060000	26.633123
15.070000	26.633123
15.080000	26.633123
15.090000	26.633123
15.100000	26.633123
15.110000	26.633123
15.120000	26.633123
15.130000	26.633123
15.140000	26.633123
15.150000	26.633123
15.160000	26.633123
15.170000	26.633123
15.180000	26.633123
15.190000	26.633123
15.200000	26.633123
15.210000	26.633123
15.220000	26.633123
15.230000	26.633123
15.240000	26.633123
15.250000	26.633123
15.260000	26.633123
15.270000	26.633123
15.280000	26.633123
15.290000	26.633123
15.300000	26.633123
15.310000	26.633123
15.320000	26.633123
15.330000	26.633123
15.340000	26.633123
15.350000	26.633123
15.360000	26.633123
15.370000	26.633123
15.380000	26.633123
15.390000	26.633123
15.400000	26.633123
15.410000	26.633123
15.420000	26.633123
15.430000	26.633123
15.440000	26.633123
15.450000	26.633123
15.460000	26.633123
15.470000	26.633123
15.480000	26.633123
15.490000	26.633123
15.500000	26.594678
15.510000	26.594678
15.520000	26.594678
15.530000	26.594678
15.540000	26.594678
15.550000	26.594678
15.560000	26.594678
15.570000	26.594678
15.580000	26.594678
15.590000	26.594678
15.600000	26.594678
15.610000	26.594678
15.620000	26.594678
15.630000	26.594678
15.640000	26.594678
15.650000	26.594678
15.660000	26.594678
15.670000	26.594678
15.680000	26.594678
15.690000	26.594678
15.700000	26.594678
15.710000	26.594678
15.720000	26.594678
15.730000	26.594678
15.740000	26.594678
15.750000	26.594678
15.760000	26.594678
15.770000	26.594678
15.780000	26.594678
15.790000	26.594678
15.800000	26.594678
15.810000	26.594678
15.820000	26.594678
15.830000	26.594678
15.840000	26.594678
15.850000	26.594678
15.860000	26.594678
15.870000	26.594678
15.880000	26.594678
15.890000	26.594678
15.900000	26.594678
15.910000	26.594678
15.920000	26.594678
15.930000	26.594678
15.940000	26.594678
15.950000	26.594678
15.960000	26.594678
15.970000	26.594678
15.980000	26.594678
15.990000	26.594678
16.000000	26.556957
16.010000	26.556957
16.020000	26.556957
16.030000	26.556957
16.040000	26.556957
16.050000	26.556957
16.060000	26.556957
16.070000	26.556957
16.080000	26.556957
16.090000	26.556957
16.100000	26.556957
16.110000	26.556957
16.120000	26.556957
16.130000	26.556957
16.140000	26.556957
16.150000	26.556957
16.160000	26.556957
16.170000	26.556957
16.180000	26.556957
16.190000	26.556957
16.200000	26.556957
16.210000	26.556957
16.220000	26.556957
16.230000	26.556957
16.240000	26.556957
16.250000	26.556957
16.260000	26.556957
16.270000	26.556957
16.280000	26.556957
16.290000	26.556957
16.300000	26.556957
16.310000	26.556957
16.320000	26.556957
16.330000	26.556957
16.340000	26.556957
16.350000	26.556957
16.360000	26.556957
16.370000	26.556957
16.380000	26.556957
16.390000	26.556957
16.400000	26.556957
16.410000	26.556957
16.420000	26.556957
16.430000	26.556957
16.440000	26.556957
16.450000	26.556957
16.460000	26.556957
16.470000	26.556957
16.480000	26.556957
16.490000	26.556957
16.500000	26.519634
16.510000	26.519634
16.520000	26.519634
16.530000	26.519634
16.540000	26.519634
16.550000	26.519634
16.560000	26.519634
16.570000	26.519634
16.580000	26.519634
16.590000	26.519634
16.600000	26.519634
16.610000	26.519634
16.620000	26.519634
16.630000	26.519634
16.640000	26.519634
16.650000	26.519634
16.660000	26.519634
16.670000	26.519634
16.680000	26.519634
16.690000	26.519634
16.700000	26.519634
16.710000	26.519634
16.720000	26.519634
16.730000	26.519634
16.740000	26.519634
16.750000	26.519634
16.760000	26.519634
16.770000	26.519634
16.780000	26.519634
16.790000	26.519634
16.800000	26.519634
16.810000	26.519634
16.820000	26.519634
16.830000	26.519634
16.840000	26.519634
16.850000	26.519634
16.860000	26.519634
16.870000	26.519634
16.880000	26.519634
16.890000	26.519634
16.900000	26.519634
16.910000	26.519634
16.920000	26.519634
16.930000	26.519634
16.940000	26.519634
16.950000	26.519634
16.960000	26.519634
16.970000	26.519634
16.980000	26.519634
16.990000	26.519634
17.000000	26.482912
17.010000	26.482912
17.020000	26.482912
17.030000	26.482912
17.040000	26.482912
17.050000	26.482912
17.060000	26.482912
17.070000	26.482912
17.080000	26.482912
17.090000	26.482912
17.100000	26.482912
17.110000	26.482912
17.120000	26.482912
17.130000	26.482912
17.140000	26.482912
17.150000	26.482912
17.160000	26.482912
17.170000	26.482912
17.180000	26.482912
17.190000	26.482912
17.200000	26.482912
17.210000	26.482912
17.220000	26.482912
17.230000	26.482912
17.240000	26.482912
17.250000	26.482912
17.260000	26.482912
17.270000	26.482912
17.280000	26.482912
17.290000	26.482912
17.300000	26.482912
17.310000	26.482912
17.320000	26.482912
17.330000	26.482912
17.340000	26.482912
17.350000	26.482912
17.360000	26.482912
17.370000	26.482912
17.380000	26.482912
17.390000	26.482912
17.400000	26.482912
17.410000	26.482912
17.420000	26.482912
17.430000	26.482912
17.440000	26.482912
17.450000	26.482912
17.460000	26.482912
17.470000	26.482912
17.480000	26.482912
17.490000	26.482912
17.500000	26.447797
17.510000	26.447797
17.520000	26.447797
17.530000	26.447797
17.540000	26.447797
17.550000	26.447797
17.560000	26.447797
17.570000	26.447797
17.580000	26.447797
17.590000	26.447797
17.600000	26.447797
17.610000	26.447797
17.620000	26.447797
17.630000	26.447797
17.640000	26.447797
17.650000	26.447797
17.660000	26.447797
17.670000	26.447797
17.680000	26.447797
17.690000	26.447797
17.700000	26.447797
17.710000	26.447797
17.720000	26.447797
17.730000	26.447797
17.740000	26.447797
17.750000	26.447797
17.760000	26.447797
17.770000	26.447797
17.780000	26.447797
17.790000	26.447797
17.800000	26.447797
17.810000	26.447797
17.820000	26.447797
17.830000	26.447797
17.840000	26.447797
17.850000	26.447797
17.860000	26.447797
17.870000	26.447797
17.880000	26.447797
17.890000	26.447797
17.900000	26.447797
17.910000	26.447797
17.920000	26.447797
17.930000	26.447797
17.940000	26.447797
17.950000	26.447797
17.960000	26.447797
17.970000	26.447797
17.980000	26.447797
17.990000	26.447797
