LabVIEW Measurement	
Writer_Version	2
Reader_Version	2
Separator	Tab
Decimal_Separator	.
Multi_Headings	No
X_Columns	One
Time_Pref	Absolute
Operator	biomech-dyno
Date	2023/05/24
Time	16:31:59.7770512999995510441
***End_of_Header***	
	
Channels	1	
Samples	10	
Date	2023/05/24	
Time	16:33:41.0901253999999067303	
X_Dimension	Time	
X0	0.0000000000000000E+0	
Delta_X	0.010000	
***End_of_Header***		
X_Value	Untitled	Comment
0.000000	24.433693
0.010000	24.433693
0.020000	24.433693
0.030000	24.433693
0.040000	24.433693
0.050000	24.433693
0.060000	24.433693
0.070000	24.433693
0.080000	24.433693
0.090000	24.433693
0.100000	24.433693
0.110000	24.433693
0.120000	24.433693
0.130000	24.433693
0.140000	24.433693
0.150000	24.433693
0.160000	24.433693
0.170000	24.433693
0.180000	24.433693
0.190000	24.433693
0.200000	24.433693
0.210000	24.433693
0.220000	24.433693
0.230000	24.433693
0.240000	24.433693
0.250000	24.433693
0.260000	24.433693
0.270000	24.433693
0.280000	24.433693
0.290000	24.433693
0.300000	24.433693
0.310000	24.433693
0.320000	24.433693
0.330000	24.433693
0.340000	24.433693
0.350000	24.433693
0.360000	24.433693
0.370000	24.433693
0.380000	24.433693
0.390000	24.433693
0.400000	24.433693
0.410000	24.433693
0.420000	24.433693
0.430000	24.433693
0.440000	24.433693
0.450000	24.433693
0.460000	24.433693
0.470000	24.433693
0.480000	24.433693
0.490000	24.433693
0.500000	24.437874
0.510000	24.437874
0.520000	24.437874
0.530000	24.437874
0.540000	24.437874
0.550000	24.437874
0.560000	24.437874
0.570000	24.437874
0.580000	24.437874
0.590000	24.437874
0.600000	24.437874
0.610000	24.437874
0.620000	24.437874
0.630000	24.437874
0.640000	24.437874
0.650000	24.437874
0.660000	24.437874
0.670000	24.437874
0.680000	24.437874
0.690000	24.437874
0.700000	24.437874
0.710000	24.437874
0.720000	24.437874
0.730000	24.437874
0.740000	24.437874
0.750000	24.437874
0.760000	24.437874
0.770000	24.437874
0.780000	24.437874
0.790000	24.437874
0.800000	24.437874
0.810000	24.437874
0.820000	24.437874
0.830000	24.437874
0.840000	24.437874
0.850000	24.437874
0.860000	24.437874
0.870000	24.437874
0.880000	24.437874
0.890000	24.437874
0.900000	24.437874
0.910000	24.437874
0.920000	24.437874
0.930000	24.437874
0.940000	24.437874
0.950000	24.437874
0.960000	24.437874
0.970000	24.437874
0.980000	24.437874
0.990000	24.437874
1.000000	24.451280
1.010000	24.451280
1.020000	24.451280
1.030000	24.451280
1.040000	24.451280
1.050000	24.451280
1.060000	24.451280
1.070000	24.451280
1.080000	24.451280
1.090000	24.451280
1.100000	24.451280
1.110000	24.451280
1.120000	24.451280
1.130000	24.451280
1.140000	24.451280
1.150000	24.451280
1.160000	24.451280
1.170000	24.451280
1.180000	24.451280
1.190000	24.451280
1.200000	24.451280
1.210000	24.451280
1.220000	24.451280
1.230000	24.451280
1.240000	24.451280
1.250000	24.451280
1.260000	24.451280
1.270000	24.451280
1.280000	24.451280
1.290000	24.451280
1.300000	24.451280
1.310000	24.451280
1.320000	24.451280
1.330000	24.451280
1.340000	24.451280
1.350000	24.451280
1.360000	24.451280
1.370000	24.451280
1.380000	24.451280
1.390000	24.451280
1.400000	24.451280
1.410000	24.451280
1.420000	24.451280
1.430000	24.451280
1.440000	24.451280
1.450000	24.451280
1.460000	24.451280
1.470000	24.451280
1.480000	24.451280
1.490000	24.451280
1.500000	24.477355
1.510000	24.477355
1.520000	24.477355
1.530000	24.477355
1.540000	24.477355
1.550000	24.477355
1.560000	24.477355
1.570000	24.477355
1.580000	24.477355
1.590000	24.477355
1.600000	24.477355
1.610000	24.477355
1.620000	24.477355
1.630000	24.477355
1.640000	24.477355
1.650000	24.477355
1.660000	24.477355
1.670000	24.477355
1.680000	24.477355
1.690000	24.477355
1.700000	24.477355
1.710000	24.477355
1.720000	24.477355
1.730000	24.477355
1.740000	24.477355
1.750000	24.477355
1.760000	24.477355
1.770000	24.477355
1.780000	24.477355
1.790000	24.477355
1.800000	24.477355
1.810000	24.477355
1.820000	24.477355
1.830000	24.477355
1.840000	24.477355
1.850000	24.477355
1.860000	24.477355
1.870000	24.477355
1.880000	24.477355
1.890000	24.477355
1.900000	24.477355
1.910000	24.477355
1.920000	24.477355
1.930000	24.477355
1.940000	24.477355
1.950000	24.477355
1.960000	24.477355
1.970000	24.477355
1.980000	24.477355
1.990000	24.477355
2.000000	24.514075
2.010000	24.514075
2.020000	24.514075
2.030000	24.514075
2.040000	24.514075
2.050000	24.514075
2.060000	24.514075
2.070000	24.514075
2.080000	24.514075
2.090000	24.514075
2.100000	24.514075
2.110000	24.514075
2.120000	24.514075
2.130000	24.514075
2.140000	24.514075
2.150000	24.514075
2.160000	24.514075
2.170000	24.514075
2.180000	24.514075
2.190000	24.514075
2.200000	24.514075
2.210000	24.514075
2.220000	24.514075
2.230000	24.514075
2.240000	24.514075
2.250000	24.514075
2.260000	24.514075
2.270000	24.514075
2.280000	24.514075
2.290000	24.514075
2.300000	24.514075
2.310000	24.514075
2.320000	24.514075
2.330000	24.514075
2.340000	24.514075
2.350000	24.514075
2.360000	24.514075
2.370000	24.514075
2.380000	24.514075
2.390000	24.514075
2.400000	24.514075
2.410000	24.514075
2.420000	24.514075
2.430000	24.514075
2.440000	24.514075
2.450000	24.514075
2.460000	24.514075
2.470000	24.514075
2.480000	24.514075
2.490000	24.514075
2.500000	24.558412
2.510000	24.558412
2.520000	24.558412
2.530000	24.558412
2.540000	24.558412
2.550000	24.558412
2.560000	24.558412
2.570000	24.558412
2.580000	24.558412
2.590000	24.558412
2.600000	24.558412
2.610000	24.558412
2.620000	24.558412
2.630000	24.558412
2.640000	24.558412
2.650000	24.558412
2.660000	24.558412
2.670000	24.558412
2.680000	24.558412
2.690000	24.558412
2.700000	24.558412
2.710000	24.558412
2.720000	24.558412
2.730000	24.558412
2.740000	24.558412
2.750000	24.558412
2.760000	24.558412
2.770000	24.558412
2.780000	24.558412
2.790000	24.558412
2.800000	24.558412
2.810000	24.558412
2.820000	24.558412
2.830000	24.558412
2.840000	24.558412
2.850000	24.558412
2.860000	24.558412
2.870000	24.558412
2.880000	24.558412
2.890000	24.558412
2.900000	24.558412
2.910000	24.558412
2.920000	24.558412
2.930000	24.558412
2.940000	24.558412
2.950000	24.558412
2.960000	24.558412
2.970000	24.558412
2.980000	24.558412
2.990000	24.558412
3.000000	24.608761
3.010000	24.608761
3.020000	24.608761
3.030000	24.608761
3.040000	24.608761
3.050000	24.608761
3.060000	24.608761
3.070000	24.608761
3.080000	24.608761
3.090000	24.608761
3.100000	24.608761
3.110000	24.608761
3.120000	24.608761
3.130000	24.608761
3.140000	24.608761
3.150000	24.608761
3.160000	24.608761
3.170000	24.608761
3.180000	24.608761
3.190000	24.608761
3.200000	24.608761
3.210000	24.608761
3.220000	24.608761
3.230000	24.608761
3.240000	24.608761
3.250000	24.608761
3.260000	24.608761
3.270000	24.608761
3.280000	24.608761
3.290000	24.608761
3.300000	24.608761
3.310000	24.608761
3.320000	24.608761
3.330000	24.608761
3.340000	24.608761
3.350000	24.608761
3.360000	24.608761
3.370000	24.608761
3.380000	24.608761
3.390000	24.608761
3.400000	24.608761
3.410000	24.608761
3.420000	24.608761
3.430000	24.608761
3.440000	24.608761
3.450000	24.608761
3.460000	24.608761
3.470000	24.608761
3.480000	24.608761
3.490000	24.608761
3.500000	24.658779
3.510000	24.658779
3.520000	24.658779
3.530000	24.658779
3.540000	24.658779
3.550000	24.658779
3.560000	24.658779
3.570000	24.658779
3.580000	24.658779
3.590000	24.658779
3.600000	24.658779
3.610000	24.658779
3.620000	24.658779
3.630000	24.658779
3.640000	24.658779
3.650000	24.658779
3.660000	24.658779
3.670000	24.658779
3.680000	24.658779
3.690000	24.658779
3.700000	24.658779
3.710000	24.658779
3.720000	24.658779
3.730000	24.658779
3.740000	24.658779
3.750000	24.658779
3.760000	24.658779
3.770000	24.658779
3.780000	24.658779
3.790000	24.658779
3.800000	24.658779
3.810000	24.658779
3.820000	24.658779
3.830000	24.658779
3.840000	24.658779
3.850000	24.658779
3.860000	24.658779
3.870000	24.658779
3.880000	24.658779
3.890000	24.658779
3.900000	24.658779
3.910000	24.658779
3.920000	24.658779
3.930000	24.658779
3.940000	24.658779
3.950000	24.658779
3.960000	24.658779
3.970000	24.658779
3.980000	24.658779
3.990000	24.658779
4.000000	24.699830
4.010000	24.699830
4.020000	24.699830
4.030000	24.699830
4.040000	24.699830
4.050000	24.699830
4.060000	24.699830
4.070000	24.699830
4.080000	24.699830
4.090000	24.699830
4.100000	24.699830
4.110000	24.699830
4.120000	24.699830
4.130000	24.699830
4.140000	24.699830
4.150000	24.699830
4.160000	24.699830
4.170000	24.699830
4.180000	24.699830
4.190000	24.699830
4.200000	24.699830
4.210000	24.699830
4.220000	24.699830
4.230000	24.699830
4.240000	24.699830
4.250000	24.699830
4.260000	24.699830
4.270000	24.699830
4.280000	24.699830
4.290000	24.699830
4.300000	24.699830
4.310000	24.699830
4.320000	24.699830
4.330000	24.699830
4.340000	24.699830
4.350000	24.699830
4.360000	24.699830
4.370000	24.699830
4.380000	24.699830
4.390000	24.699830
4.400000	24.699830
4.410000	24.699830
4.420000	24.699830
4.430000	24.699830
4.440000	24.699830
4.450000	24.699830
4.460000	24.699830
4.470000	24.699830
4.480000	24.699830
4.490000	24.699830
4.500000	24.732718
4.510000	24.732718
4.520000	24.732718
4.530000	24.732718
4.540000	24.732718
4.550000	24.732718
4.560000	24.732718
4.570000	24.732718
4.580000	24.732718
4.590000	24.732718
4.600000	24.732718
4.610000	24.732718
4.620000	24.732718
4.630000	24.732718
4.640000	24.732718
4.650000	24.732718
4.660000	24.732718
4.670000	24.732718
4.680000	24.732718
4.690000	24.732718
4.700000	24.732718
4.710000	24.732718
4.720000	24.732718
4.730000	24.732718
4.740000	24.732718
4.750000	24.732718
4.760000	24.732718
4.770000	24.732718
4.780000	24.732718
4.790000	24.732718
4.800000	24.732718
4.810000	24.732718
4.820000	24.732718
4.830000	24.732718
4.840000	24.732718
4.850000	24.732718
4.860000	24.732718
4.870000	24.732718
4.880000	24.732718
4.890000	24.732718
4.900000	24.732718
4.910000	24.732718
4.920000	24.732718
4.930000	24.732718
4.940000	24.732718
4.950000	24.732718
4.960000	24.732718
4.970000	24.732718
4.980000	24.732718
4.990000	24.732718
5.000000	24.759879
5.010000	24.759879
5.020000	24.759879
5.030000	24.759879
5.040000	24.759879
5.050000	24.759879
5.060000	24.759879
5.070000	24.759879
5.080000	24.759879
5.090000	24.759879
5.100000	24.759879
5.110000	24.759879
5.120000	24.759879
5.130000	24.759879
5.140000	24.759879
5.150000	24.759879
5.160000	24.759879
5.170000	24.759879
5.180000	24.759879
5.190000	24.759879
5.200000	24.759879
5.210000	24.759879
5.220000	24.759879
5.230000	24.759879
5.240000	24.759879
5.250000	24.759879
5.260000	24.759879
5.270000	24.759879
5.280000	24.759879
5.290000	24.759879
5.300000	24.759879
5.310000	24.759879
5.320000	24.759879
5.330000	24.759879
5.340000	24.759879
5.350000	24.759879
5.360000	24.759879
5.370000	24.759879
5.380000	24.759879
5.390000	24.759879
5.400000	24.759879
5.410000	24.759879
5.420000	24.759879
5.430000	24.759879
5.440000	24.759879
5.450000	24.759879
5.460000	24.759879
5.470000	24.759879
5.480000	24.759879
5.490000	24.759879
5.500000	24.782337
5.510000	24.782337
5.520000	24.782337
5.530000	24.782337
5.540000	24.782337
5.550000	24.782337
5.560000	24.782337
5.570000	24.782337
5.580000	24.782337
5.590000	24.782337
5.600000	24.782337
5.610000	24.782337
5.620000	24.782337
5.630000	24.782337
5.640000	24.782337
5.650000	24.782337
5.660000	24.782337
5.670000	24.782337
5.680000	24.782337
5.690000	24.782337
5.700000	24.782337
5.710000	24.782337
5.720000	24.782337
5.730000	24.782337
5.740000	24.782337
5.750000	24.782337
5.760000	24.782337
5.770000	24.782337
5.780000	24.782337
5.790000	24.782337
5.800000	24.782337
5.810000	24.782337
5.820000	24.782337
5.830000	24.782337
5.840000	24.782337
5.850000	24.782337
5.860000	24.782337
5.870000	24.782337
5.880000	24.782337
5.890000	24.782337
5.900000	24.782337
5.910000	24.782337
5.920000	24.782337
5.930000	24.782337
5.940000	24.782337
5.950000	24.782337
5.960000	24.782337
5.970000	24.782337
5.980000	24.782337
5.990000	24.782337
6.000000	24.799267
6.010000	24.799267
6.020000	24.799267
6.030000	24.799267
6.040000	24.799267
6.050000	24.799267
6.060000	24.799267
6.070000	24.799267
6.080000	24.799267
6.090000	24.799267
6.100000	24.799267
6.110000	24.799267
6.120000	24.799267
6.130000	24.799267
6.140000	24.799267
6.150000	24.799267
6.160000	24.799267
6.170000	24.799267
6.180000	24.799267
6.190000	24.799267
6.200000	24.799267
6.210000	24.799267
6.220000	24.799267
6.230000	24.799267
6.240000	24.799267
6.250000	24.799267
6.260000	24.799267
6.270000	24.799267
6.280000	24.799267
6.290000	24.799267
6.300000	24.799267
6.310000	24.799267
6.320000	24.799267
6.330000	24.799267
6.340000	24.799267
6.350000	24.799267
6.360000	24.799267
6.370000	24.799267
6.380000	24.799267
6.390000	24.799267
6.400000	24.799267
6.410000	24.799267
6.420000	24.799267
6.430000	24.799267
6.440000	24.799267
6.450000	24.799267
6.460000	24.799267
6.470000	24.799267
6.480000	24.799267
6.490000	24.799267
6.500000	24.812077
6.510000	24.812077
6.520000	24.812077
6.530000	24.812077
6.540000	24.812077
6.550000	24.812077
6.560000	24.812077
6.570000	24.812077
6.580000	24.812077
6.590000	24.812077
6.600000	24.812077
6.610000	24.812077
6.620000	24.812077
6.630000	24.812077
6.640000	24.812077
6.650000	24.812077
6.660000	24.812077
6.670000	24.812077
6.680000	24.812077
6.690000	24.812077
6.700000	24.812077
6.710000	24.812077
6.720000	24.812077
6.730000	24.812077
6.740000	24.812077
6.750000	24.812077
6.760000	24.812077
6.770000	24.812077
6.780000	24.812077
6.790000	24.812077
6.800000	24.812077
6.810000	24.812077
6.820000	24.812077
6.830000	24.812077
6.840000	24.812077
6.850000	24.812077
6.860000	24.812077
6.870000	24.812077
6.880000	24.812077
6.890000	24.812077
6.900000	24.812077
6.910000	24.812077
6.920000	24.812077
6.930000	24.812077
6.940000	24.812077
6.950000	24.812077
6.960000	24.812077
6.970000	24.812077
6.980000	24.812077
6.990000	24.812077
7.000000	24.821698
7.010000	24.821698
7.020000	24.821698
7.030000	24.821698
7.040000	24.821698
7.050000	24.821698
7.060000	24.821698
7.070000	24.821698
7.080000	24.821698
7.090000	24.821698
7.100000	24.821698
7.110000	24.821698
7.120000	24.821698
7.130000	24.821698
7.140000	24.821698
7.150000	24.821698
7.160000	24.821698
7.170000	24.821698
7.180000	24.821698
7.190000	24.821698
7.200000	24.821698
7.210000	24.821698
7.220000	24.821698
7.230000	24.821698
7.240000	24.821698
7.250000	24.821698
7.260000	24.821698
7.270000	24.821698
7.280000	24.821698
7.290000	24.821698
7.300000	24.821698
7.310000	24.821698
7.320000	24.821698
7.330000	24.821698
7.340000	24.821698
7.350000	24.821698
7.360000	24.821698
7.370000	24.821698
7.380000	24.821698
7.390000	24.821698
7.400000	24.821698
7.410000	24.821698
7.420000	24.821698
7.430000	24.821698
7.440000	24.821698
7.450000	24.821698
7.460000	24.821698
7.470000	24.821698
7.480000	24.821698
7.490000	24.821698
7.500000	24.828658
7.510000	24.828658
7.520000	24.828658
7.530000	24.828658
7.540000	24.828658
7.550000	24.828658
7.560000	24.828658
7.570000	24.828658
7.580000	24.828658
7.590000	24.828658
7.600000	24.828658
7.610000	24.828658
7.620000	24.828658
7.630000	24.828658
7.640000	24.828658
7.650000	24.828658
7.660000	24.828658
7.670000	24.828658
7.680000	24.828658
7.690000	24.828658
7.700000	24.828658
7.710000	24.828658
7.720000	24.828658
7.730000	24.828658
7.740000	24.828658
7.750000	24.828658
7.760000	24.828658
7.770000	24.828658
7.780000	24.828658
7.790000	24.828658
7.800000	24.828658
7.810000	24.828658
7.820000	24.828658
7.830000	24.828658
7.840000	24.828658
7.850000	24.828658
7.860000	24.828658
7.870000	24.828658
7.880000	24.828658
7.890000	24.828658
7.900000	24.828658
7.910000	24.828658
7.920000	24.828658
7.930000	24.828658
7.940000	24.828658
7.950000	24.828658
7.960000	24.828658
7.970000	24.828658
7.980000	24.828658
7.990000	24.828658
8.000000	24.833333
8.010000	24.833333
8.020000	24.833333
8.030000	24.833333
8.040000	24.833333
8.050000	24.833333
8.060000	24.833333
8.070000	24.833333
8.080000	24.833333
8.090000	24.833333
8.100000	24.833333
8.110000	24.833333
8.120000	24.833333
8.130000	24.833333
8.140000	24.833333
8.150000	24.833333
8.160000	24.833333
8.170000	24.833333
8.180000	24.833333
8.190000	24.833333
8.200000	24.833333
8.210000	24.833333
8.220000	24.833333
8.230000	24.833333
8.240000	24.833333
8.250000	24.833333
8.260000	24.833333
8.270000	24.833333
8.280000	24.833333
8.290000	24.833333
8.300000	24.833333
8.310000	24.833333
8.320000	24.833333
8.330000	24.833333
8.340000	24.833333
8.350000	24.833333
8.360000	24.833333
8.370000	24.833333
8.380000	24.833333
8.390000	24.833333
8.400000	24.833333
8.410000	24.833333
8.420000	24.833333
8.430000	24.833333
8.440000	24.833333
8.450000	24.833333
8.460000	24.833333
8.470000	24.833333
8.480000	24.833333
8.490000	24.833333
8.500000	24.836415
8.510000	24.836415
8.520000	24.836415
8.530000	24.836415
8.540000	24.836415
8.550000	24.836415
8.560000	24.836415
8.570000	24.836415
8.580000	24.836415
8.590000	24.836415
8.600000	24.836415
8.610000	24.836415
8.620000	24.836415
8.630000	24.836415
8.640000	24.836415
8.650000	24.836415
8.660000	24.836415
8.670000	24.836415
8.680000	24.836415
8.690000	24.836415
8.700000	24.836415
8.710000	24.836415
8.720000	24.836415
8.730000	24.836415
8.740000	24.836415
8.750000	24.836415
8.760000	24.836415
8.770000	24.836415
8.780000	24.836415
8.790000	24.836415
8.800000	24.836415
8.810000	24.836415
8.820000	24.836415
8.830000	24.836415
8.840000	24.836415
8.850000	24.836415
8.860000	24.836415
8.870000	24.836415
8.880000	24.836415
8.890000	24.836415
8.900000	24.836415
8.910000	24.836415
8.920000	24.836415
8.930000	24.836415
8.940000	24.836415
8.950000	24.836415
8.960000	24.836415
8.970000	24.836415
8.980000	24.836415
8.990000	24.836415
9.000000	24.838258
9.010000	24.838258
9.020000	24.838258
9.030000	24.838258
9.040000	24.838258
9.050000	24.838258
9.060000	24.838258
9.070000	24.838258
9.080000	24.838258
9.090000	24.838258
9.100000	24.838258
9.110000	24.838258
9.120000	24.838258
9.130000	24.838258
9.140000	24.838258
9.150000	24.838258
9.160000	24.838258
9.170000	24.838258
9.180000	24.838258
9.190000	24.838258
9.200000	24.838258
9.210000	24.838258
9.220000	24.838258
9.230000	24.838258
9.240000	24.838258
9.250000	24.838258
9.260000	24.838258
9.270000	24.838258
9.280000	24.838258
9.290000	24.838258
9.300000	24.838258
9.310000	24.838258
9.320000	24.838258
9.330000	24.838258
9.340000	24.838258
9.350000	24.838258
9.360000	24.838258
9.370000	24.838258
9.380000	24.838258
9.390000	24.838258
9.400000	24.838258
9.410000	24.838258
9.420000	24.838258
9.430000	24.838258
9.440000	24.838258
9.450000	24.838258
9.460000	24.838258
9.470000	24.838258
9.480000	24.838258
9.490000	24.838258
9.500000	24.838899
9.510000	24.838899
9.520000	24.838899
9.530000	24.838899
9.540000	24.838899
9.550000	24.838899
9.560000	24.838899
9.570000	24.838899
9.580000	24.838899
9.590000	24.838899
9.600000	24.838899
9.610000	24.838899
9.620000	24.838899
9.630000	24.838899
9.640000	24.838899
9.650000	24.838899
9.660000	24.838899
9.670000	24.838899
9.680000	24.838899
9.690000	24.838899
9.700000	24.838899
9.710000	24.838899
9.720000	24.838899
9.730000	24.838899
9.740000	24.838899
9.750000	24.838899
9.760000	24.838899
9.770000	24.838899
9.780000	24.838899
9.790000	24.838899
9.800000	24.838899
9.810000	24.838899
9.820000	24.838899
9.830000	24.838899
9.840000	24.838899
9.850000	24.838899
9.860000	24.838899
9.870000	24.838899
9.880000	24.838899
9.890000	24.838899
9.900000	24.838899
9.910000	24.838899
9.920000	24.838899
9.930000	24.838899
9.940000	24.838899
9.950000	24.838899
9.960000	24.838899
9.970000	24.838899
9.980000	24.838899
9.990000	24.838899
10.000000	24.838518
10.010000	24.838518
10.020000	24.838518
10.030000	24.838518
10.040000	24.838518
10.050000	24.838518
10.060000	24.838518
10.070000	24.838518
10.080000	24.838518
10.090000	24.838518
10.100000	24.838518
10.110000	24.838518
10.120000	24.838518
10.130000	24.838518
10.140000	24.838518
10.150000	24.838518
10.160000	24.838518
10.170000	24.838518
10.180000	24.838518
10.190000	24.838518
10.200000	24.838518
10.210000	24.838518
10.220000	24.838518
10.230000	24.838518
10.240000	24.838518
10.250000	24.838518
10.260000	24.838518
10.270000	24.838518
10.280000	24.838518
10.290000	24.838518
10.300000	24.838518
10.310000	24.838518
10.320000	24.838518
10.330000	24.838518
10.340000	24.838518
10.350000	24.838518
10.360000	24.838518
10.370000	24.838518
10.380000	24.838518
10.390000	24.838518
10.400000	24.838518
10.410000	24.838518
10.420000	24.838518
10.430000	24.838518
10.440000	24.838518
10.450000	24.838518
10.460000	24.838518
10.470000	24.838518
10.480000	24.838518
10.490000	24.838518
10.500000	24.837159
10.510000	24.837159
10.520000	24.837159
10.530000	24.837159
10.540000	24.837159
10.550000	24.837159
10.560000	24.837159
10.570000	24.837159
10.580000	24.837159
10.590000	24.837159
10.600000	24.837159
10.610000	24.837159
10.620000	24.837159
10.630000	24.837159
10.640000	24.837159
10.650000	24.837159
10.660000	24.837159
10.670000	24.837159
10.680000	24.837159
10.690000	24.837159
10.700000	24.837159
10.710000	24.837159
10.720000	24.837159
10.730000	24.837159
10.740000	24.837159
10.750000	24.837159
10.760000	24.837159
10.770000	24.837159
10.780000	24.837159
10.790000	24.837159
10.800000	24.837159
10.810000	24.837159
10.820000	24.837159
10.830000	24.837159
10.840000	24.837159
10.850000	24.837159
10.860000	24.837159
10.870000	24.837159
10.880000	24.837159
10.890000	24.837159
10.900000	24.837159
10.910000	24.837159
10.920000	24.837159
10.930000	24.837159
10.940000	24.837159
10.950000	24.837159
10.960000	24.837159
10.970000	24.837159
10.980000	24.837159
10.990000	24.837159
11.000000	24.834831
11.010000	24.834831
11.020000	24.834831
11.030000	24.834831
11.040000	24.834831
11.050000	24.834831
11.060000	24.834831
11.070000	24.834831
11.080000	24.834831
11.090000	24.834831
11.100000	24.834831
11.110000	24.834831
11.120000	24.834831
11.130000	24.834831
11.140000	24.834831
11.150000	24.834831
11.160000	24.834831
11.170000	24.834831
11.180000	24.834831
11.190000	24.834831
11.200000	24.834831
11.210000	24.834831
11.220000	24.834831
11.230000	24.834831
11.240000	24.834831
11.250000	24.834831
11.260000	24.834831
11.270000	24.834831
11.280000	24.834831
11.290000	24.834831
11.300000	24.834831
11.310000	24.834831
11.320000	24.834831
11.330000	24.834831
11.340000	24.834831
11.350000	24.834831
11.360000	24.834831
11.370000	24.834831
11.380000	24.834831
11.390000	24.834831
11.400000	24.834831
11.410000	24.834831
11.420000	24.834831
11.430000	24.834831
11.440000	24.834831
11.450000	24.834831
11.460000	24.834831
11.470000	24.834831
11.480000	24.834831
11.490000	24.834831
11.500000	24.832467
11.510000	24.832467
11.520000	24.832467
11.530000	24.832467
11.540000	24.832467
11.550000	24.832467
11.560000	24.832467
11.570000	24.832467
11.580000	24.832467
11.590000	24.832467
11.600000	24.832467
11.610000	24.832467
11.620000	24.832467
11.630000	24.832467
11.640000	24.832467
11.650000	24.832467
11.660000	24.832467
11.670000	24.832467
11.680000	24.832467
11.690000	24.832467
11.700000	24.832467
11.710000	24.832467
11.720000	24.832467
11.730000	24.832467
11.740000	24.832467
11.750000	24.832467
11.760000	24.832467
11.770000	24.832467
11.780000	24.832467
11.790000	24.832467
11.800000	24.832467
11.810000	24.832467
11.820000	24.832467
11.830000	24.832467
11.840000	24.832467
11.850000	24.832467
11.860000	24.832467
11.870000	24.832467
11.880000	24.832467
11.890000	24.832467
11.900000	24.832467
11.910000	24.832467
11.920000	24.832467
11.930000	24.832467
11.940000	24.832467
11.950000	24.832467
11.960000	24.832467
11.970000	24.832467
11.980000	24.832467
11.990000	24.832467
12.000000	24.829429
12.010000	24.829429
12.020000	24.829429
12.030000	24.829429
12.040000	24.829429
12.050000	24.829429
12.060000	24.829429
12.070000	24.829429
12.080000	24.829429
12.090000	24.829429
12.100000	24.829429
12.110000	24.829429
12.120000	24.829429
12.130000	24.829429
12.140000	24.829429
12.150000	24.829429
12.160000	24.829429
12.170000	24.829429
12.180000	24.829429
12.190000	24.829429
12.200000	24.829429
12.210000	24.829429
12.220000	24.829429
12.230000	24.829429
12.240000	24.829429
12.250000	24.829429
12.260000	24.829429
12.270000	24.829429
12.280000	24.829429
12.290000	24.829429
12.300000	24.829429
12.310000	24.829429
12.320000	24.829429
12.330000	24.829429
12.340000	24.829429
12.350000	24.829429
12.360000	24.829429
12.370000	24.829429
12.380000	24.829429
12.390000	24.829429
12.400000	24.829429
12.410000	24.829429
12.420000	24.829429
12.430000	24.829429
12.440000	24.829429
12.450000	24.829429
12.460000	24.829429
12.470000	24.829429
12.480000	24.829429
12.490000	24.829429
12.500000	24.825810
12.510000	24.825810
12.520000	24.825810
12.530000	24.825810
12.540000	24.825810
12.550000	24.825810
12.560000	24.825810
12.570000	24.825810
12.580000	24.825810
12.590000	24.825810
12.600000	24.825810
12.610000	24.825810
12.620000	24.825810
12.630000	24.825810
12.640000	24.825810
12.650000	24.825810
12.660000	24.825810
12.670000	24.825810
12.680000	24.825810
12.690000	24.825810
12.700000	24.825810
12.710000	24.825810
12.720000	24.825810
12.730000	24.825810
12.740000	24.825810
12.750000	24.825810
12.760000	24.825810
12.770000	24.825810
12.780000	24.825810
12.790000	24.825810
12.800000	24.825810
12.810000	24.825810
12.820000	24.825810
12.830000	24.825810
12.840000	24.825810
12.850000	24.825810
12.860000	24.825810
12.870000	24.825810
12.880000	24.825810
12.890000	24.825810
12.900000	24.825810
12.910000	24.825810
12.920000	24.825810
12.930000	24.825810
12.940000	24.825810
12.950000	24.825810
12.960000	24.825810
12.970000	24.825810
12.980000	24.825810
12.990000	24.825810
13.000000	24.821992
13.010000	24.821992
13.020000	24.821992
13.030000	24.821992
13.040000	24.821992
13.050000	24.821992
13.060000	24.821992
13.070000	24.821992
13.080000	24.821992
13.090000	24.821992
13.100000	24.821992
13.110000	24.821992
13.120000	24.821992
13.130000	24.821992
13.140000	24.821992
13.150000	24.821992
13.160000	24.821992
13.170000	24.821992
13.180000	24.821992
13.190000	24.821992
13.200000	24.821992
13.210000	24.821992
13.220000	24.821992
13.230000	24.821992
13.240000	24.821992
13.250000	24.821992
13.260000	24.821992
13.270000	24.821992
13.280000	24.821992
13.290000	24.821992
13.300000	24.821992
13.310000	24.821992
13.320000	24.821992
13.330000	24.821992
13.340000	24.821992
13.350000	24.821992
13.360000	24.821992
13.370000	24.821992
13.380000	24.821992
13.390000	24.821992
13.400000	24.821992
13.410000	24.821992
13.420000	24.821992
13.430000	24.821992
13.440000	24.821992
13.450000	24.821992
13.460000	24.821992
13.470000	24.821992
13.480000	24.821992
13.490000	24.821992
13.500000	24.817507
13.510000	24.817507
13.520000	24.817507
13.530000	24.817507
13.540000	24.817507
13.550000	24.817507
13.560000	24.817507
13.570000	24.817507
13.580000	24.817507
13.590000	24.817507
13.600000	24.817507
13.610000	24.817507
13.620000	24.817507
13.630000	24.817507
13.640000	24.817507
13.650000	24.817507
13.660000	24.817507
13.670000	24.817507
13.680000	24.817507
13.690000	24.817507
13.700000	24.817507
13.710000	24.817507
13.720000	24.817507
13.730000	24.817507
13.740000	24.817507
13.750000	24.817507
13.760000	24.817507
13.770000	24.817507
13.780000	24.817507
13.790000	24.817507
13.800000	24.817507
13.810000	24.817507
13.820000	24.817507
13.830000	24.817507
13.840000	24.817507
13.850000	24.817507
13.860000	24.817507
13.870000	24.817507
13.880000	24.817507
13.890000	24.817507
13.900000	24.817507
13.910000	24.817507
13.920000	24.817507
13.930000	24.817507
13.940000	24.817507
13.950000	24.817507
13.960000	24.817507
13.970000	24.817507
13.980000	24.817507
13.990000	24.817507
14.000000	24.812614
14.010000	24.812614
14.020000	24.812614
14.030000	24.812614
14.040000	24.812614
14.050000	24.812614
14.060000	24.812614
14.070000	24.812614
14.080000	24.812614
14.090000	24.812614
14.100000	24.812614
14.110000	24.812614
14.120000	24.812614
14.130000	24.812614
14.140000	24.812614
14.150000	24.812614
14.160000	24.812614
14.170000	24.812614
14.180000	24.812614
14.190000	24.812614
14.200000	24.812614
14.210000	24.812614
14.220000	24.812614
14.230000	24.812614
14.240000	24.812614
14.250000	24.812614
14.260000	24.812614
14.270000	24.812614
14.280000	24.812614
14.290000	24.812614
14.300000	24.812614
14.310000	24.812614
14.320000	24.812614
14.330000	24.812614
14.340000	24.812614
14.350000	24.812614
14.360000	24.812614
14.370000	24.812614
14.380000	24.812614
14.390000	24.812614
14.400000	24.812614
14.410000	24.812614
14.420000	24.812614
14.430000	24.812614
14.440000	24.812614
14.450000	24.812614
14.460000	24.812614
14.470000	24.812614
14.480000	24.812614
14.490000	24.812614
14.500000	24.808058
14.510000	24.808058
14.520000	24.808058
14.530000	24.808058
14.540000	24.808058
14.550000	24.808058
14.560000	24.808058
14.570000	24.808058
14.580000	24.808058
14.590000	24.808058
14.600000	24.808058
14.610000	24.808058
14.620000	24.808058
14.630000	24.808058
14.640000	24.808058
14.650000	24.808058
14.660000	24.808058
14.670000	24.808058
14.680000	24.808058
14.690000	24.808058
14.700000	24.808058
14.710000	24.808058
14.720000	24.808058
14.730000	24.808058
14.740000	24.808058
14.750000	24.808058
14.760000	24.808058
14.770000	24.808058
14.780000	24.808058
14.790000	24.808058
14.800000	24.808058
14.810000	24.808058
14.820000	24.808058
14.830000	24.808058
14.840000	24.808058
14.850000	24.808058
14.860000	24.808058
14.870000	24.808058
14.880000	24.808058
14.890000	24.808058
14.900000	24.808058
14.910000	24.808058
14.920000	24.808058
14.930000	24.808058
14.940000	24.808058
14.950000	24.808058
14.960000	24.808058
14.970000	24.808058
14.980000	24.808058
14.990000	24.808058
15.000000	24.803788
15.010000	24.803788
15.020000	24.803788
15.030000	24.803788
15.040000	24.803788
15.050000	24.803788
15.060000	24.803788
15.070000	24.803788
15.080000	24.803788
15.090000	24.803788
15.100000	24.803788
15.110000	24.803788
15.120000	24.803788
15.130000	24.803788
15.140000	24.803788
15.150000	24.803788
15.160000	24.803788
15.170000	24.803788
15.180000	24.803788
15.190000	24.803788
15.200000	24.803788
15.210000	24.803788
15.220000	24.803788
15.230000	24.803788
15.240000	24.803788
15.250000	24.803788
15.260000	24.803788
15.270000	24.803788
15.280000	24.803788
15.290000	24.803788
15.300000	24.803788
15.310000	24.803788
15.320000	24.803788
15.330000	24.803788
15.340000	24.803788
15.350000	24.803788
15.360000	24.803788
15.370000	24.803788
15.380000	24.803788
15.390000	24.803788
15.400000	24.803788
15.410000	24.803788
15.420000	24.803788
15.430000	24.803788
15.440000	24.803788
15.450000	24.803788
15.460000	24.803788
15.470000	24.803788
15.480000	24.803788
15.490000	24.803788
15.500000	24.798617
15.510000	24.798617
15.520000	24.798617
15.530000	24.798617
15.540000	24.798617
15.550000	24.798617
15.560000	24.798617
15.570000	24.798617
15.580000	24.798617
15.590000	24.798617
15.600000	24.798617
15.610000	24.798617
15.620000	24.798617
15.630000	24.798617
15.640000	24.798617
15.650000	24.798617
15.660000	24.798617
15.670000	24.798617
15.680000	24.798617
15.690000	24.798617
15.700000	24.798617
15.710000	24.798617
15.720000	24.798617
15.730000	24.798617
15.740000	24.798617
15.750000	24.798617
15.760000	24.798617
15.770000	24.798617
15.780000	24.798617
15.790000	24.798617
15.800000	24.798617
15.810000	24.798617
15.820000	24.798617
15.830000	24.798617
15.840000	24.798617
15.850000	24.798617
15.860000	24.798617
15.870000	24.798617
15.880000	24.798617
15.890000	24.798617
15.900000	24.798617
15.910000	24.798617
15.920000	24.798617
15.930000	24.798617
15.940000	24.798617
15.950000	24.798617
15.960000	24.798617
15.970000	24.798617
15.980000	24.798617
15.990000	24.798617
16.000000	24.793107
16.010000	24.793107
16.020000	24.793107
16.030000	24.793107
16.040000	24.793107
16.050000	24.793107
16.060000	24.793107
16.070000	24.793107
16.080000	24.793107
16.090000	24.793107
16.100000	24.793107
16.110000	24.793107
16.120000	24.793107
16.130000	24.793107
16.140000	24.793107
16.150000	24.793107
16.160000	24.793107
16.170000	24.793107
16.180000	24.793107
16.190000	24.793107
16.200000	24.793107
16.210000	24.793107
16.220000	24.793107
16.230000	24.793107
16.240000	24.793107
16.250000	24.793107
16.260000	24.793107
16.270000	24.793107
16.280000	24.793107
16.290000	24.793107
16.300000	24.793107
16.310000	24.793107
16.320000	24.793107
16.330000	24.793107
16.340000	24.793107
16.350000	24.793107
16.360000	24.793107
16.370000	24.793107
16.380000	24.793107
16.390000	24.793107
16.400000	24.793107
16.410000	24.793107
16.420000	24.793107
16.430000	24.793107
16.440000	24.793107
16.450000	24.793107
16.460000	24.793107
16.470000	24.793107
16.480000	24.793107
16.490000	24.793107
16.500000	24.788143
16.510000	24.788143
16.520000	24.788143
16.530000	24.788143
16.540000	24.788143
16.550000	24.788143
16.560000	24.788143
16.570000	24.788143
16.580000	24.788143
16.590000	24.788143
16.600000	24.788143
16.610000	24.788143
16.620000	24.788143
16.630000	24.788143
16.640000	24.788143
16.650000	24.788143
16.660000	24.788143
16.670000	24.788143
16.680000	24.788143
16.690000	24.788143
16.700000	24.788143
16.710000	24.788143
16.720000	24.788143
16.730000	24.788143
16.740000	24.788143
16.750000	24.788143
16.760000	24.788143
16.770000	24.788143
16.780000	24.788143
16.790000	24.788143
16.800000	24.788143
16.810000	24.788143
16.820000	24.788143
16.830000	24.788143
16.840000	24.788143
16.850000	24.788143
16.860000	24.788143
16.870000	24.788143
16.880000	24.788143
16.890000	24.788143
16.900000	24.788143
16.910000	24.788143
16.920000	24.788143
16.930000	24.788143
16.940000	24.788143
16.950000	24.788143
16.960000	24.788143
16.970000	24.788143
16.980000	24.788143
16.990000	24.788143
17.000000	24.782649
17.010000	24.782649
17.020000	24.782649
17.030000	24.782649
17.040000	24.782649
17.050000	24.782649
17.060000	24.782649
17.070000	24.782649
17.080000	24.782649
17.090000	24.782649
17.100000	24.782649
17.110000	24.782649
17.120000	24.782649
17.130000	24.782649
17.140000	24.782649
17.150000	24.782649
17.160000	24.782649
17.170000	24.782649
17.180000	24.782649
17.190000	24.782649
17.200000	24.782649
17.210000	24.782649
17.220000	24.782649
17.230000	24.782649
17.240000	24.782649
17.250000	24.782649
17.260000	24.782649
17.270000	24.782649
17.280000	24.782649
17.290000	24.782649
17.300000	24.782649
17.310000	24.782649
17.320000	24.782649
17.330000	24.782649
17.340000	24.782649
17.350000	24.782649
17.360000	24.782649
17.370000	24.782649
17.380000	24.782649
17.390000	24.782649
17.400000	24.782649
17.410000	24.782649
17.420000	24.782649
17.430000	24.782649
17.440000	24.782649
17.450000	24.782649
17.460000	24.782649
17.470000	24.782649
17.480000	24.782649
17.490000	24.782649
17.500000	24.776895
17.510000	24.776895
17.520000	24.776895
17.530000	24.776895
17.540000	24.776895
17.550000	24.776895
17.560000	24.776895
17.570000	24.776895
17.580000	24.776895
17.590000	24.776895
17.600000	24.776895
17.610000	24.776895
17.620000	24.776895
17.630000	24.776895
17.640000	24.776895
17.650000	24.776895
17.660000	24.776895
17.670000	24.776895
17.680000	24.776895
17.690000	24.776895
17.700000	24.776895
17.710000	24.776895
17.720000	24.776895
17.730000	24.776895
17.740000	24.776895
17.750000	24.776895
17.760000	24.776895
17.770000	24.776895
17.780000	24.776895
17.790000	24.776895
17.800000	24.776895
17.810000	24.776895
17.820000	24.776895
17.830000	24.776895
17.840000	24.776895
17.850000	24.776895
17.860000	24.776895
17.870000	24.776895
17.880000	24.776895
17.890000	24.776895
17.900000	24.776895
17.910000	24.776895
17.920000	24.776895
17.930000	24.776895
17.940000	24.776895
17.950000	24.776895
17.960000	24.776895
17.970000	24.776895
17.980000	24.776895
17.990000	24.776895
