LabVIEW Measurement	
Writer_Version	2
Reader_Version	2
Separator	Tab
Decimal_Separator	.
Multi_Headings	No
X_Columns	One
Time_Pref	Absolute
Operator	biomech-dyno
Date	2023/05/24
Time	16:31:59.7770512999995510441
***End_of_Header***	
	
Channels	1	
Samples	10	
Date	2023/05/24	
Time	16:36:30.0293946999999381763	
X_Dimension	Time	
X0	0.0000000000000000E+0	
Delta_X	0.010000	
***End_of_Header***		
X_Value	Untitled	Comment
0.000000	25.006839
0.010000	25.006839
0.020000	25.006839
0.030000	25.006839
0.040000	25.006839
0.050000	25.006839
0.060000	25.006839
0.070000	25.006839
0.080000	25.006839
0.090000	25.006839
0.100000	25.006839
0.110000	25.006839
0.120000	25.006839
0.130000	25.006839
0.140000	25.006839
0.150000	25.006839
0.160000	25.006839
0.170000	25.006839
0.180000	25.006839
0.190000	25.006839
0.200000	25.006839
0.210000	25.006839
0.220000	25.006839
0.230000	25.006839
0.240000	25.006839
0.250000	25.006839
0.260000	25.006839
0.270000	25.006839
0.280000	25.006839
0.290000	25.006839
0.300000	25.006839
0.310000	25.006839
0.320000	25.006839
0.330000	25.006839
0.340000	25.006839
0.350000	25.006839
0.360000	25.006839
0.370000	25.006839
0.380000	25.006839
0.390000	25.006839
0.400000	25.006839
0.410000	25.006839
0.420000	25.006839
0.430000	25.006839
0.440000	25.006839
0.450000	25.006839
0.460000	25.006839
0.470000	25.006839
0.480000	25.006839
0.490000	25.006839
0.500000	25.031518
0.510000	25.031518
0.520000	25.031518
0.530000	25.031518
0.540000	25.031518
0.550000	25.031518
0.560000	25.031518
0.570000	25.031518
0.580000	25.031518
0.590000	25.031518
0.600000	25.031518
0.610000	25.031518
0.620000	25.031518
0.630000	25.031518
0.640000	25.031518
0.650000	25.031518
0.660000	25.031518
0.670000	25.031518
0.680000	25.031518
0.690000	25.031518
0.700000	25.031518
0.710000	25.031518
0.720000	25.031518
0.730000	25.031518
0.740000	25.031518
0.750000	25.031518
0.760000	25.031518
0.770000	25.031518
0.780000	25.031518
0.790000	25.031518
0.800000	25.031518
0.810000	25.031518
0.820000	25.031518
0.830000	25.031518
0.840000	25.031518
0.850000	25.031518
0.860000	25.031518
0.870000	25.031518
0.880000	25.031518
0.890000	25.031518
0.900000	25.031518
0.910000	25.031518
0.920000	25.031518
0.930000	25.031518
0.940000	25.031518
0.950000	25.031518
0.960000	25.031518
0.970000	25.031518
0.980000	25.031518
0.990000	25.031518
1.000000	25.233563
1.010000	25.233563
1.020000	25.233563
1.030000	25.233563
1.040000	25.233563
1.050000	25.233563
1.060000	25.233563
1.070000	25.233563
1.080000	25.233563
1.090000	25.233563
1.100000	25.233563
1.110000	25.233563
1.120000	25.233563
1.130000	25.233563
1.140000	25.233563
1.150000	25.233563
1.160000	25.233563
1.170000	25.233563
1.180000	25.233563
1.190000	25.233563
1.200000	25.233563
1.210000	25.233563
1.220000	25.233563
1.230000	25.233563
1.240000	25.233563
1.250000	25.233563
1.260000	25.233563
1.270000	25.233563
1.280000	25.233563
1.290000	25.233563
1.300000	25.233563
1.310000	25.233563
1.320000	25.233563
1.330000	25.233563
1.340000	25.233563
1.350000	25.233563
1.360000	25.233563
1.370000	25.233563
1.380000	25.233563
1.390000	25.233563
1.400000	25.233563
1.410000	25.233563
1.420000	25.233563
1.430000	25.233563
1.440000	25.233563
1.450000	25.233563
1.460000	25.233563
1.470000	25.233563
1.480000	25.233563
1.490000	25.233563
1.500000	25.700028
1.510000	25.700028
1.520000	25.700028
1.530000	25.700028
1.540000	25.700028
1.550000	25.700028
1.560000	25.700028
1.570000	25.700028
1.580000	25.700028
1.590000	25.700028
1.600000	25.700028
1.610000	25.700028
1.620000	25.700028
1.630000	25.700028
1.640000	25.700028
1.650000	25.700028
1.660000	25.700028
1.670000	25.700028
1.680000	25.700028
1.690000	25.700028
1.700000	25.700028
1.710000	25.700028
1.720000	25.700028
1.730000	25.700028
1.740000	25.700028
1.750000	25.700028
1.760000	25.700028
1.770000	25.700028
1.780000	25.700028
1.790000	25.700028
1.800000	25.700028
1.810000	25.700028
1.820000	25.700028
1.830000	25.700028
1.840000	25.700028
1.850000	25.700028
1.860000	25.700028
1.870000	25.700028
1.880000	25.700028
1.890000	25.700028
1.900000	25.700028
1.910000	25.700028
1.920000	25.700028
1.930000	25.700028
1.940000	25.700028
1.950000	25.700028
1.960000	25.700028
1.970000	25.700028
1.980000	25.700028
1.990000	25.700028
2.000000	26.389632
2.010000	26.389632
2.020000	26.389632
2.030000	26.389632
2.040000	26.389632
2.050000	26.389632
2.060000	26.389632
2.070000	26.389632
2.080000	26.389632
2.090000	26.389632
2.100000	26.389632
2.110000	26.389632
2.120000	26.389632
2.130000	26.389632
2.140000	26.389632
2.150000	26.389632
2.160000	26.389632
2.170000	26.389632
2.180000	26.389632
2.190000	26.389632
2.200000	26.389632
2.210000	26.389632
2.220000	26.389632
2.230000	26.389632
2.240000	26.389632
2.250000	26.389632
2.260000	26.389632
2.270000	26.389632
2.280000	26.389632
2.290000	26.389632
2.300000	26.389632
2.310000	26.389632
2.320000	26.389632
2.330000	26.389632
2.340000	26.389632
2.350000	26.389632
2.360000	26.389632
2.370000	26.389632
2.380000	26.389632
2.390000	26.389632
2.400000	26.389632
2.410000	26.389632
2.420000	26.389632
2.430000	26.389632
2.440000	26.389632
2.450000	26.389632
2.460000	26.389632
2.470000	26.389632
2.480000	26.389632
2.490000	26.389632
2.500000	27.244688
2.510000	27.244688
2.520000	27.244688
2.530000	27.244688
2.540000	27.244688
2.550000	27.244688
2.560000	27.244688
2.570000	27.244688
2.580000	27.244688
2.590000	27.244688
2.600000	27.244688
2.610000	27.244688
2.620000	27.244688
2.630000	27.244688
2.640000	27.244688
2.650000	27.244688
2.660000	27.244688
2.670000	27.244688
2.680000	27.244688
2.690000	27.244688
2.700000	27.244688
2.710000	27.244688
2.720000	27.244688
2.730000	27.244688
2.740000	27.244688
2.750000	27.244688
2.760000	27.244688
2.770000	27.244688
2.780000	27.244688
2.790000	27.244688
2.800000	27.244688
2.810000	27.244688
2.820000	27.244688
2.830000	27.244688
2.840000	27.244688
2.850000	27.244688
2.860000	27.244688
2.870000	27.244688
2.880000	27.244688
2.890000	27.244688
2.900000	27.244688
2.910000	27.244688
2.920000	27.244688
2.930000	27.244688
2.940000	27.244688
2.950000	27.244688
2.960000	27.244688
2.970000	27.244688
2.980000	27.244688
2.990000	27.244688
3.000000	28.215811
3.010000	28.215811
3.020000	28.215811
3.030000	28.215811
3.040000	28.215811
3.050000	28.215811
3.060000	28.215811
3.070000	28.215811
3.080000	28.215811
3.090000	28.215811
3.100000	28.215811
3.110000	28.215811
3.120000	28.215811
3.130000	28.215811
3.140000	28.215811
3.150000	28.215811
3.160000	28.215811
3.170000	28.215811
3.180000	28.215811
3.190000	28.215811
3.200000	28.215811
3.210000	28.215811
3.220000	28.215811
3.230000	28.215811
3.240000	28.215811
3.250000	28.215811
3.260000	28.215811
3.270000	28.215811
3.280000	28.215811
3.290000	28.215811
3.300000	28.215811
3.310000	28.215811
3.320000	28.215811
3.330000	28.215811
3.340000	28.215811
3.350000	28.215811
3.360000	28.215811
3.370000	28.215811
3.380000	28.215811
3.390000	28.215811
3.400000	28.215811
3.410000	28.215811
3.420000	28.215811
3.430000	28.215811
3.440000	28.215811
3.450000	28.215811
3.460000	28.215811
3.470000	28.215811
3.480000	28.215811
3.490000	28.215811
3.500000	29.228118
3.510000	29.228118
3.520000	29.228118
3.530000	29.228118
3.540000	29.228118
3.550000	29.228118
3.560000	29.228118
3.570000	29.228118
3.580000	29.228118
3.590000	29.228118
3.600000	29.228118
3.610000	29.228118
3.620000	29.228118
3.630000	29.228118
3.640000	29.228118
3.650000	29.228118
3.660000	29.228118
3.670000	29.228118
3.680000	29.228118
3.690000	29.228118
3.700000	29.228118
3.710000	29.228118
3.720000	29.228118
3.730000	29.228118
3.740000	29.228118
3.750000	29.228118
3.760000	29.228118
3.770000	29.228118
3.780000	29.228118
3.790000	29.228118
3.800000	29.228118
3.810000	29.228118
3.820000	29.228118
3.830000	29.228118
3.840000	29.228118
3.850000	29.228118
3.860000	29.228118
3.870000	29.228118
3.880000	29.228118
3.890000	29.228118
3.900000	29.228118
3.910000	29.228118
3.920000	29.228118
3.930000	29.228118
3.940000	29.228118
3.950000	29.228118
3.960000	29.228118
3.970000	29.228118
3.980000	29.228118
3.990000	29.228118
4.000000	30.059766
4.010000	30.059766
4.020000	30.059766
4.030000	30.059766
4.040000	30.059766
4.050000	30.059766
4.060000	30.059766
4.070000	30.059766
4.080000	30.059766
4.090000	30.059766
4.100000	30.059766
4.110000	30.059766
4.120000	30.059766
4.130000	30.059766
4.140000	30.059766
4.150000	30.059766
4.160000	30.059766
4.170000	30.059766
4.180000	30.059766
4.190000	30.059766
4.200000	30.059766
4.210000	30.059766
4.220000	30.059766
4.230000	30.059766
4.240000	30.059766
4.250000	30.059766
4.260000	30.059766
4.270000	30.059766
4.280000	30.059766
4.290000	30.059766
4.300000	30.059766
4.310000	30.059766
4.320000	30.059766
4.330000	30.059766
4.340000	30.059766
4.350000	30.059766
4.360000	30.059766
4.370000	30.059766
4.380000	30.059766
4.390000	30.059766
4.400000	30.059766
4.410000	30.059766
4.420000	30.059766
4.430000	30.059766
4.440000	30.059766
4.450000	30.059766
4.460000	30.059766
4.470000	30.059766
4.480000	30.059766
4.490000	30.059766
4.500000	30.681144
4.510000	30.681144
4.520000	30.681144
4.530000	30.681144
4.540000	30.681144
4.550000	30.681144
4.560000	30.681144
4.570000	30.681144
4.580000	30.681144
4.590000	30.681144
4.600000	30.681144
4.610000	30.681144
4.620000	30.681144
4.630000	30.681144
4.640000	30.681144
4.650000	30.681144
4.660000	30.681144
4.670000	30.681144
4.680000	30.681144
4.690000	30.681144
4.700000	30.681144
4.710000	30.681144
4.720000	30.681144
4.730000	30.681144
4.740000	30.681144
4.750000	30.681144
4.760000	30.681144
4.770000	30.681144
4.780000	30.681144
4.790000	30.681144
4.800000	30.681144
4.810000	30.681144
4.820000	30.681144
4.830000	30.681144
4.840000	30.681144
4.850000	30.681144
4.860000	30.681144
4.870000	30.681144
4.880000	30.681144
4.890000	30.681144
4.900000	30.681144
4.910000	30.681144
4.920000	30.681144
4.930000	30.681144
4.940000	30.681144
4.950000	30.681144
4.960000	30.681144
4.970000	30.681144
4.980000	30.681144
4.990000	30.681144
5.000000	31.120485
5.010000	31.120485
5.020000	31.120485
5.030000	31.120485
5.040000	31.120485
5.050000	31.120485
5.060000	31.120485
5.070000	31.120485
5.080000	31.120485
5.090000	31.120485
5.100000	31.120485
5.110000	31.120485
5.120000	31.120485
5.130000	31.120485
5.140000	31.120485
5.150000	31.120485
5.160000	31.120485
5.170000	31.120485
5.180000	31.120485
5.190000	31.120485
5.200000	31.120485
5.210000	31.120485
5.220000	31.120485
5.230000	31.120485
5.240000	31.120485
5.250000	31.120485
5.260000	31.120485
5.270000	31.120485
5.280000	31.120485
5.290000	31.120485
5.300000	31.120485
5.310000	31.120485
5.320000	31.120485
5.330000	31.120485
5.340000	31.120485
5.350000	31.120485
5.360000	31.120485
5.370000	31.120485
5.380000	31.120485
5.390000	31.120485
5.400000	31.120485
5.410000	31.120485
5.420000	31.120485
5.430000	31.120485
5.440000	31.120485
5.450000	31.120485
5.460000	31.120485
5.470000	31.120485
5.480000	31.120485
5.490000	31.120485
5.500000	31.423017
5.510000	31.423017
5.520000	31.423017
5.530000	31.423017
5.540000	31.423017
5.550000	31.423017
5.560000	31.423017
5.570000	31.423017
5.580000	31.423017
5.590000	31.423017
5.600000	31.423017
5.610000	31.423017
5.620000	31.423017
5.630000	31.423017
5.640000	31.423017
5.650000	31.423017
5.660000	31.423017
5.670000	31.423017
5.680000	31.423017
5.690000	31.423017
5.700000	31.423017
5.710000	31.423017
5.720000	31.423017
5.730000	31.423017
5.740000	31.423017
5.750000	31.423017
5.760000	31.423017
5.770000	31.423017
5.780000	31.423017
5.790000	31.423017
5.800000	31.423017
5.810000	31.423017
5.820000	31.423017
5.830000	31.423017
5.840000	31.423017
5.850000	31.423017
5.860000	31.423017
5.870000	31.423017
5.880000	31.423017
5.890000	31.423017
5.900000	31.423017
5.910000	31.423017
5.920000	31.423017
5.930000	31.423017
5.940000	31.423017
5.950000	31.423017
5.960000	31.423017
5.970000	31.423017
5.980000	31.423017
5.990000	31.423017
6.000000	31.617147
6.010000	31.617147
6.020000	31.617147
6.030000	31.617147
6.040000	31.617147
6.050000	31.617147
6.060000	31.617147
6.070000	31.617147
6.080000	31.617147
6.090000	31.617147
6.100000	31.617147
6.110000	31.617147
6.120000	31.617147
6.130000	31.617147
6.140000	31.617147
6.150000	31.617147
6.160000	31.617147
6.170000	31.617147
6.180000	31.617147
6.190000	31.617147
6.200000	31.617147
6.210000	31.617147
6.220000	31.617147
6.230000	31.617147
6.240000	31.617147
6.250000	31.617147
6.260000	31.617147
6.270000	31.617147
6.280000	31.617147
6.290000	31.617147
6.300000	31.617147
6.310000	31.617147
6.320000	31.617147
6.330000	31.617147
6.340000	31.617147
6.350000	31.617147
6.360000	31.617147
6.370000	31.617147
6.380000	31.617147
6.390000	31.617147
6.400000	31.617147
6.410000	31.617147
6.420000	31.617147
6.430000	31.617147
6.440000	31.617147
6.450000	31.617147
6.460000	31.617147
6.470000	31.617147
6.480000	31.617147
6.490000	31.617147
6.500000	31.727414
6.510000	31.727414
6.520000	31.727414
6.530000	31.727414
6.540000	31.727414
6.550000	31.727414
6.560000	31.727414
6.570000	31.727414
6.580000	31.727414
6.590000	31.727414
6.600000	31.727414
6.610000	31.727414
6.620000	31.727414
6.630000	31.727414
6.640000	31.727414
6.650000	31.727414
6.660000	31.727414
6.670000	31.727414
6.680000	31.727414
6.690000	31.727414
6.700000	31.727414
6.710000	31.727414
6.720000	31.727414
6.730000	31.727414
6.740000	31.727414
6.750000	31.727414
6.760000	31.727414
6.770000	31.727414
6.780000	31.727414
6.790000	31.727414
6.800000	31.727414
6.810000	31.727414
6.820000	31.727414
6.830000	31.727414
6.840000	31.727414
6.850000	31.727414
6.860000	31.727414
6.870000	31.727414
6.880000	31.727414
6.890000	31.727414
6.900000	31.727414
6.910000	31.727414
6.920000	31.727414
6.930000	31.727414
6.940000	31.727414
6.950000	31.727414
6.960000	31.727414
6.970000	31.727414
6.980000	31.727414
6.990000	31.727414
7.000000	31.777959
7.010000	31.777959
7.020000	31.777959
7.030000	31.777959
7.040000	31.777959
7.050000	31.777959
7.060000	31.777959
7.070000	31.777959
7.080000	31.777959
7.090000	31.777959
7.100000	31.777959
7.110000	31.777959
7.120000	31.777959
7.130000	31.777959
7.140000	31.777959
7.150000	31.777959
7.160000	31.777959
7.170000	31.777959
7.180000	31.777959
7.190000	31.777959
7.200000	31.777959
7.210000	31.777959
7.220000	31.777959
7.230000	31.777959
7.240000	31.777959
7.250000	31.777959
7.260000	31.777959
7.270000	31.777959
7.280000	31.777959
7.290000	31.777959
7.300000	31.777959
7.310000	31.777959
7.320000	31.777959
7.330000	31.777959
7.340000	31.777959
7.350000	31.777959
7.360000	31.777959
7.370000	31.777959
7.380000	31.777959
7.390000	31.777959
7.400000	31.777959
7.410000	31.777959
7.420000	31.777959
7.430000	31.777959
7.440000	31.777959
7.450000	31.777959
7.460000	31.777959
7.470000	31.777959
7.480000	31.777959
7.490000	31.777959
7.500000	31.785614
7.510000	31.785614
7.520000	31.785614
7.530000	31.785614
7.540000	31.785614
7.550000	31.785614
7.560000	31.785614
7.570000	31.785614
7.580000	31.785614
7.590000	31.785614
7.600000	31.785614
7.610000	31.785614
7.620000	31.785614
7.630000	31.785614
7.640000	31.785614
7.650000	31.785614
7.660000	31.785614
7.670000	31.785614
7.680000	31.785614
7.690000	31.785614
7.700000	31.785614
7.710000	31.785614
7.720000	31.785614
7.730000	31.785614
7.740000	31.785614
7.750000	31.785614
7.760000	31.785614
7.770000	31.785614
7.780000	31.785614
7.790000	31.785614
7.800000	31.785614
7.810000	31.785614
7.820000	31.785614
7.830000	31.785614
7.840000	31.785614
7.850000	31.785614
7.860000	31.785614
7.870000	31.785614
7.880000	31.785614
7.890000	31.785614
7.900000	31.785614
7.910000	31.785614
7.920000	31.785614
7.930000	31.785614
7.940000	31.785614
7.950000	31.785614
7.960000	31.785614
7.970000	31.785614
7.980000	31.785614
7.990000	31.785614
8.000000	31.759633
8.010000	31.759633
8.020000	31.759633
8.030000	31.759633
8.040000	31.759633
8.050000	31.759633
8.060000	31.759633
8.070000	31.759633
8.080000	31.759633
8.090000	31.759633
8.100000	31.759633
8.110000	31.759633
8.120000	31.759633
8.130000	31.759633
8.140000	31.759633
8.150000	31.759633
8.160000	31.759633
8.170000	31.759633
8.180000	31.759633
8.190000	31.759633
8.200000	31.759633
8.210000	31.759633
8.220000	31.759633
8.230000	31.759633
8.240000	31.759633
8.250000	31.759633
8.260000	31.759633
8.270000	31.759633
8.280000	31.759633
8.290000	31.759633
8.300000	31.759633
8.310000	31.759633
8.320000	31.759633
8.330000	31.759633
8.340000	31.759633
8.350000	31.759633
8.360000	31.759633
8.370000	31.759633
8.380000	31.759633
8.390000	31.759633
8.400000	31.759633
8.410000	31.759633
8.420000	31.759633
8.430000	31.759633
8.440000	31.759633
8.450000	31.759633
8.460000	31.759633
8.470000	31.759633
8.480000	31.759633
8.490000	31.759633
8.500000	31.704845
8.510000	31.704845
8.520000	31.704845
8.530000	31.704845
8.540000	31.704845
8.550000	31.704845
8.560000	31.704845
8.570000	31.704845
8.580000	31.704845
8.590000	31.704845
8.600000	31.704845
8.610000	31.704845
8.620000	31.704845
8.630000	31.704845
8.640000	31.704845
8.650000	31.704845
8.660000	31.704845
8.670000	31.704845
8.680000	31.704845
8.690000	31.704845
8.700000	31.704845
8.710000	31.704845
8.720000	31.704845
8.730000	31.704845
8.740000	31.704845
8.750000	31.704845
8.760000	31.704845
8.770000	31.704845
8.780000	31.704845
8.790000	31.704845
8.800000	31.704845
8.810000	31.704845
8.820000	31.704845
8.830000	31.704845
8.840000	31.704845
8.850000	31.704845
8.860000	31.704845
8.870000	31.704845
8.880000	31.704845
8.890000	31.704845
8.900000	31.704845
8.910000	31.704845
8.920000	31.704845
8.930000	31.704845
8.940000	31.704845
8.950000	31.704845
8.960000	31.704845
8.970000	31.704845
8.980000	31.704845
8.990000	31.704845
9.000000	31.629209
9.010000	31.629209
9.020000	31.629209
9.030000	31.629209
9.040000	31.629209
9.050000	31.629209
9.060000	31.629209
9.070000	31.629209
9.080000	31.629209
9.090000	31.629209
9.100000	31.629209
9.110000	31.629209
9.120000	31.629209
9.130000	31.629209
9.140000	31.629209
9.150000	31.629209
9.160000	31.629209
9.170000	31.629209
9.180000	31.629209
9.190000	31.629209
9.200000	31.629209
9.210000	31.629209
9.220000	31.629209
9.230000	31.629209
9.240000	31.629209
9.250000	31.629209
9.260000	31.629209
9.270000	31.629209
9.280000	31.629209
9.290000	31.629209
9.300000	31.629209
9.310000	31.629209
9.320000	31.629209
9.330000	31.629209
9.340000	31.629209
9.350000	31.629209
9.360000	31.629209
9.370000	31.629209
9.380000	31.629209
9.390000	31.629209
9.400000	31.629209
9.410000	31.629209
9.420000	31.629209
9.430000	31.629209
9.440000	31.629209
9.450000	31.629209
9.460000	31.629209
9.470000	31.629209
9.480000	31.629209
9.490000	31.629209
9.500000	31.539409
9.510000	31.539409
9.520000	31.539409
9.530000	31.539409
9.540000	31.539409
9.550000	31.539409
9.560000	31.539409
9.570000	31.539409
9.580000	31.539409
9.590000	31.539409
9.600000	31.539409
9.610000	31.539409
9.620000	31.539409
9.630000	31.539409
9.640000	31.539409
9.650000	31.539409
9.660000	31.539409
9.670000	31.539409
9.680000	31.539409
9.690000	31.539409
9.700000	31.539409
9.710000	31.539409
9.720000	31.539409
9.730000	31.539409
9.740000	31.539409
9.750000	31.539409
9.760000	31.539409
9.770000	31.539409
9.780000	31.539409
9.790000	31.539409
9.800000	31.539409
9.810000	31.539409
9.820000	31.539409
9.830000	31.539409
9.840000	31.539409
9.850000	31.539409
9.860000	31.539409
9.870000	31.539409
9.880000	31.539409
9.890000	31.539409
9.900000	31.539409
9.910000	31.539409
9.920000	31.539409
9.930000	31.539409
9.940000	31.539409
9.950000	31.539409
9.960000	31.539409
9.970000	31.539409
9.980000	31.539409
9.990000	31.539409
10.000000	31.438735
10.010000	31.438735
10.020000	31.438735
10.030000	31.438735
10.040000	31.438735
10.050000	31.438735
10.060000	31.438735
10.070000	31.438735
10.080000	31.438735
10.090000	31.438735
10.100000	31.438735
10.110000	31.438735
10.120000	31.438735
10.130000	31.438735
10.140000	31.438735
10.150000	31.438735
10.160000	31.438735
10.170000	31.438735
10.180000	31.438735
10.190000	31.438735
10.200000	31.438735
10.210000	31.438735
10.220000	31.438735
10.230000	31.438735
10.240000	31.438735
10.250000	31.438735
10.260000	31.438735
10.270000	31.438735
10.280000	31.438735
10.290000	31.438735
10.300000	31.438735
10.310000	31.438735
10.320000	31.438735
10.330000	31.438735
10.340000	31.438735
10.350000	31.438735
10.360000	31.438735
10.370000	31.438735
10.380000	31.438735
10.390000	31.438735
10.400000	31.438735
10.410000	31.438735
10.420000	31.438735
10.430000	31.438735
10.440000	31.438735
10.450000	31.438735
10.460000	31.438735
10.470000	31.438735
10.480000	31.438735
10.490000	31.438735
10.500000	31.329383
10.510000	31.329383
10.520000	31.329383
10.530000	31.329383
10.540000	31.329383
10.550000	31.329383
10.560000	31.329383
10.570000	31.329383
10.580000	31.329383
10.590000	31.329383
10.600000	31.329383
10.610000	31.329383
10.620000	31.329383
10.630000	31.329383
10.640000	31.329383
10.650000	31.329383
10.660000	31.329383
10.670000	31.329383
10.680000	31.329383
10.690000	31.329383
10.700000	31.329383
10.710000	31.329383
10.720000	31.329383
10.730000	31.329383
10.740000	31.329383
10.750000	31.329383
10.760000	31.329383
10.770000	31.329383
10.780000	31.329383
10.790000	31.329383
10.800000	31.329383
10.810000	31.329383
10.820000	31.329383
10.830000	31.329383
10.840000	31.329383
10.850000	31.329383
10.860000	31.329383
10.870000	31.329383
10.880000	31.329383
10.890000	31.329383
10.900000	31.329383
10.910000	31.329383
10.920000	31.329383
10.930000	31.329383
10.940000	31.329383
10.950000	31.329383
10.960000	31.329383
10.970000	31.329383
10.980000	31.329383
10.990000	31.329383
11.000000	31.214363
11.010000	31.214363
11.020000	31.214363
11.030000	31.214363
11.040000	31.214363
11.050000	31.214363
11.060000	31.214363
11.070000	31.214363
11.080000	31.214363
11.090000	31.214363
11.100000	31.214363
11.110000	31.214363
11.120000	31.214363
11.130000	31.214363
11.140000	31.214363
11.150000	31.214363
11.160000	31.214363
11.170000	31.214363
11.180000	31.214363
11.190000	31.214363
11.200000	31.214363
11.210000	31.214363
11.220000	31.214363
11.230000	31.214363
11.240000	31.214363
11.250000	31.214363
11.260000	31.214363
11.270000	31.214363
11.280000	31.214363
11.290000	31.214363
11.300000	31.214363
11.310000	31.214363
11.320000	31.214363
11.330000	31.214363
11.340000	31.214363
11.350000	31.214363
11.360000	31.214363
11.370000	31.214363
11.380000	31.214363
11.390000	31.214363
11.400000	31.214363
11.410000	31.214363
11.420000	31.214363
11.430000	31.214363
11.440000	31.214363
11.450000	31.214363
11.460000	31.214363
11.470000	31.214363
11.480000	31.214363
11.490000	31.214363
11.500000	31.096093
11.510000	31.096093
11.520000	31.096093
11.530000	31.096093
11.540000	31.096093
11.550000	31.096093
11.560000	31.096093
11.570000	31.096093
11.580000	31.096093
11.590000	31.096093
11.600000	31.096093
11.610000	31.096093
11.620000	31.096093
11.630000	31.096093
11.640000	31.096093
11.650000	31.096093
11.660000	31.096093
11.670000	31.096093
11.680000	31.096093
11.690000	31.096093
11.700000	31.096093
11.710000	31.096093
11.720000	31.096093
11.730000	31.096093
11.740000	31.096093
11.750000	31.096093
11.760000	31.096093
11.770000	31.096093
11.780000	31.096093
11.790000	31.096093
11.800000	31.096093
11.810000	31.096093
11.820000	31.096093
11.830000	31.096093
11.840000	31.096093
11.850000	31.096093
11.860000	31.096093
11.870000	31.096093
11.880000	31.096093
11.890000	31.096093
11.900000	31.096093
11.910000	31.096093
11.920000	31.096093
11.930000	31.096093
11.940000	31.096093
11.950000	31.096093
11.960000	31.096093
11.970000	31.096093
11.980000	31.096093
11.990000	31.096093
12.000000	30.973063
12.010000	30.973063
12.020000	30.973063
12.030000	30.973063
12.040000	30.973063
12.050000	30.973063
12.060000	30.973063
12.070000	30.973063
12.080000	30.973063
12.090000	30.973063
12.100000	30.973063
12.110000	30.973063
12.120000	30.973063
12.130000	30.973063
12.140000	30.973063
12.150000	30.973063
12.160000	30.973063
12.170000	30.973063
12.180000	30.973063
12.190000	30.973063
12.200000	30.973063
12.210000	30.973063
12.220000	30.973063
12.230000	30.973063
12.240000	30.973063
12.250000	30.973063
12.260000	30.973063
12.270000	30.973063
12.280000	30.973063
12.290000	30.973063
12.300000	30.973063
12.310000	30.973063
12.320000	30.973063
12.330000	30.973063
12.340000	30.973063
12.350000	30.973063
12.360000	30.973063
12.370000	30.973063
12.380000	30.973063
12.390000	30.973063
12.400000	30.973063
12.410000	30.973063
12.420000	30.973063
12.430000	30.973063
12.440000	30.973063
12.450000	30.973063
12.460000	30.973063
12.470000	30.973063
12.480000	30.973063
12.490000	30.973063
12.500000	30.851211
12.510000	30.851211
12.520000	30.851211
12.530000	30.851211
12.540000	30.851211
12.550000	30.851211
12.560000	30.851211
12.570000	30.851211
12.580000	30.851211
12.590000	30.851211
12.600000	30.851211
12.610000	30.851211
12.620000	30.851211
12.630000	30.851211
12.640000	30.851211
12.650000	30.851211
12.660000	30.851211
12.670000	30.851211
12.680000	30.851211
12.690000	30.851211
12.700000	30.851211
12.710000	30.851211
12.720000	30.851211
12.730000	30.851211
12.740000	30.851211
12.750000	30.851211
12.760000	30.851211
12.770000	30.851211
12.780000	30.851211
12.790000	30.851211
12.800000	30.851211
12.810000	30.851211
12.820000	30.851211
12.830000	30.851211
12.840000	30.851211
12.850000	30.851211
12.860000	30.851211
12.870000	30.851211
12.880000	30.851211
12.890000	30.851211
12.900000	30.851211
12.910000	30.851211
12.920000	30.851211
12.930000	30.851211
12.940000	30.851211
12.950000	30.851211
12.960000	30.851211
12.970000	30.851211
12.980000	30.851211
12.990000	30.851211
13.000000	30.730124
13.010000	30.730124
13.020000	30.730124
13.030000	30.730124
13.040000	30.730124
13.050000	30.730124
13.060000	30.730124
13.070000	30.730124
13.080000	30.730124
13.090000	30.730124
13.100000	30.730124
13.110000	30.730124
13.120000	30.730124
13.130000	30.730124
13.140000	30.730124
13.150000	30.730124
13.160000	30.730124
13.170000	30.730124
13.180000	30.730124
13.190000	30.730124
13.200000	30.730124
13.210000	30.730124
13.220000	30.730124
13.230000	30.730124
13.240000	30.730124
13.250000	30.730124
13.260000	30.730124
13.270000	30.730124
13.280000	30.730124
13.290000	30.730124
13.300000	30.730124
13.310000	30.730124
13.320000	30.730124
13.330000	30.730124
13.340000	30.730124
13.350000	30.730124
13.360000	30.730124
13.370000	30.730124
13.380000	30.730124
13.390000	30.730124
13.400000	30.730124
13.410000	30.730124
13.420000	30.730124
13.430000	30.730124
13.440000	30.730124
13.450000	30.730124
13.460000	30.730124
13.470000	30.730124
13.480000	30.730124
13.490000	30.730124
13.500000	30.610941
13.510000	30.610941
13.520000	30.610941
13.530000	30.610941
13.540000	30.610941
13.550000	30.610941
13.560000	30.610941
13.570000	30.610941
13.580000	30.610941
13.590000	30.610941
13.600000	30.610941
13.610000	30.610941
13.620000	30.610941
13.630000	30.610941
13.640000	30.610941
13.650000	30.610941
13.660000	30.610941
13.670000	30.610941
13.680000	30.610941
13.690000	30.610941
13.700000	30.610941
13.710000	30.610941
13.720000	30.610941
13.730000	30.610941
13.740000	30.610941
13.750000	30.610941
13.760000	30.610941
13.770000	30.610941
13.780000	30.610941
13.790000	30.610941
13.800000	30.610941
13.810000	30.610941
13.820000	30.610941
13.830000	30.610941
13.840000	30.610941
13.850000	30.610941
13.860000	30.610941
13.870000	30.610941
13.880000	30.610941
13.890000	30.610941
13.900000	30.610941
13.910000	30.610941
13.920000	30.610941
13.930000	30.610941
13.940000	30.610941
13.950000	30.610941
13.960000	30.610941
13.970000	30.610941
13.980000	30.610941
13.990000	30.610941
14.000000	30.494091
14.010000	30.494091
14.020000	30.494091
14.030000	30.494091
14.040000	30.494091
14.050000	30.494091
14.060000	30.494091
14.070000	30.494091
14.080000	30.494091
14.090000	30.494091
14.100000	30.494091
14.110000	30.494091
14.120000	30.494091
14.130000	30.494091
14.140000	30.494091
14.150000	30.494091
14.160000	30.494091
14.170000	30.494091
14.180000	30.494091
14.190000	30.494091
14.200000	30.494091
14.210000	30.494091
14.220000	30.494091
14.230000	30.494091
14.240000	30.494091
14.250000	30.494091
14.260000	30.494091
14.270000	30.494091
14.280000	30.494091
14.290000	30.494091
14.300000	30.494091
14.310000	30.494091
14.320000	30.494091
14.330000	30.494091
14.340000	30.494091
14.350000	30.494091
14.360000	30.494091
14.370000	30.494091
14.380000	30.494091
14.390000	30.494091
14.400000	30.494091
14.410000	30.494091
14.420000	30.494091
14.430000	30.494091
14.440000	30.494091
14.450000	30.494091
14.460000	30.494091
14.470000	30.494091
14.480000	30.494091
14.490000	30.494091
14.500000	30.379471
14.510000	30.379471
14.520000	30.379471
14.530000	30.379471
14.540000	30.379471
14.550000	30.379471
14.560000	30.379471
14.570000	30.379471
14.580000	30.379471
14.590000	30.379471
14.600000	30.379471
14.610000	30.379471
14.620000	30.379471
14.630000	30.379471
14.640000	30.379471
14.650000	30.379471
14.660000	30.379471
14.670000	30.379471
14.680000	30.379471
14.690000	30.379471
14.700000	30.379471
14.710000	30.379471
14.720000	30.379471
14.730000	30.379471
14.740000	30.379471
14.750000	30.379471
14.760000	30.379471
14.770000	30.379471
14.780000	30.379471
14.790000	30.379471
14.800000	30.379471
14.810000	30.379471
14.820000	30.379471
14.830000	30.379471
14.840000	30.379471
14.850000	30.379471
14.860000	30.379471
14.870000	30.379471
14.880000	30.379471
14.890000	30.379471
14.900000	30.379471
14.910000	30.379471
14.920000	30.379471
14.930000	30.379471
14.940000	30.379471
14.950000	30.379471
14.960000	30.379471
14.970000	30.379471
14.980000	30.379471
14.990000	30.379471
15.000000	30.265951
15.010000	30.265951
15.020000	30.265951
15.030000	30.265951
15.040000	30.265951
15.050000	30.265951
15.060000	30.265951
15.070000	30.265951
15.080000	30.265951
15.090000	30.265951
15.100000	30.265951
15.110000	30.265951
15.120000	30.265951
15.130000	30.265951
15.140000	30.265951
15.150000	30.265951
15.160000	30.265951
15.170000	30.265951
15.180000	30.265951
15.190000	30.265951
15.200000	30.265951
15.210000	30.265951
15.220000	30.265951
15.230000	30.265951
15.240000	30.265951
15.250000	30.265951
15.260000	30.265951
15.270000	30.265951
15.280000	30.265951
15.290000	30.265951
15.300000	30.265951
15.310000	30.265951
15.320000	30.265951
15.330000	30.265951
15.340000	30.265951
15.350000	30.265951
15.360000	30.265951
15.370000	30.265951
15.380000	30.265951
15.390000	30.265951
15.400000	30.265951
15.410000	30.265951
15.420000	30.265951
15.430000	30.265951
15.440000	30.265951
15.450000	30.265951
15.460000	30.265951
15.470000	30.265951
15.480000	30.265951
15.490000	30.265951
15.500000	30.155809
15.510000	30.155809
15.520000	30.155809
15.530000	30.155809
15.540000	30.155809
15.550000	30.155809
15.560000	30.155809
15.570000	30.155809
15.580000	30.155809
15.590000	30.155809
15.600000	30.155809
15.610000	30.155809
15.620000	30.155809
15.630000	30.155809
15.640000	30.155809
15.650000	30.155809
15.660000	30.155809
15.670000	30.155809
15.680000	30.155809
15.690000	30.155809
15.700000	30.155809
15.710000	30.155809
15.720000	30.155809
15.730000	30.155809
15.740000	30.155809
15.750000	30.155809
15.760000	30.155809
15.770000	30.155809
15.780000	30.155809
15.790000	30.155809
15.800000	30.155809
15.810000	30.155809
15.820000	30.155809
15.830000	30.155809
15.840000	30.155809
15.850000	30.155809
15.860000	30.155809
15.870000	30.155809
15.880000	30.155809
15.890000	30.155809
15.900000	30.155809
15.910000	30.155809
15.920000	30.155809
15.930000	30.155809
15.940000	30.155809
15.950000	30.155809
15.960000	30.155809
15.970000	30.155809
15.980000	30.155809
15.990000	30.155809
16.000000	30.048387
16.010000	30.048387
16.020000	30.048387
16.030000	30.048387
16.040000	30.048387
16.050000	30.048387
16.060000	30.048387
16.070000	30.048387
16.080000	30.048387
16.090000	30.048387
16.100000	30.048387
16.110000	30.048387
16.120000	30.048387
16.130000	30.048387
16.140000	30.048387
16.150000	30.048387
16.160000	30.048387
16.170000	30.048387
16.180000	30.048387
16.190000	30.048387
16.200000	30.048387
16.210000	30.048387
16.220000	30.048387
16.230000	30.048387
16.240000	30.048387
16.250000	30.048387
16.260000	30.048387
16.270000	30.048387
16.280000	30.048387
16.290000	30.048387
16.300000	30.048387
16.310000	30.048387
16.320000	30.048387
16.330000	30.048387
16.340000	30.048387
16.350000	30.048387
16.360000	30.048387
16.370000	30.048387
16.380000	30.048387
16.390000	30.048387
16.400000	30.048387
16.410000	30.048387
16.420000	30.048387
16.430000	30.048387
16.440000	30.048387
16.450000	30.048387
16.460000	30.048387
16.470000	30.048387
16.480000	30.048387
16.490000	30.048387
16.500000	29.942883
16.510000	29.942883
16.520000	29.942883
16.530000	29.942883
16.540000	29.942883
16.550000	29.942883
16.560000	29.942883
16.570000	29.942883
16.580000	29.942883
16.590000	29.942883
16.600000	29.942883
16.610000	29.942883
16.620000	29.942883
16.630000	29.942883
16.640000	29.942883
16.650000	29.942883
16.660000	29.942883
16.670000	29.942883
16.680000	29.942883
16.690000	29.942883
16.700000	29.942883
16.710000	29.942883
16.720000	29.942883
16.730000	29.942883
16.740000	29.942883
16.750000	29.942883
16.760000	29.942883
16.770000	29.942883
16.780000	29.942883
16.790000	29.942883
16.800000	29.942883
16.810000	29.942883
16.820000	29.942883
16.830000	29.942883
16.840000	29.942883
16.850000	29.942883
16.860000	29.942883
16.870000	29.942883
16.880000	29.942883
16.890000	29.942883
16.900000	29.942883
16.910000	29.942883
16.920000	29.942883
16.930000	29.942883
16.940000	29.942883
16.950000	29.942883
16.960000	29.942883
16.970000	29.942883
16.980000	29.942883
16.990000	29.942883
17.000000	29.839031
17.010000	29.839031
17.020000	29.839031
17.030000	29.839031
17.040000	29.839031
17.050000	29.839031
17.060000	29.839031
17.070000	29.839031
17.080000	29.839031
17.090000	29.839031
17.100000	29.839031
17.110000	29.839031
17.120000	29.839031
17.130000	29.839031
17.140000	29.839031
17.150000	29.839031
17.160000	29.839031
17.170000	29.839031
17.180000	29.839031
17.190000	29.839031
17.200000	29.839031
17.210000	29.839031
17.220000	29.839031
17.230000	29.839031
17.240000	29.839031
17.250000	29.839031
17.260000	29.839031
17.270000	29.839031
17.280000	29.839031
17.290000	29.839031
17.300000	29.839031
17.310000	29.839031
17.320000	29.839031
17.330000	29.839031
17.340000	29.839031
17.350000	29.839031
17.360000	29.839031
17.370000	29.839031
17.380000	29.839031
17.390000	29.839031
17.400000	29.839031
17.410000	29.839031
17.420000	29.839031
17.430000	29.839031
17.440000	29.839031
17.450000	29.839031
17.460000	29.839031
17.470000	29.839031
17.480000	29.839031
17.490000	29.839031
17.500000	29.737825
17.510000	29.737825
17.520000	29.737825
17.530000	29.737825
17.540000	29.737825
17.550000	29.737825
17.560000	29.737825
17.570000	29.737825
17.580000	29.737825
17.590000	29.737825
17.600000	29.737825
17.610000	29.737825
17.620000	29.737825
17.630000	29.737825
17.640000	29.737825
17.650000	29.737825
17.660000	29.737825
17.670000	29.737825
17.680000	29.737825
17.690000	29.737825
17.700000	29.737825
17.710000	29.737825
17.720000	29.737825
17.730000	29.737825
17.740000	29.737825
17.750000	29.737825
17.760000	29.737825
17.770000	29.737825
17.780000	29.737825
17.790000	29.737825
17.800000	29.737825
17.810000	29.737825
17.820000	29.737825
17.830000	29.737825
17.840000	29.737825
17.850000	29.737825
17.860000	29.737825
17.870000	29.737825
17.880000	29.737825
17.890000	29.737825
17.900000	29.737825
17.910000	29.737825
17.920000	29.737825
17.930000	29.737825
17.940000	29.737825
17.950000	29.737825
17.960000	29.737825
17.970000	29.737825
17.980000	29.737825
17.990000	29.737825
