LabVIEW Measurement	
Writer_Version	2
Reader_Version	2
Separator	Tab
Decimal_Separator	.
Multi_Headings	No
X_Columns	One
Time_Pref	Absolute
Operator	biomech-dyno
Date	2023/05/24
Time	16:31:59.7770512999995510441
***End_of_Header***	
	
Channels	1	
Samples	10	
Date	2023/05/24	
Time	16:37:35.5818820999996521015	
X_Dimension	Time	
X0	0.0000000000000000E+0	
Delta_X	0.010000	
***End_of_Header***		
X_Value	Untitled	Comment
0.000000	24.997705
0.010000	24.997705
0.020000	24.997705
0.030000	24.997705
0.040000	24.997705
0.050000	24.997705
0.060000	24.997705
0.070000	24.997705
0.080000	24.997705
0.090000	24.997705
0.100000	24.997705
0.110000	24.997705
0.120000	24.997705
0.130000	24.997705
0.140000	24.997705
0.150000	24.997705
0.160000	24.997705
0.170000	24.997705
0.180000	24.997705
0.190000	24.997705
0.200000	24.997705
0.210000	24.997705
0.220000	24.997705
0.230000	24.997705
0.240000	24.997705
0.250000	24.997705
0.260000	24.997705
0.270000	24.997705
0.280000	24.997705
0.290000	24.997705
0.300000	24.997705
0.310000	24.997705
0.320000	24.997705
0.330000	24.997705
0.340000	24.997705
0.350000	24.997705
0.360000	24.997705
0.370000	24.997705
0.380000	24.997705
0.390000	24.997705
0.400000	24.997705
0.410000	24.997705
0.420000	24.997705
0.430000	24.997705
0.440000	24.997705
0.450000	24.997705
0.460000	24.997705
0.470000	24.997705
0.480000	24.997705
0.490000	24.997705
0.500000	25.026760
0.510000	25.026760
0.520000	25.026760
0.530000	25.026760
0.540000	25.026760
0.550000	25.026760
0.560000	25.026760
0.570000	25.026760
0.580000	25.026760
0.590000	25.026760
0.600000	25.026760
0.610000	25.026760
0.620000	25.026760
0.630000	25.026760
0.640000	25.026760
0.650000	25.026760
0.660000	25.026760
0.670000	25.026760
0.680000	25.026760
0.690000	25.026760
0.700000	25.026760
0.710000	25.026760
0.720000	25.026760
0.730000	25.026760
0.740000	25.026760
0.750000	25.026760
0.760000	25.026760
0.770000	25.026760
0.780000	25.026760
0.790000	25.026760
0.800000	25.026760
0.810000	25.026760
0.820000	25.026760
0.830000	25.026760
0.840000	25.026760
0.850000	25.026760
0.860000	25.026760
0.870000	25.026760
0.880000	25.026760
0.890000	25.026760
0.900000	25.026760
0.910000	25.026760
0.920000	25.026760
0.930000	25.026760
0.940000	25.026760
0.950000	25.026760
0.960000	25.026760
0.970000	25.026760
0.980000	25.026760
0.990000	25.026760
1.000000	25.317382
1.010000	25.317382
1.020000	25.317382
1.030000	25.317382
1.040000	25.317382
1.050000	25.317382
1.060000	25.317382
1.070000	25.317382
1.080000	25.317382
1.090000	25.317382
1.100000	25.317382
1.110000	25.317382
1.120000	25.317382
1.130000	25.317382
1.140000	25.317382
1.150000	25.317382
1.160000	25.317382
1.170000	25.317382
1.180000	25.317382
1.190000	25.317382
1.200000	25.317382
1.210000	25.317382
1.220000	25.317382
1.230000	25.317382
1.240000	25.317382
1.250000	25.317382
1.260000	25.317382
1.270000	25.317382
1.280000	25.317382
1.290000	25.317382
1.300000	25.317382
1.310000	25.317382
1.320000	25.317382
1.330000	25.317382
1.340000	25.317382
1.350000	25.317382
1.360000	25.317382
1.370000	25.317382
1.380000	25.317382
1.390000	25.317382
1.400000	25.317382
1.410000	25.317382
1.420000	25.317382
1.430000	25.317382
1.440000	25.317382
1.450000	25.317382
1.460000	25.317382
1.470000	25.317382
1.480000	25.317382
1.490000	25.317382
1.500000	25.997776
1.510000	25.997776
1.520000	25.997776
1.530000	25.997776
1.540000	25.997776
1.550000	25.997776
1.560000	25.997776
1.570000	25.997776
1.580000	25.997776
1.590000	25.997776
1.600000	25.997776
1.610000	25.997776
1.620000	25.997776
1.630000	25.997776
1.640000	25.997776
1.650000	25.997776
1.660000	25.997776
1.670000	25.997776
1.680000	25.997776
1.690000	25.997776
1.700000	25.997776
1.710000	25.997776
1.720000	25.997776
1.730000	25.997776
1.740000	25.997776
1.750000	25.997776
1.760000	25.997776
1.770000	25.997776
1.780000	25.997776
1.790000	25.997776
1.800000	25.997776
1.810000	25.997776
1.820000	25.997776
1.830000	25.997776
1.840000	25.997776
1.850000	25.997776
1.860000	25.997776
1.870000	25.997776
1.880000	25.997776
1.890000	25.997776
1.900000	25.997776
1.910000	25.997776
1.920000	25.997776
1.930000	25.997776
1.940000	25.997776
1.950000	25.997776
1.960000	25.997776
1.970000	25.997776
1.980000	25.997776
1.990000	25.997776
2.000000	26.997726
2.010000	26.997726
2.020000	26.997726
2.030000	26.997726
2.040000	26.997726
2.050000	26.997726
2.060000	26.997726
2.070000	26.997726
2.080000	26.997726
2.090000	26.997726
2.100000	26.997726
2.110000	26.997726
2.120000	26.997726
2.130000	26.997726
2.140000	26.997726
2.150000	26.997726
2.160000	26.997726
2.170000	26.997726
2.180000	26.997726
2.190000	26.997726
2.200000	26.997726
2.210000	26.997726
2.220000	26.997726
2.230000	26.997726
2.240000	26.997726
2.250000	26.997726
2.260000	26.997726
2.270000	26.997726
2.280000	26.997726
2.290000	26.997726
2.300000	26.997726
2.310000	26.997726
2.320000	26.997726
2.330000	26.997726
2.340000	26.997726
2.350000	26.997726
2.360000	26.997726
2.370000	26.997726
2.380000	26.997726
2.390000	26.997726
2.400000	26.997726
2.410000	26.997726
2.420000	26.997726
2.430000	26.997726
2.440000	26.997726
2.450000	26.997726
2.460000	26.997726
2.470000	26.997726
2.480000	26.997726
2.490000	26.997726
2.500000	28.240019
2.510000	28.240019
2.520000	28.240019
2.530000	28.240019
2.540000	28.240019
2.550000	28.240019
2.560000	28.240019
2.570000	28.240019
2.580000	28.240019
2.590000	28.240019
2.600000	28.240019
2.610000	28.240019
2.620000	28.240019
2.630000	28.240019
2.640000	28.240019
2.650000	28.240019
2.660000	28.240019
2.670000	28.240019
2.680000	28.240019
2.690000	28.240019
2.700000	28.240019
2.710000	28.240019
2.720000	28.240019
2.730000	28.240019
2.740000	28.240019
2.750000	28.240019
2.760000	28.240019
2.770000	28.240019
2.780000	28.240019
2.790000	28.240019
2.800000	28.240019
2.810000	28.240019
2.820000	28.240019
2.830000	28.240019
2.840000	28.240019
2.850000	28.240019
2.860000	28.240019
2.870000	28.240019
2.880000	28.240019
2.890000	28.240019
2.900000	28.240019
2.910000	28.240019
2.920000	28.240019
2.930000	28.240019
2.940000	28.240019
2.950000	28.240019
2.960000	28.240019
2.970000	28.240019
2.980000	28.240019
2.990000	28.240019
3.000000	29.657108
3.010000	29.657108
3.020000	29.657108
3.030000	29.657108
3.040000	29.657108
3.050000	29.657108
3.060000	29.657108
3.070000	29.657108
3.080000	29.657108
3.090000	29.657108
3.100000	29.657108
3.110000	29.657108
3.120000	29.657108
3.130000	29.657108
3.140000	29.657108
3.150000	29.657108
3.160000	29.657108
3.170000	29.657108
3.180000	29.657108
3.190000	29.657108
3.200000	29.657108
3.210000	29.657108
3.220000	29.657108
3.230000	29.657108
3.240000	29.657108
3.250000	29.657108
3.260000	29.657108
3.270000	29.657108
3.280000	29.657108
3.290000	29.657108
3.300000	29.657108
3.310000	29.657108
3.320000	29.657108
3.330000	29.657108
3.340000	29.657108
3.350000	29.657108
3.360000	29.657108
3.370000	29.657108
3.380000	29.657108
3.390000	29.657108
3.400000	29.657108
3.410000	29.657108
3.420000	29.657108
3.430000	29.657108
3.440000	29.657108
3.450000	29.657108
3.460000	29.657108
3.470000	29.657108
3.480000	29.657108
3.490000	29.657108
3.500000	31.118412
3.510000	31.118412
3.520000	31.118412
3.530000	31.118412
3.540000	31.118412
3.550000	31.118412
3.560000	31.118412
3.570000	31.118412
3.580000	31.118412
3.590000	31.118412
3.600000	31.118412
3.610000	31.118412
3.620000	31.118412
3.630000	31.118412
3.640000	31.118412
3.650000	31.118412
3.660000	31.118412
3.670000	31.118412
3.680000	31.118412
3.690000	31.118412
3.700000	31.118412
3.710000	31.118412
3.720000	31.118412
3.730000	31.118412
3.740000	31.118412
3.750000	31.118412
3.760000	31.118412
3.770000	31.118412
3.780000	31.118412
3.790000	31.118412
3.800000	31.118412
3.810000	31.118412
3.820000	31.118412
3.830000	31.118412
3.840000	31.118412
3.850000	31.118412
3.860000	31.118412
3.870000	31.118412
3.880000	31.118412
3.890000	31.118412
3.900000	31.118412
3.910000	31.118412
3.920000	31.118412
3.930000	31.118412
3.940000	31.118412
3.950000	31.118412
3.960000	31.118412
3.970000	31.118412
3.980000	31.118412
3.990000	31.118412
4.000000	32.323283
4.010000	32.323283
4.020000	32.323283
4.030000	32.323283
4.040000	32.323283
4.050000	32.323283
4.060000	32.323283
4.070000	32.323283
4.080000	32.323283
4.090000	32.323283
4.100000	32.323283
4.110000	32.323283
4.120000	32.323283
4.130000	32.323283
4.140000	32.323283
4.150000	32.323283
4.160000	32.323283
4.170000	32.323283
4.180000	32.323283
4.190000	32.323283
4.200000	32.323283
4.210000	32.323283
4.220000	32.323283
4.230000	32.323283
4.240000	32.323283
4.250000	32.323283
4.260000	32.323283
4.270000	32.323283
4.280000	32.323283
4.290000	32.323283
4.300000	32.323283
4.310000	32.323283
4.320000	32.323283
4.330000	32.323283
4.340000	32.323283
4.350000	32.323283
4.360000	32.323283
4.370000	32.323283
4.380000	32.323283
4.390000	32.323283
4.400000	32.323283
4.410000	32.323283
4.420000	32.323283
4.430000	32.323283
4.440000	32.323283
4.450000	32.323283
4.460000	32.323283
4.470000	32.323283
4.480000	32.323283
4.490000	32.323283
4.500000	33.220197
4.510000	33.220197
4.520000	33.220197
4.530000	33.220197
4.540000	33.220197
4.550000	33.220197
4.560000	33.220197
4.570000	33.220197
4.580000	33.220197
4.590000	33.220197
4.600000	33.220197
4.610000	33.220197
4.620000	33.220197
4.630000	33.220197
4.640000	33.220197
4.650000	33.220197
4.660000	33.220197
4.670000	33.220197
4.680000	33.220197
4.690000	33.220197
4.700000	33.220197
4.710000	33.220197
4.720000	33.220197
4.730000	33.220197
4.740000	33.220197
4.750000	33.220197
4.760000	33.220197
4.770000	33.220197
4.780000	33.220197
4.790000	33.220197
4.800000	33.220197
4.810000	33.220197
4.820000	33.220197
4.830000	33.220197
4.840000	33.220197
4.850000	33.220197
4.860000	33.220197
4.870000	33.220197
4.880000	33.220197
4.890000	33.220197
4.900000	33.220197
4.910000	33.220197
4.920000	33.220197
4.930000	33.220197
4.940000	33.220197
4.950000	33.220197
4.960000	33.220197
4.970000	33.220197
4.980000	33.220197
4.990000	33.220197
5.000000	33.864600
5.010000	33.864600
5.020000	33.864600
5.030000	33.864600
5.040000	33.864600
5.050000	33.864600
5.060000	33.864600
5.070000	33.864600
5.080000	33.864600
5.090000	33.864600
5.100000	33.864600
5.110000	33.864600
5.120000	33.864600
5.130000	33.864600
5.140000	33.864600
5.150000	33.864600
5.160000	33.864600
5.170000	33.864600
5.180000	33.864600
5.190000	33.864600
5.200000	33.864600
5.210000	33.864600
5.220000	33.864600
5.230000	33.864600
5.240000	33.864600
5.250000	33.864600
5.260000	33.864600
5.270000	33.864600
5.280000	33.864600
5.290000	33.864600
5.300000	33.864600
5.310000	33.864600
5.320000	33.864600
5.330000	33.864600
5.340000	33.864600
5.350000	33.864600
5.360000	33.864600
5.370000	33.864600
5.380000	33.864600
5.390000	33.864600
5.400000	33.864600
5.410000	33.864600
5.420000	33.864600
5.430000	33.864600
5.440000	33.864600
5.450000	33.864600
5.460000	33.864600
5.470000	33.864600
5.480000	33.864600
5.490000	33.864600
5.500000	34.309764
5.510000	34.309764
5.520000	34.309764
5.530000	34.309764
5.540000	34.309764
5.550000	34.309764
5.560000	34.309764
5.570000	34.309764
5.580000	34.309764
5.590000	34.309764
5.600000	34.309764
5.610000	34.309764
5.620000	34.309764
5.630000	34.309764
5.640000	34.309764
5.650000	34.309764
5.660000	34.309764
5.670000	34.309764
5.680000	34.309764
5.690000	34.309764
5.700000	34.309764
5.710000	34.309764
5.720000	34.309764
5.730000	34.309764
5.740000	34.309764
5.750000	34.309764
5.760000	34.309764
5.770000	34.309764
5.780000	34.309764
5.790000	34.309764
5.800000	34.309764
5.810000	34.309764
5.820000	34.309764
5.830000	34.309764
5.840000	34.309764
5.850000	34.309764
5.860000	34.309764
5.870000	34.309764
5.880000	34.309764
5.890000	34.309764
5.900000	34.309764
5.910000	34.309764
5.920000	34.309764
5.930000	34.309764
5.940000	34.309764
5.950000	34.309764
5.960000	34.309764
5.970000	34.309764
5.980000	34.309764
5.990000	34.309764
6.000000	34.597592
6.010000	34.597592
6.020000	34.597592
6.030000	34.597592
6.040000	34.597592
6.050000	34.597592
6.060000	34.597592
6.070000	34.597592
6.080000	34.597592
6.090000	34.597592
6.100000	34.597592
6.110000	34.597592
6.120000	34.597592
6.130000	34.597592
6.140000	34.597592
6.150000	34.597592
6.160000	34.597592
6.170000	34.597592
6.180000	34.597592
6.190000	34.597592
6.200000	34.597592
6.210000	34.597592
6.220000	34.597592
6.230000	34.597592
6.240000	34.597592
6.250000	34.597592
6.260000	34.597592
6.270000	34.597592
6.280000	34.597592
6.290000	34.597592
6.300000	34.597592
6.310000	34.597592
6.320000	34.597592
6.330000	34.597592
6.340000	34.597592
6.350000	34.597592
6.360000	34.597592
6.370000	34.597592
6.380000	34.597592
6.390000	34.597592
6.400000	34.597592
6.410000	34.597592
6.420000	34.597592
6.430000	34.597592
6.440000	34.597592
6.450000	34.597592
6.460000	34.597592
6.470000	34.597592
6.480000	34.597592
6.490000	34.597592
6.500000	34.768096
6.510000	34.768096
6.520000	34.768096
6.530000	34.768096
6.540000	34.768096
6.550000	34.768096
6.560000	34.768096
6.570000	34.768096
6.580000	34.768096
6.590000	34.768096
6.600000	34.768096
6.610000	34.768096
6.620000	34.768096
6.630000	34.768096
6.640000	34.768096
6.650000	34.768096
6.660000	34.768096
6.670000	34.768096
6.680000	34.768096
6.690000	34.768096
6.700000	34.768096
6.710000	34.768096
6.720000	34.768096
6.730000	34.768096
6.740000	34.768096
6.750000	34.768096
6.760000	34.768096
6.770000	34.768096
6.780000	34.768096
6.790000	34.768096
6.800000	34.768096
6.810000	34.768096
6.820000	34.768096
6.830000	34.768096
6.840000	34.768096
6.850000	34.768096
6.860000	34.768096
6.870000	34.768096
6.880000	34.768096
6.890000	34.768096
6.900000	34.768096
6.910000	34.768096
6.920000	34.768096
6.930000	34.768096
6.940000	34.768096
6.950000	34.768096
6.960000	34.768096
6.970000	34.768096
6.980000	34.768096
6.990000	34.768096
7.000000	34.848845
7.010000	34.848845
7.020000	34.848845
7.030000	34.848845
7.040000	34.848845
7.050000	34.848845
7.060000	34.848845
7.070000	34.848845
7.080000	34.848845
7.090000	34.848845
7.100000	34.848845
7.110000	34.848845
7.120000	34.848845
7.130000	34.848845
7.140000	34.848845
7.150000	34.848845
7.160000	34.848845
7.170000	34.848845
7.180000	34.848845
7.190000	34.848845
7.200000	34.848845
7.210000	34.848845
7.220000	34.848845
7.230000	34.848845
7.240000	34.848845
7.250000	34.848845
7.260000	34.848845
7.270000	34.848845
7.280000	34.848845
7.290000	34.848845
7.300000	34.848845
7.310000	34.848845
7.320000	34.848845
7.330000	34.848845
7.340000	34.848845
7.350000	34.848845
7.360000	34.848845
7.370000	34.848845
7.380000	34.848845
7.390000	34.848845
7.400000	34.848845
7.410000	34.848845
7.420000	34.848845
7.430000	34.848845
7.440000	34.848845
7.450000	34.848845
7.460000	34.848845
7.470000	34.848845
7.480000	34.848845
7.490000	34.848845
7.500000	34.862812
7.510000	34.862812
7.520000	34.862812
7.530000	34.862812
7.540000	34.862812
7.550000	34.862812
7.560000	34.862812
7.570000	34.862812
7.580000	34.862812
7.590000	34.862812
7.600000	34.862812
7.610000	34.862812
7.620000	34.862812
7.630000	34.862812
7.640000	34.862812
7.650000	34.862812
7.660000	34.862812
7.670000	34.862812
7.680000	34.862812
7.690000	34.862812
7.700000	34.862812
7.710000	34.862812
7.720000	34.862812
7.730000	34.862812
7.740000	34.862812
7.750000	34.862812
7.760000	34.862812
7.770000	34.862812
7.780000	34.862812
7.790000	34.862812
7.800000	34.862812
7.810000	34.862812
7.820000	34.862812
7.830000	34.862812
7.840000	34.862812
7.850000	34.862812
7.860000	34.862812
7.870000	34.862812
7.880000	34.862812
7.890000	34.862812
7.900000	34.862812
7.910000	34.862812
7.920000	34.862812
7.930000	34.862812
7.940000	34.862812
7.950000	34.862812
7.960000	34.862812
7.970000	34.862812
7.980000	34.862812
7.990000	34.862812
8.000000	34.823354
8.010000	34.823354
8.020000	34.823354
8.030000	34.823354
8.040000	34.823354
8.050000	34.823354
8.060000	34.823354
8.070000	34.823354
8.080000	34.823354
8.090000	34.823354
8.100000	34.823354
8.110000	34.823354
8.120000	34.823354
8.130000	34.823354
8.140000	34.823354
8.150000	34.823354
8.160000	34.823354
8.170000	34.823354
8.180000	34.823354
8.190000	34.823354
8.200000	34.823354
8.210000	34.823354
8.220000	34.823354
8.230000	34.823354
8.240000	34.823354
8.250000	34.823354
8.260000	34.823354
8.270000	34.823354
8.280000	34.823354
8.290000	34.823354
8.300000	34.823354
8.310000	34.823354
8.320000	34.823354
8.330000	34.823354
8.340000	34.823354
8.350000	34.823354
8.360000	34.823354
8.370000	34.823354
8.380000	34.823354
8.390000	34.823354
8.400000	34.823354
8.410000	34.823354
8.420000	34.823354
8.430000	34.823354
8.440000	34.823354
8.450000	34.823354
8.460000	34.823354
8.470000	34.823354
8.480000	34.823354
8.490000	34.823354
8.500000	34.742760
8.510000	34.742760
8.520000	34.742760
8.530000	34.742760
8.540000	34.742760
8.550000	34.742760
8.560000	34.742760
8.570000	34.742760
8.580000	34.742760
8.590000	34.742760
8.600000	34.742760
8.610000	34.742760
8.620000	34.742760
8.630000	34.742760
8.640000	34.742760
8.650000	34.742760
8.660000	34.742760
8.670000	34.742760
8.680000	34.742760
8.690000	34.742760
8.700000	34.742760
8.710000	34.742760
8.720000	34.742760
8.730000	34.742760
8.740000	34.742760
8.750000	34.742760
8.760000	34.742760
8.770000	34.742760
8.780000	34.742760
8.790000	34.742760
8.800000	34.742760
8.810000	34.742760
8.820000	34.742760
8.830000	34.742760
8.840000	34.742760
8.850000	34.742760
8.860000	34.742760
8.870000	34.742760
8.880000	34.742760
8.890000	34.742760
8.900000	34.742760
8.910000	34.742760
8.920000	34.742760
8.930000	34.742760
8.940000	34.742760
8.950000	34.742760
8.960000	34.742760
8.970000	34.742760
8.980000	34.742760
8.990000	34.742760
9.000000	34.629159
9.010000	34.629159
9.020000	34.629159
9.030000	34.629159
9.040000	34.629159
9.050000	34.629159
9.060000	34.629159
9.070000	34.629159
9.080000	34.629159
9.090000	34.629159
9.100000	34.629159
9.110000	34.629159
9.120000	34.629159
9.130000	34.629159
9.140000	34.629159
9.150000	34.629159
9.160000	34.629159
9.170000	34.629159
9.180000	34.629159
9.190000	34.629159
9.200000	34.629159
9.210000	34.629159
9.220000	34.629159
9.230000	34.629159
9.240000	34.629159
9.250000	34.629159
9.260000	34.629159
9.270000	34.629159
9.280000	34.629159
9.290000	34.629159
9.300000	34.629159
9.310000	34.629159
9.320000	34.629159
9.330000	34.629159
9.340000	34.629159
9.350000	34.629159
9.360000	34.629159
9.370000	34.629159
9.380000	34.629159
9.390000	34.629159
9.400000	34.629159
9.410000	34.629159
9.420000	34.629159
9.430000	34.629159
9.440000	34.629159
9.450000	34.629159
9.460000	34.629159
9.470000	34.629159
9.480000	34.629159
9.490000	34.629159
9.500000	34.488210
9.510000	34.488210
9.520000	34.488210
9.530000	34.488210
9.540000	34.488210
9.550000	34.488210
9.560000	34.488210
9.570000	34.488210
9.580000	34.488210
9.590000	34.488210
9.600000	34.488210
9.610000	34.488210
9.620000	34.488210
9.630000	34.488210
9.640000	34.488210
9.650000	34.488210
9.660000	34.488210
9.670000	34.488210
9.680000	34.488210
9.690000	34.488210
9.700000	34.488210
9.710000	34.488210
9.720000	34.488210
9.730000	34.488210
9.740000	34.488210
9.750000	34.488210
9.760000	34.488210
9.770000	34.488210
9.780000	34.488210
9.790000	34.488210
9.800000	34.488210
9.810000	34.488210
9.820000	34.488210
9.830000	34.488210
9.840000	34.488210
9.850000	34.488210
9.860000	34.488210
9.870000	34.488210
9.880000	34.488210
9.890000	34.488210
9.900000	34.488210
9.910000	34.488210
9.920000	34.488210
9.930000	34.488210
9.940000	34.488210
9.950000	34.488210
9.960000	34.488210
9.970000	34.488210
9.980000	34.488210
9.990000	34.488210
10.000000	34.336960
10.010000	34.336960
10.020000	34.336960
10.030000	34.336960
10.040000	34.336960
10.050000	34.336960
10.060000	34.336960
10.070000	34.336960
10.080000	34.336960
10.090000	34.336960
10.100000	34.336960
10.110000	34.336960
10.120000	34.336960
10.130000	34.336960
10.140000	34.336960
10.150000	34.336960
10.160000	34.336960
10.170000	34.336960
10.180000	34.336960
10.190000	34.336960
10.200000	34.336960
10.210000	34.336960
10.220000	34.336960
10.230000	34.336960
10.240000	34.336960
10.250000	34.336960
10.260000	34.336960
10.270000	34.336960
10.280000	34.336960
10.290000	34.336960
10.300000	34.336960
10.310000	34.336960
10.320000	34.336960
10.330000	34.336960
10.340000	34.336960
10.350000	34.336960
10.360000	34.336960
10.370000	34.336960
10.380000	34.336960
10.390000	34.336960
10.400000	34.336960
10.410000	34.336960
10.420000	34.336960
10.430000	34.336960
10.440000	34.336960
10.450000	34.336960
10.460000	34.336960
10.470000	34.336960
10.480000	34.336960
10.490000	34.336960
10.500000	34.176733
10.510000	34.176733
10.520000	34.176733
10.530000	34.176733
10.540000	34.176733
10.550000	34.176733
10.560000	34.176733
10.570000	34.176733
10.580000	34.176733
10.590000	34.176733
10.600000	34.176733
10.610000	34.176733
10.620000	34.176733
10.630000	34.176733
10.640000	34.176733
10.650000	34.176733
10.660000	34.176733
10.670000	34.176733
10.680000	34.176733
10.690000	34.176733
10.700000	34.176733
10.710000	34.176733
10.720000	34.176733
10.730000	34.176733
10.740000	34.176733
10.750000	34.176733
10.760000	34.176733
10.770000	34.176733
10.780000	34.176733
10.790000	34.176733
10.800000	34.176733
10.810000	34.176733
10.820000	34.176733
10.830000	34.176733
10.840000	34.176733
10.850000	34.176733
10.860000	34.176733
10.870000	34.176733
10.880000	34.176733
10.890000	34.176733
10.900000	34.176733
10.910000	34.176733
10.920000	34.176733
10.930000	34.176733
10.940000	34.176733
10.950000	34.176733
10.960000	34.176733
10.970000	34.176733
10.980000	34.176733
10.990000	34.176733
11.000000	34.008869
11.010000	34.008869
11.020000	34.008869
11.030000	34.008869
11.040000	34.008869
11.050000	34.008869
11.060000	34.008869
11.070000	34.008869
11.080000	34.008869
11.090000	34.008869
11.100000	34.008869
11.110000	34.008869
11.120000	34.008869
11.130000	34.008869
11.140000	34.008869
11.150000	34.008869
11.160000	34.008869
11.170000	34.008869
11.180000	34.008869
11.190000	34.008869
11.200000	34.008869
11.210000	34.008869
11.220000	34.008869
11.230000	34.008869
11.240000	34.008869
11.250000	34.008869
11.260000	34.008869
11.270000	34.008869
11.280000	34.008869
11.290000	34.008869
11.300000	34.008869
11.310000	34.008869
11.320000	34.008869
11.330000	34.008869
11.340000	34.008869
11.350000	34.008869
11.360000	34.008869
11.370000	34.008869
11.380000	34.008869
11.390000	34.008869
11.400000	34.008869
11.410000	34.008869
11.420000	34.008869
11.430000	34.008869
11.440000	34.008869
11.450000	34.008869
11.460000	34.008869
11.470000	34.008869
11.480000	34.008869
11.490000	34.008869
11.500000	33.837101
11.510000	33.837101
11.520000	33.837101
11.530000	33.837101
11.540000	33.837101
11.550000	33.837101
11.560000	33.837101
11.570000	33.837101
11.580000	33.837101
11.590000	33.837101
11.600000	33.837101
11.610000	33.837101
11.620000	33.837101
11.630000	33.837101
11.640000	33.837101
11.650000	33.837101
11.660000	33.837101
11.670000	33.837101
11.680000	33.837101
11.690000	33.837101
11.700000	33.837101
11.710000	33.837101
11.720000	33.837101
11.730000	33.837101
11.740000	33.837101
11.750000	33.837101
11.760000	33.837101
11.770000	33.837101
11.780000	33.837101
11.790000	33.837101
11.800000	33.837101
11.810000	33.837101
11.820000	33.837101
11.830000	33.837101
11.840000	33.837101
11.850000	33.837101
11.860000	33.837101
11.870000	33.837101
11.880000	33.837101
11.890000	33.837101
11.900000	33.837101
11.910000	33.837101
11.920000	33.837101
11.930000	33.837101
11.940000	33.837101
11.950000	33.837101
11.960000	33.837101
11.970000	33.837101
11.980000	33.837101
11.990000	33.837101
12.000000	33.664724
12.010000	33.664724
12.020000	33.664724
12.030000	33.664724
12.040000	33.664724
12.050000	33.664724
12.060000	33.664724
12.070000	33.664724
12.080000	33.664724
12.090000	33.664724
12.100000	33.664724
12.110000	33.664724
12.120000	33.664724
12.130000	33.664724
12.140000	33.664724
12.150000	33.664724
12.160000	33.664724
12.170000	33.664724
12.180000	33.664724
12.190000	33.664724
12.200000	33.664724
12.210000	33.664724
12.220000	33.664724
12.230000	33.664724
12.240000	33.664724
12.250000	33.664724
12.260000	33.664724
12.270000	33.664724
12.280000	33.664724
12.290000	33.664724
12.300000	33.664724
12.310000	33.664724
12.320000	33.664724
12.330000	33.664724
12.340000	33.664724
12.350000	33.664724
12.360000	33.664724
12.370000	33.664724
12.380000	33.664724
12.390000	33.664724
12.400000	33.664724
12.410000	33.664724
12.420000	33.664724
12.430000	33.664724
12.440000	33.664724
12.450000	33.664724
12.460000	33.664724
12.470000	33.664724
12.480000	33.664724
12.490000	33.664724
12.500000	33.490052
12.510000	33.490052
12.520000	33.490052
12.530000	33.490052
12.540000	33.490052
12.550000	33.490052
12.560000	33.490052
12.570000	33.490052
12.580000	33.490052
12.590000	33.490052
12.600000	33.490052
12.610000	33.490052
12.620000	33.490052
12.630000	33.490052
12.640000	33.490052
12.650000	33.490052
12.660000	33.490052
12.670000	33.490052
12.680000	33.490052
12.690000	33.490052
12.700000	33.490052
12.710000	33.490052
12.720000	33.490052
12.730000	33.490052
12.740000	33.490052
12.750000	33.490052
12.760000	33.490052
12.770000	33.490052
12.780000	33.490052
12.790000	33.490052
12.800000	33.490052
12.810000	33.490052
12.820000	33.490052
12.830000	33.490052
12.840000	33.490052
12.850000	33.490052
12.860000	33.490052
12.870000	33.490052
12.880000	33.490052
12.890000	33.490052
12.900000	33.490052
12.910000	33.490052
12.920000	33.490052
12.930000	33.490052
12.940000	33.490052
12.950000	33.490052
12.960000	33.490052
12.970000	33.490052
12.980000	33.490052
12.990000	33.490052
13.000000	33.315836
13.010000	33.315836
13.020000	33.315836
13.030000	33.315836
13.040000	33.315836
13.050000	33.315836
13.060000	33.315836
13.070000	33.315836
13.080000	33.315836
13.090000	33.315836
13.100000	33.315836
13.110000	33.315836
13.120000	33.315836
13.130000	33.315836
13.140000	33.315836
13.150000	33.315836
13.160000	33.315836
13.170000	33.315836
13.180000	33.315836
13.190000	33.315836
13.200000	33.315836
13.210000	33.315836
13.220000	33.315836
13.230000	33.315836
13.240000	33.315836
13.250000	33.315836
13.260000	33.315836
13.270000	33.315836
13.280000	33.315836
13.290000	33.315836
13.300000	33.315836
13.310000	33.315836
13.320000	33.315836
13.330000	33.315836
13.340000	33.315836
13.350000	33.315836
13.360000	33.315836
13.370000	33.315836
13.380000	33.315836
13.390000	33.315836
13.400000	33.315836
13.410000	33.315836
13.420000	33.315836
13.430000	33.315836
13.440000	33.315836
13.450000	33.315836
13.460000	33.315836
13.470000	33.315836
13.480000	33.315836
13.490000	33.315836
13.500000	33.141749
13.510000	33.141749
13.520000	33.141749
13.530000	33.141749
13.540000	33.141749
13.550000	33.141749
13.560000	33.141749
13.570000	33.141749
13.580000	33.141749
13.590000	33.141749
13.600000	33.141749
13.610000	33.141749
13.620000	33.141749
13.630000	33.141749
13.640000	33.141749
13.650000	33.141749
13.660000	33.141749
13.670000	33.141749
13.680000	33.141749
13.690000	33.141749
13.700000	33.141749
13.710000	33.141749
13.720000	33.141749
13.730000	33.141749
13.740000	33.141749
13.750000	33.141749
13.760000	33.141749
13.770000	33.141749
13.780000	33.141749
13.790000	33.141749
13.800000	33.141749
13.810000	33.141749
13.820000	33.141749
13.830000	33.141749
13.840000	33.141749
13.850000	33.141749
13.860000	33.141749
13.870000	33.141749
13.880000	33.141749
13.890000	33.141749
13.900000	33.141749
13.910000	33.141749
13.920000	33.141749
13.930000	33.141749
13.940000	33.141749
13.950000	33.141749
13.960000	33.141749
13.970000	33.141749
13.980000	33.141749
13.990000	33.141749
14.000000	32.970881
14.010000	32.970881
14.020000	32.970881
14.030000	32.970881
14.040000	32.970881
14.050000	32.970881
14.060000	32.970881
14.070000	32.970881
14.080000	32.970881
14.090000	32.970881
14.100000	32.970881
14.110000	32.970881
14.120000	32.970881
14.130000	32.970881
14.140000	32.970881
14.150000	32.970881
14.160000	32.970881
14.170000	32.970881
14.180000	32.970881
14.190000	32.970881
14.200000	32.970881
14.210000	32.970881
14.220000	32.970881
14.230000	32.970881
14.240000	32.970881
14.250000	32.970881
14.260000	32.970881
14.270000	32.970881
14.280000	32.970881
14.290000	32.970881
14.300000	32.970881
14.310000	32.970881
14.320000	32.970881
14.330000	32.970881
14.340000	32.970881
14.350000	32.970881
14.360000	32.970881
14.370000	32.970881
14.380000	32.970881
14.390000	32.970881
14.400000	32.970881
14.410000	32.970881
14.420000	32.970881
14.430000	32.970881
14.440000	32.970881
14.450000	32.970881
14.460000	32.970881
14.470000	32.970881
14.480000	32.970881
14.490000	32.970881
14.500000	32.804185
14.510000	32.804185
14.520000	32.804185
14.530000	32.804185
14.540000	32.804185
14.550000	32.804185
14.560000	32.804185
14.570000	32.804185
14.580000	32.804185
14.590000	32.804185
14.600000	32.804185
14.610000	32.804185
14.620000	32.804185
14.630000	32.804185
14.640000	32.804185
14.650000	32.804185
14.660000	32.804185
14.670000	32.804185
14.680000	32.804185
14.690000	32.804185
14.700000	32.804185
14.710000	32.804185
14.720000	32.804185
14.730000	32.804185
14.740000	32.804185
14.750000	32.804185
14.760000	32.804185
14.770000	32.804185
14.780000	32.804185
14.790000	32.804185
14.800000	32.804185
14.810000	32.804185
14.820000	32.804185
14.830000	32.804185
14.840000	32.804185
14.850000	32.804185
14.860000	32.804185
14.870000	32.804185
14.880000	32.804185
14.890000	32.804185
14.900000	32.804185
14.910000	32.804185
14.920000	32.804185
14.930000	32.804185
14.940000	32.804185
14.950000	32.804185
14.960000	32.804185
14.970000	32.804185
14.980000	32.804185
14.990000	32.804185
15.000000	32.641312
15.010000	32.641312
15.020000	32.641312
15.030000	32.641312
15.040000	32.641312
15.050000	32.641312
15.060000	32.641312
15.070000	32.641312
15.080000	32.641312
15.090000	32.641312
15.100000	32.641312
15.110000	32.641312
15.120000	32.641312
15.130000	32.641312
15.140000	32.641312
15.150000	32.641312
15.160000	32.641312
15.170000	32.641312
15.180000	32.641312
15.190000	32.641312
15.200000	32.641312
15.210000	32.641312
15.220000	32.641312
15.230000	32.641312
15.240000	32.641312
15.250000	32.641312
15.260000	32.641312
15.270000	32.641312
15.280000	32.641312
15.290000	32.641312
15.300000	32.641312
15.310000	32.641312
15.320000	32.641312
15.330000	32.641312
15.340000	32.641312
15.350000	32.641312
15.360000	32.641312
15.370000	32.641312
15.380000	32.641312
15.390000	32.641312
15.400000	32.641312
15.410000	32.641312
15.420000	32.641312
15.430000	32.641312
15.440000	32.641312
15.450000	32.641312
15.460000	32.641312
15.470000	32.641312
15.480000	32.641312
15.490000	32.641312
15.500000	32.481164
15.510000	32.481164
15.520000	32.481164
15.530000	32.481164
15.540000	32.481164
15.550000	32.481164
15.560000	32.481164
15.570000	32.481164
15.580000	32.481164
15.590000	32.481164
15.600000	32.481164
15.610000	32.481164
15.620000	32.481164
15.630000	32.481164
15.640000	32.481164
15.650000	32.481164
15.660000	32.481164
15.670000	32.481164
15.680000	32.481164
15.690000	32.481164
15.700000	32.481164
15.710000	32.481164
15.720000	32.481164
15.730000	32.481164
15.740000	32.481164
15.750000	32.481164
15.760000	32.481164
15.770000	32.481164
15.780000	32.481164
15.790000	32.481164
15.800000	32.481164
15.810000	32.481164
15.820000	32.481164
15.830000	32.481164
15.840000	32.481164
15.850000	32.481164
15.860000	32.481164
15.870000	32.481164
15.880000	32.481164
15.890000	32.481164
15.900000	32.481164
15.910000	32.481164
15.920000	32.481164
15.930000	32.481164
15.940000	32.481164
15.950000	32.481164
15.960000	32.481164
15.970000	32.481164
15.980000	32.481164
15.990000	32.481164
16.000000	32.325589
16.010000	32.325589
16.020000	32.325589
16.030000	32.325589
16.040000	32.325589
16.050000	32.325589
16.060000	32.325589
16.070000	32.325589
16.080000	32.325589
16.090000	32.325589
16.100000	32.325589
16.110000	32.325589
16.120000	32.325589
16.130000	32.325589
16.140000	32.325589
16.150000	32.325589
16.160000	32.325589
16.170000	32.325589
16.180000	32.325589
16.190000	32.325589
16.200000	32.325589
16.210000	32.325589
16.220000	32.325589
16.230000	32.325589
16.240000	32.325589
16.250000	32.325589
16.260000	32.325589
16.270000	32.325589
16.280000	32.325589
16.290000	32.325589
16.300000	32.325589
16.310000	32.325589
16.320000	32.325589
16.330000	32.325589
16.340000	32.325589
16.350000	32.325589
16.360000	32.325589
16.370000	32.325589
16.380000	32.325589
16.390000	32.325589
16.400000	32.325589
16.410000	32.325589
16.420000	32.325589
16.430000	32.325589
16.440000	32.325589
16.450000	32.325589
16.460000	32.325589
16.470000	32.325589
16.480000	32.325589
16.490000	32.325589
16.500000	32.173950
16.510000	32.173950
16.520000	32.173950
16.530000	32.173950
16.540000	32.173950
16.550000	32.173950
16.560000	32.173950
16.570000	32.173950
16.580000	32.173950
16.590000	32.173950
16.600000	32.173950
16.610000	32.173950
16.620000	32.173950
16.630000	32.173950
16.640000	32.173950
16.650000	32.173950
16.660000	32.173950
16.670000	32.173950
16.680000	32.173950
16.690000	32.173950
16.700000	32.173950
16.710000	32.173950
16.720000	32.173950
16.730000	32.173950
16.740000	32.173950
16.750000	32.173950
16.760000	32.173950
16.770000	32.173950
16.780000	32.173950
16.790000	32.173950
16.800000	32.173950
16.810000	32.173950
16.820000	32.173950
16.830000	32.173950
16.840000	32.173950
16.850000	32.173950
16.860000	32.173950
16.870000	32.173950
16.880000	32.173950
16.890000	32.173950
16.900000	32.173950
16.910000	32.173950
16.920000	32.173950
16.930000	32.173950
16.940000	32.173950
16.950000	32.173950
16.960000	32.173950
16.970000	32.173950
16.980000	32.173950
16.990000	32.173950
17.000000	32.026242
17.010000	32.026242
17.020000	32.026242
17.030000	32.026242
17.040000	32.026242
17.050000	32.026242
17.060000	32.026242
17.070000	32.026242
17.080000	32.026242
17.090000	32.026242
17.100000	32.026242
17.110000	32.026242
17.120000	32.026242
17.130000	32.026242
17.140000	32.026242
17.150000	32.026242
17.160000	32.026242
17.170000	32.026242
17.180000	32.026242
17.190000	32.026242
17.200000	32.026242
17.210000	32.026242
17.220000	32.026242
17.230000	32.026242
17.240000	32.026242
17.250000	32.026242
17.260000	32.026242
17.270000	32.026242
17.280000	32.026242
17.290000	32.026242
17.300000	32.026242
17.310000	32.026242
17.320000	32.026242
17.330000	32.026242
17.340000	32.026242
17.350000	32.026242
17.360000	32.026242
17.370000	32.026242
17.380000	32.026242
17.390000	32.026242
17.400000	32.026242
17.410000	32.026242
17.420000	32.026242
17.430000	32.026242
17.440000	32.026242
17.450000	32.026242
17.460000	32.026242
17.470000	32.026242
17.480000	32.026242
17.490000	32.026242
17.500000	31.880473
17.510000	31.880473
17.520000	31.880473
17.530000	31.880473
17.540000	31.880473
17.550000	31.880473
17.560000	31.880473
17.570000	31.880473
17.580000	31.880473
17.590000	31.880473
17.600000	31.880473
17.610000	31.880473
17.620000	31.880473
17.630000	31.880473
17.640000	31.880473
17.650000	31.880473
17.660000	31.880473
17.670000	31.880473
17.680000	31.880473
17.690000	31.880473
17.700000	31.880473
17.710000	31.880473
17.720000	31.880473
17.730000	31.880473
17.740000	31.880473
17.750000	31.880473
17.760000	31.880473
17.770000	31.880473
17.780000	31.880473
17.790000	31.880473
17.800000	31.880473
17.810000	31.880473
17.820000	31.880473
17.830000	31.880473
17.840000	31.880473
17.850000	31.880473
17.860000	31.880473
17.870000	31.880473
17.880000	31.880473
17.890000	31.880473
17.900000	31.880473
17.910000	31.880473
17.920000	31.880473
17.930000	31.880473
17.940000	31.880473
17.950000	31.880473
17.960000	31.880473
17.970000	31.880473
17.980000	31.880473
17.990000	31.880473
