LabVIEW Measurement	
Writer_Version	2
Reader_Version	2
Separator	Tab
Decimal_Separator	.
Multi_Headings	No
X_Columns	One
Time_Pref	Absolute
Operator	biomech-dyno
Date	2023/05/24
Time	16:31:59.7770512999995510441
***End_of_Header***	
	
Channels	1	
Samples	10	
Date	2023/05/24	
Time	16:35:34.9592771999999744827	
X_Dimension	Time	
X0	0.0000000000000000E+0	
Delta_X	0.010000	
***End_of_Header***		
X_Value	Untitled	Comment
0.000000	24.914548
0.010000	24.914548
0.020000	24.914548
0.030000	24.914548
0.040000	24.914548
0.050000	24.914548
0.060000	24.914548
0.070000	24.914548
0.080000	24.914548
0.090000	24.914548
0.100000	24.914548
0.110000	24.914548
0.120000	24.914548
0.130000	24.914548
0.140000	24.914548
0.150000	24.914548
0.160000	24.914548
0.170000	24.914548
0.180000	24.914548
0.190000	24.914548
0.200000	24.914548
0.210000	24.914548
0.220000	24.914548
0.230000	24.914548
0.240000	24.914548
0.250000	24.914548
0.260000	24.914548
0.270000	24.914548
0.280000	24.914548
0.290000	24.914548
0.300000	24.914548
0.310000	24.914548
0.320000	24.914548
0.330000	24.914548
0.340000	24.914548
0.350000	24.914548
0.360000	24.914548
0.370000	24.914548
0.380000	24.914548
0.390000	24.914548
0.400000	24.914548
0.410000	24.914548
0.420000	24.914548
0.430000	24.914548
0.440000	24.914548
0.450000	24.914548
0.460000	24.914548
0.470000	24.914548
0.480000	24.914548
0.490000	24.914548
0.500000	24.934282
0.510000	24.934282
0.520000	24.934282
0.530000	24.934282
0.540000	24.934282
0.550000	24.934282
0.560000	24.934282
0.570000	24.934282
0.580000	24.934282
0.590000	24.934282
0.600000	24.934282
0.610000	24.934282
0.620000	24.934282
0.630000	24.934282
0.640000	24.934282
0.650000	24.934282
0.660000	24.934282
0.670000	24.934282
0.680000	24.934282
0.690000	24.934282
0.700000	24.934282
0.710000	24.934282
0.720000	24.934282
0.730000	24.934282
0.740000	24.934282
0.750000	24.934282
0.760000	24.934282
0.770000	24.934282
0.780000	24.934282
0.790000	24.934282
0.800000	24.934282
0.810000	24.934282
0.820000	24.934282
0.830000	24.934282
0.840000	24.934282
0.850000	24.934282
0.860000	24.934282
0.870000	24.934282
0.880000	24.934282
0.890000	24.934282
0.900000	24.934282
0.910000	24.934282
0.920000	24.934282
0.930000	24.934282
0.940000	24.934282
0.950000	24.934282
0.960000	24.934282
0.970000	24.934282
0.980000	24.934282
0.990000	24.934282
1.000000	25.066497
1.010000	25.066497
1.020000	25.066497
1.030000	25.066497
1.040000	25.066497
1.050000	25.066497
1.060000	25.066497
1.070000	25.066497
1.080000	25.066497
1.090000	25.066497
1.100000	25.066497
1.110000	25.066497
1.120000	25.066497
1.130000	25.066497
1.140000	25.066497
1.150000	25.066497
1.160000	25.066497
1.170000	25.066497
1.180000	25.066497
1.190000	25.066497
1.200000	25.066497
1.210000	25.066497
1.220000	25.066497
1.230000	25.066497
1.240000	25.066497
1.250000	25.066497
1.260000	25.066497
1.270000	25.066497
1.280000	25.066497
1.290000	25.066497
1.300000	25.066497
1.310000	25.066497
1.320000	25.066497
1.330000	25.066497
1.340000	25.066497
1.350000	25.066497
1.360000	25.066497
1.370000	25.066497
1.380000	25.066497
1.390000	25.066497
1.400000	25.066497
1.410000	25.066497
1.420000	25.066497
1.430000	25.066497
1.440000	25.066497
1.450000	25.066497
1.460000	25.066497
1.470000	25.066497
1.480000	25.066497
1.490000	25.066497
1.500000	25.369229
1.510000	25.369229
1.520000	25.369229
1.530000	25.369229
1.540000	25.369229
1.550000	25.369229
1.560000	25.369229
1.570000	25.369229
1.580000	25.369229
1.590000	25.369229
1.600000	25.369229
1.610000	25.369229
1.620000	25.369229
1.630000	25.369229
1.640000	25.369229
1.650000	25.369229
1.660000	25.369229
1.670000	25.369229
1.680000	25.369229
1.690000	25.369229
1.700000	25.369229
1.710000	25.369229
1.720000	25.369229
1.730000	25.369229
1.740000	25.369229
1.750000	25.369229
1.760000	25.369229
1.770000	25.369229
1.780000	25.369229
1.790000	25.369229
1.800000	25.369229
1.810000	25.369229
1.820000	25.369229
1.830000	25.369229
1.840000	25.369229
1.850000	25.369229
1.860000	25.369229
1.870000	25.369229
1.880000	25.369229
1.890000	25.369229
1.900000	25.369229
1.910000	25.369229
1.920000	25.369229
1.930000	25.369229
1.940000	25.369229
1.950000	25.369229
1.960000	25.369229
1.970000	25.369229
1.980000	25.369229
1.990000	25.369229
2.000000	25.810331
2.010000	25.810331
2.020000	25.810331
2.030000	25.810331
2.040000	25.810331
2.050000	25.810331
2.060000	25.810331
2.070000	25.810331
2.080000	25.810331
2.090000	25.810331
2.100000	25.810331
2.110000	25.810331
2.120000	25.810331
2.130000	25.810331
2.140000	25.810331
2.150000	25.810331
2.160000	25.810331
2.170000	25.810331
2.180000	25.810331
2.190000	25.810331
2.200000	25.810331
2.210000	25.810331
2.220000	25.810331
2.230000	25.810331
2.240000	25.810331
2.250000	25.810331
2.260000	25.810331
2.270000	25.810331
2.280000	25.810331
2.290000	25.810331
2.300000	25.810331
2.310000	25.810331
2.320000	25.810331
2.330000	25.810331
2.340000	25.810331
2.350000	25.810331
2.360000	25.810331
2.370000	25.810331
2.380000	25.810331
2.390000	25.810331
2.400000	25.810331
2.410000	25.810331
2.420000	25.810331
2.430000	25.810331
2.440000	25.810331
2.450000	25.810331
2.460000	25.810331
2.470000	25.810331
2.480000	25.810331
2.490000	25.810331
2.500000	26.356106
2.510000	26.356106
2.520000	26.356106
2.530000	26.356106
2.540000	26.356106
2.550000	26.356106
2.560000	26.356106
2.570000	26.356106
2.580000	26.356106
2.590000	26.356106
2.600000	26.356106
2.610000	26.356106
2.620000	26.356106
2.630000	26.356106
2.640000	26.356106
2.650000	26.356106
2.660000	26.356106
2.670000	26.356106
2.680000	26.356106
2.690000	26.356106
2.700000	26.356106
2.710000	26.356106
2.720000	26.356106
2.730000	26.356106
2.740000	26.356106
2.750000	26.356106
2.760000	26.356106
2.770000	26.356106
2.780000	26.356106
2.790000	26.356106
2.800000	26.356106
2.810000	26.356106
2.820000	26.356106
2.830000	26.356106
2.840000	26.356106
2.850000	26.356106
2.860000	26.356106
2.870000	26.356106
2.880000	26.356106
2.890000	26.356106
2.900000	26.356106
2.910000	26.356106
2.920000	26.356106
2.930000	26.356106
2.940000	26.356106
2.950000	26.356106
2.960000	26.356106
2.970000	26.356106
2.980000	26.356106
2.990000	26.356106
3.000000	26.976695
3.010000	26.976695
3.020000	26.976695
3.030000	26.976695
3.040000	26.976695
3.050000	26.976695
3.060000	26.976695
3.070000	26.976695
3.080000	26.976695
3.090000	26.976695
3.100000	26.976695
3.110000	26.976695
3.120000	26.976695
3.130000	26.976695
3.140000	26.976695
3.150000	26.976695
3.160000	26.976695
3.170000	26.976695
3.180000	26.976695
3.190000	26.976695
3.200000	26.976695
3.210000	26.976695
3.220000	26.976695
3.230000	26.976695
3.240000	26.976695
3.250000	26.976695
3.260000	26.976695
3.270000	26.976695
3.280000	26.976695
3.290000	26.976695
3.300000	26.976695
3.310000	26.976695
3.320000	26.976695
3.330000	26.976695
3.340000	26.976695
3.350000	26.976695
3.360000	26.976695
3.370000	26.976695
3.380000	26.976695
3.390000	26.976695
3.400000	26.976695
3.410000	26.976695
3.420000	26.976695
3.430000	26.976695
3.440000	26.976695
3.450000	26.976695
3.460000	26.976695
3.470000	26.976695
3.480000	26.976695
3.490000	26.976695
3.500000	27.638974
3.510000	27.638974
3.520000	27.638974
3.530000	27.638974
3.540000	27.638974
3.550000	27.638974
3.560000	27.638974
3.570000	27.638974
3.580000	27.638974
3.590000	27.638974
3.600000	27.638974
3.610000	27.638974
3.620000	27.638974
3.630000	27.638974
3.640000	27.638974
3.650000	27.638974
3.660000	27.638974
3.670000	27.638974
3.680000	27.638974
3.690000	27.638974
3.700000	27.638974
3.710000	27.638974
3.720000	27.638974
3.730000	27.638974
3.740000	27.638974
3.750000	27.638974
3.760000	27.638974
3.770000	27.638974
3.780000	27.638974
3.790000	27.638974
3.800000	27.638974
3.810000	27.638974
3.820000	27.638974
3.830000	27.638974
3.840000	27.638974
3.850000	27.638974
3.860000	27.638974
3.870000	27.638974
3.880000	27.638974
3.890000	27.638974
3.900000	27.638974
3.910000	27.638974
3.920000	27.638974
3.930000	27.638974
3.940000	27.638974
3.950000	27.638974
3.960000	27.638974
3.970000	27.638974
3.980000	27.638974
3.990000	27.638974
4.000000	28.208974
4.010000	28.208974
4.020000	28.208974
4.030000	28.208974
4.040000	28.208974
4.050000	28.208974
4.060000	28.208974
4.070000	28.208974
4.080000	28.208974
4.090000	28.208974
4.100000	28.208974
4.110000	28.208974
4.120000	28.208974
4.130000	28.208974
4.140000	28.208974
4.150000	28.208974
4.160000	28.208974
4.170000	28.208974
4.180000	28.208974
4.190000	28.208974
4.200000	28.208974
4.210000	28.208974
4.220000	28.208974
4.230000	28.208974
4.240000	28.208974
4.250000	28.208974
4.260000	28.208974
4.270000	28.208974
4.280000	28.208974
4.290000	28.208974
4.300000	28.208974
4.310000	28.208974
4.320000	28.208974
4.330000	28.208974
4.340000	28.208974
4.350000	28.208974
4.360000	28.208974
4.370000	28.208974
4.380000	28.208974
4.390000	28.208974
4.400000	28.208974
4.410000	28.208974
4.420000	28.208974
4.430000	28.208974
4.440000	28.208974
4.450000	28.208974
4.460000	28.208974
4.470000	28.208974
4.480000	28.208974
4.490000	28.208974
4.500000	28.627801
4.510000	28.627801
4.520000	28.627801
4.530000	28.627801
4.540000	28.627801
4.550000	28.627801
4.560000	28.627801
4.570000	28.627801
4.580000	28.627801
4.590000	28.627801
4.600000	28.627801
4.610000	28.627801
4.620000	28.627801
4.630000	28.627801
4.640000	28.627801
4.650000	28.627801
4.660000	28.627801
4.670000	28.627801
4.680000	28.627801
4.690000	28.627801
4.700000	28.627801
4.710000	28.627801
4.720000	28.627801
4.730000	28.627801
4.740000	28.627801
4.750000	28.627801
4.760000	28.627801
4.770000	28.627801
4.780000	28.627801
4.790000	28.627801
4.800000	28.627801
4.810000	28.627801
4.820000	28.627801
4.830000	28.627801
4.840000	28.627801
4.850000	28.627801
4.860000	28.627801
4.870000	28.627801
4.880000	28.627801
4.890000	28.627801
4.900000	28.627801
4.910000	28.627801
4.920000	28.627801
4.930000	28.627801
4.940000	28.627801
4.950000	28.627801
4.960000	28.627801
4.970000	28.627801
4.980000	28.627801
4.990000	28.627801
5.000000	28.922451
5.010000	28.922451
5.020000	28.922451
5.030000	28.922451
5.040000	28.922451
5.050000	28.922451
5.060000	28.922451
5.070000	28.922451
5.080000	28.922451
5.090000	28.922451
5.100000	28.922451
5.110000	28.922451
5.120000	28.922451
5.130000	28.922451
5.140000	28.922451
5.150000	28.922451
5.160000	28.922451
5.170000	28.922451
5.180000	28.922451
5.190000	28.922451
5.200000	28.922451
5.210000	28.922451
5.220000	28.922451
5.230000	28.922451
5.240000	28.922451
5.250000	28.922451
5.260000	28.922451
5.270000	28.922451
5.280000	28.922451
5.290000	28.922451
5.300000	28.922451
5.310000	28.922451
5.320000	28.922451
5.330000	28.922451
5.340000	28.922451
5.350000	28.922451
5.360000	28.922451
5.370000	28.922451
5.380000	28.922451
5.390000	28.922451
5.400000	28.922451
5.410000	28.922451
5.420000	28.922451
5.430000	28.922451
5.440000	28.922451
5.450000	28.922451
5.460000	28.922451
5.470000	28.922451
5.480000	28.922451
5.490000	28.922451
5.500000	29.125026
5.510000	29.125026
5.520000	29.125026
5.530000	29.125026
5.540000	29.125026
5.550000	29.125026
5.560000	29.125026
5.570000	29.125026
5.580000	29.125026
5.590000	29.125026
5.600000	29.125026
5.610000	29.125026
5.620000	29.125026
5.630000	29.125026
5.640000	29.125026
5.650000	29.125026
5.660000	29.125026
5.670000	29.125026
5.680000	29.125026
5.690000	29.125026
5.700000	29.125026
5.710000	29.125026
5.720000	29.125026
5.730000	29.125026
5.740000	29.125026
5.750000	29.125026
5.760000	29.125026
5.770000	29.125026
5.780000	29.125026
5.790000	29.125026
5.800000	29.125026
5.810000	29.125026
5.820000	29.125026
5.830000	29.125026
5.840000	29.125026
5.850000	29.125026
5.860000	29.125026
5.870000	29.125026
5.880000	29.125026
5.890000	29.125026
5.900000	29.125026
5.910000	29.125026
5.920000	29.125026
5.930000	29.125026
5.940000	29.125026
5.950000	29.125026
5.960000	29.125026
5.970000	29.125026
5.980000	29.125026
5.990000	29.125026
6.000000	29.253838
6.010000	29.253838
6.020000	29.253838
6.030000	29.253838
6.040000	29.253838
6.050000	29.253838
6.060000	29.253838
6.070000	29.253838
6.080000	29.253838
6.090000	29.253838
6.100000	29.253838
6.110000	29.253838
6.120000	29.253838
6.130000	29.253838
6.140000	29.253838
6.150000	29.253838
6.160000	29.253838
6.170000	29.253838
6.180000	29.253838
6.190000	29.253838
6.200000	29.253838
6.210000	29.253838
6.220000	29.253838
6.230000	29.253838
6.240000	29.253838
6.250000	29.253838
6.260000	29.253838
6.270000	29.253838
6.280000	29.253838
6.290000	29.253838
6.300000	29.253838
6.310000	29.253838
6.320000	29.253838
6.330000	29.253838
6.340000	29.253838
6.350000	29.253838
6.360000	29.253838
6.370000	29.253838
6.380000	29.253838
6.390000	29.253838
6.400000	29.253838
6.410000	29.253838
6.420000	29.253838
6.430000	29.253838
6.440000	29.253838
6.450000	29.253838
6.460000	29.253838
6.470000	29.253838
6.480000	29.253838
6.490000	29.253838
6.500000	29.329761
6.510000	29.329761
6.520000	29.329761
6.530000	29.329761
6.540000	29.329761
6.550000	29.329761
6.560000	29.329761
6.570000	29.329761
6.580000	29.329761
6.590000	29.329761
6.600000	29.329761
6.610000	29.329761
6.620000	29.329761
6.630000	29.329761
6.640000	29.329761
6.650000	29.329761
6.660000	29.329761
6.670000	29.329761
6.680000	29.329761
6.690000	29.329761
6.700000	29.329761
6.710000	29.329761
6.720000	29.329761
6.730000	29.329761
6.740000	29.329761
6.750000	29.329761
6.760000	29.329761
6.770000	29.329761
6.780000	29.329761
6.790000	29.329761
6.800000	29.329761
6.810000	29.329761
6.820000	29.329761
6.830000	29.329761
6.840000	29.329761
6.850000	29.329761
6.860000	29.329761
6.870000	29.329761
6.880000	29.329761
6.890000	29.329761
6.900000	29.329761
6.910000	29.329761
6.920000	29.329761
6.930000	29.329761
6.940000	29.329761
6.950000	29.329761
6.960000	29.329761
6.970000	29.329761
6.980000	29.329761
6.990000	29.329761
7.000000	29.369062
7.010000	29.369062
7.020000	29.369062
7.030000	29.369062
7.040000	29.369062
7.050000	29.369062
7.060000	29.369062
7.070000	29.369062
7.080000	29.369062
7.090000	29.369062
7.100000	29.369062
7.110000	29.369062
7.120000	29.369062
7.130000	29.369062
7.140000	29.369062
7.150000	29.369062
7.160000	29.369062
7.170000	29.369062
7.180000	29.369062
7.190000	29.369062
7.200000	29.369062
7.210000	29.369062
7.220000	29.369062
7.230000	29.369062
7.240000	29.369062
7.250000	29.369062
7.260000	29.369062
7.270000	29.369062
7.280000	29.369062
7.290000	29.369062
7.300000	29.369062
7.310000	29.369062
7.320000	29.369062
7.330000	29.369062
7.340000	29.369062
7.350000	29.369062
7.360000	29.369062
7.370000	29.369062
7.380000	29.369062
7.390000	29.369062
7.400000	29.369062
7.410000	29.369062
7.420000	29.369062
7.430000	29.369062
7.440000	29.369062
7.450000	29.369062
7.460000	29.369062
7.470000	29.369062
7.480000	29.369062
7.490000	29.369062
7.500000	29.377869
7.510000	29.377869
7.520000	29.377869
7.530000	29.377869
7.540000	29.377869
7.550000	29.377869
7.560000	29.377869
7.570000	29.377869
7.580000	29.377869
7.590000	29.377869
7.600000	29.377869
7.610000	29.377869
7.620000	29.377869
7.630000	29.377869
7.640000	29.377869
7.650000	29.377869
7.660000	29.377869
7.670000	29.377869
7.680000	29.377869
7.690000	29.377869
7.700000	29.377869
7.710000	29.377869
7.720000	29.377869
7.730000	29.377869
7.740000	29.377869
7.750000	29.377869
7.760000	29.377869
7.770000	29.377869
7.780000	29.377869
7.790000	29.377869
7.800000	29.377869
7.810000	29.377869
7.820000	29.377869
7.830000	29.377869
7.840000	29.377869
7.850000	29.377869
7.860000	29.377869
7.870000	29.377869
7.880000	29.377869
7.890000	29.377869
7.900000	29.377869
7.910000	29.377869
7.920000	29.377869
7.930000	29.377869
7.940000	29.377869
7.950000	29.377869
7.960000	29.377869
7.970000	29.377869
7.980000	29.377869
7.990000	29.377869
8.000000	29.363182
8.010000	29.363182
8.020000	29.363182
8.030000	29.363182
8.040000	29.363182
8.050000	29.363182
8.060000	29.363182
8.070000	29.363182
8.080000	29.363182
8.090000	29.363182
8.100000	29.363182
8.110000	29.363182
8.120000	29.363182
8.130000	29.363182
8.140000	29.363182
8.150000	29.363182
8.160000	29.363182
8.170000	29.363182
8.180000	29.363182
8.190000	29.363182
8.200000	29.363182
8.210000	29.363182
8.220000	29.363182
8.230000	29.363182
8.240000	29.363182
8.250000	29.363182
8.260000	29.363182
8.270000	29.363182
8.280000	29.363182
8.290000	29.363182
8.300000	29.363182
8.310000	29.363182
8.320000	29.363182
8.330000	29.363182
8.340000	29.363182
8.350000	29.363182
8.360000	29.363182
8.370000	29.363182
8.380000	29.363182
8.390000	29.363182
8.400000	29.363182
8.410000	29.363182
8.420000	29.363182
8.430000	29.363182
8.440000	29.363182
8.450000	29.363182
8.460000	29.363182
8.470000	29.363182
8.480000	29.363182
8.490000	29.363182
8.500000	29.328689
8.510000	29.328689
8.520000	29.328689
8.530000	29.328689
8.540000	29.328689
8.550000	29.328689
8.560000	29.328689
8.570000	29.328689
8.580000	29.328689
8.590000	29.328689
8.600000	29.328689
8.610000	29.328689
8.620000	29.328689
8.630000	29.328689
8.640000	29.328689
8.650000	29.328689
8.660000	29.328689
8.670000	29.328689
8.680000	29.328689
8.690000	29.328689
8.700000	29.328689
8.710000	29.328689
8.720000	29.328689
8.730000	29.328689
8.740000	29.328689
8.750000	29.328689
8.760000	29.328689
8.770000	29.328689
8.780000	29.328689
8.790000	29.328689
8.800000	29.328689
8.810000	29.328689
8.820000	29.328689
8.830000	29.328689
8.840000	29.328689
8.850000	29.328689
8.860000	29.328689
8.870000	29.328689
8.880000	29.328689
8.890000	29.328689
8.900000	29.328689
8.910000	29.328689
8.920000	29.328689
8.930000	29.328689
8.940000	29.328689
8.950000	29.328689
8.960000	29.328689
8.970000	29.328689
8.980000	29.328689
8.990000	29.328689
9.000000	29.279213
9.010000	29.279213
9.020000	29.279213
9.030000	29.279213
9.040000	29.279213
9.050000	29.279213
9.060000	29.279213
9.070000	29.279213
9.080000	29.279213
9.090000	29.279213
9.100000	29.279213
9.110000	29.279213
9.120000	29.279213
9.130000	29.279213
9.140000	29.279213
9.150000	29.279213
9.160000	29.279213
9.170000	29.279213
9.180000	29.279213
9.190000	29.279213
9.200000	29.279213
9.210000	29.279213
9.220000	29.279213
9.230000	29.279213
9.240000	29.279213
9.250000	29.279213
9.260000	29.279213
9.270000	29.279213
9.280000	29.279213
9.290000	29.279213
9.300000	29.279213
9.310000	29.279213
9.320000	29.279213
9.330000	29.279213
9.340000	29.279213
9.350000	29.279213
9.360000	29.279213
9.370000	29.279213
9.380000	29.279213
9.390000	29.279213
9.400000	29.279213
9.410000	29.279213
9.420000	29.279213
9.430000	29.279213
9.440000	29.279213
9.450000	29.279213
9.460000	29.279213
9.470000	29.279213
9.480000	29.279213
9.490000	29.279213
9.500000	29.221841
9.510000	29.221841
9.520000	29.221841
9.530000	29.221841
9.540000	29.221841
9.550000	29.221841
9.560000	29.221841
9.570000	29.221841
9.580000	29.221841
9.590000	29.221841
9.600000	29.221841
9.610000	29.221841
9.620000	29.221841
9.630000	29.221841
9.640000	29.221841
9.650000	29.221841
9.660000	29.221841
9.670000	29.221841
9.680000	29.221841
9.690000	29.221841
9.700000	29.221841
9.710000	29.221841
9.720000	29.221841
9.730000	29.221841
9.740000	29.221841
9.750000	29.221841
9.760000	29.221841
9.770000	29.221841
9.780000	29.221841
9.790000	29.221841
9.800000	29.221841
9.810000	29.221841
9.820000	29.221841
9.830000	29.221841
9.840000	29.221841
9.850000	29.221841
9.860000	29.221841
9.870000	29.221841
9.880000	29.221841
9.890000	29.221841
9.900000	29.221841
9.910000	29.221841
9.920000	29.221841
9.930000	29.221841
9.940000	29.221841
9.950000	29.221841
9.960000	29.221841
9.970000	29.221841
9.980000	29.221841
9.990000	29.221841
10.000000	29.158001
10.010000	29.158001
10.020000	29.158001
10.030000	29.158001
10.040000	29.158001
10.050000	29.158001
10.060000	29.158001
10.070000	29.158001
10.080000	29.158001
10.090000	29.158001
10.100000	29.158001
10.110000	29.158001
10.120000	29.158001
10.130000	29.158001
10.140000	29.158001
10.150000	29.158001
10.160000	29.158001
10.170000	29.158001
10.180000	29.158001
10.190000	29.158001
10.200000	29.158001
10.210000	29.158001
10.220000	29.158001
10.230000	29.158001
10.240000	29.158001
10.250000	29.158001
10.260000	29.158001
10.270000	29.158001
10.280000	29.158001
10.290000	29.158001
10.300000	29.158001
10.310000	29.158001
10.320000	29.158001
10.330000	29.158001
10.340000	29.158001
10.350000	29.158001
10.360000	29.158001
10.370000	29.158001
10.380000	29.158001
10.390000	29.158001
10.400000	29.158001
10.410000	29.158001
10.420000	29.158001
10.430000	29.158001
10.440000	29.158001
10.450000	29.158001
10.460000	29.158001
10.470000	29.158001
10.480000	29.158001
10.490000	29.158001
10.500000	29.089312
10.510000	29.089312
10.520000	29.089312
10.530000	29.089312
10.540000	29.089312
10.550000	29.089312
10.560000	29.089312
10.570000	29.089312
10.580000	29.089312
10.590000	29.089312
10.600000	29.089312
10.610000	29.089312
10.620000	29.089312
10.630000	29.089312
10.640000	29.089312
10.650000	29.089312
10.660000	29.089312
10.670000	29.089312
10.680000	29.089312
10.690000	29.089312
10.700000	29.089312
10.710000	29.089312
10.720000	29.089312
10.730000	29.089312
10.740000	29.089312
10.750000	29.089312
10.760000	29.089312
10.770000	29.089312
10.780000	29.089312
10.790000	29.089312
10.800000	29.089312
10.810000	29.089312
10.820000	29.089312
10.830000	29.089312
10.840000	29.089312
10.850000	29.089312
10.860000	29.089312
10.870000	29.089312
10.880000	29.089312
10.890000	29.089312
10.900000	29.089312
10.910000	29.089312
10.920000	29.089312
10.930000	29.089312
10.940000	29.089312
10.950000	29.089312
10.960000	29.089312
10.970000	29.089312
10.980000	29.089312
10.990000	29.089312
11.000000	29.016676
11.010000	29.016676
11.020000	29.016676
11.030000	29.016676
11.040000	29.016676
11.050000	29.016676
11.060000	29.016676
11.070000	29.016676
11.080000	29.016676
11.090000	29.016676
11.100000	29.016676
11.110000	29.016676
11.120000	29.016676
11.130000	29.016676
11.140000	29.016676
11.150000	29.016676
11.160000	29.016676
11.170000	29.016676
11.180000	29.016676
11.190000	29.016676
11.200000	29.016676
11.210000	29.016676
11.220000	29.016676
11.230000	29.016676
11.240000	29.016676
11.250000	29.016676
11.260000	29.016676
11.270000	29.016676
11.280000	29.016676
11.290000	29.016676
11.300000	29.016676
11.310000	29.016676
11.320000	29.016676
11.330000	29.016676
11.340000	29.016676
11.350000	29.016676
11.360000	29.016676
11.370000	29.016676
11.380000	29.016676
11.390000	29.016676
11.400000	29.016676
11.410000	29.016676
11.420000	29.016676
11.430000	29.016676
11.440000	29.016676
11.450000	29.016676
11.460000	29.016676
11.470000	29.016676
11.480000	29.016676
11.490000	29.016676
11.500000	28.941003
11.510000	28.941003
11.520000	28.941003
11.530000	28.941003
11.540000	28.941003
11.550000	28.941003
11.560000	28.941003
11.570000	28.941003
11.580000	28.941003
11.590000	28.941003
11.600000	28.941003
11.610000	28.941003
11.620000	28.941003
11.630000	28.941003
11.640000	28.941003
11.650000	28.941003
11.660000	28.941003
11.670000	28.941003
11.680000	28.941003
11.690000	28.941003
11.700000	28.941003
11.710000	28.941003
11.720000	28.941003
11.730000	28.941003
11.740000	28.941003
11.750000	28.941003
11.760000	28.941003
11.770000	28.941003
11.780000	28.941003
11.790000	28.941003
11.800000	28.941003
11.810000	28.941003
11.820000	28.941003
11.830000	28.941003
11.840000	28.941003
11.850000	28.941003
11.860000	28.941003
11.870000	28.941003
11.880000	28.941003
11.890000	28.941003
11.900000	28.941003
11.910000	28.941003
11.920000	28.941003
11.930000	28.941003
11.940000	28.941003
11.950000	28.941003
11.960000	28.941003
11.970000	28.941003
11.980000	28.941003
11.990000	28.941003
12.000000	28.864236
12.010000	28.864236
12.020000	28.864236
12.030000	28.864236
12.040000	28.864236
12.050000	28.864236
12.060000	28.864236
12.070000	28.864236
12.080000	28.864236
12.090000	28.864236
12.100000	28.864236
12.110000	28.864236
12.120000	28.864236
12.130000	28.864236
12.140000	28.864236
12.150000	28.864236
12.160000	28.864236
12.170000	28.864236
12.180000	28.864236
12.190000	28.864236
12.200000	28.864236
12.210000	28.864236
12.220000	28.864236
12.230000	28.864236
12.240000	28.864236
12.250000	28.864236
12.260000	28.864236
12.270000	28.864236
12.280000	28.864236
12.290000	28.864236
12.300000	28.864236
12.310000	28.864236
12.320000	28.864236
12.330000	28.864236
12.340000	28.864236
12.350000	28.864236
12.360000	28.864236
12.370000	28.864236
12.380000	28.864236
12.390000	28.864236
12.400000	28.864236
12.410000	28.864236
12.420000	28.864236
12.430000	28.864236
12.440000	28.864236
12.450000	28.864236
12.460000	28.864236
12.470000	28.864236
12.480000	28.864236
12.490000	28.864236
12.500000	28.787660
12.510000	28.787660
12.520000	28.787660
12.530000	28.787660
12.540000	28.787660
12.550000	28.787660
12.560000	28.787660
12.570000	28.787660
12.580000	28.787660
12.590000	28.787660
12.600000	28.787660
12.610000	28.787660
12.620000	28.787660
12.630000	28.787660
12.640000	28.787660
12.650000	28.787660
12.660000	28.787660
12.670000	28.787660
12.680000	28.787660
12.690000	28.787660
12.700000	28.787660
12.710000	28.787660
12.720000	28.787660
12.730000	28.787660
12.740000	28.787660
12.750000	28.787660
12.760000	28.787660
12.770000	28.787660
12.780000	28.787660
12.790000	28.787660
12.800000	28.787660
12.810000	28.787660
12.820000	28.787660
12.830000	28.787660
12.840000	28.787660
12.850000	28.787660
12.860000	28.787660
12.870000	28.787660
12.880000	28.787660
12.890000	28.787660
12.900000	28.787660
12.910000	28.787660
12.920000	28.787660
12.930000	28.787660
12.940000	28.787660
12.950000	28.787660
12.960000	28.787660
12.970000	28.787660
12.980000	28.787660
12.990000	28.787660
13.000000	28.711389
13.010000	28.711389
13.020000	28.711389
13.030000	28.711389
13.040000	28.711389
13.050000	28.711389
13.060000	28.711389
13.070000	28.711389
13.080000	28.711389
13.090000	28.711389
13.100000	28.711389
13.110000	28.711389
13.120000	28.711389
13.130000	28.711389
13.140000	28.711389
13.150000	28.711389
13.160000	28.711389
13.170000	28.711389
13.180000	28.711389
13.190000	28.711389
13.200000	28.711389
13.210000	28.711389
13.220000	28.711389
13.230000	28.711389
13.240000	28.711389
13.250000	28.711389
13.260000	28.711389
13.270000	28.711389
13.280000	28.711389
13.290000	28.711389
13.300000	28.711389
13.310000	28.711389
13.320000	28.711389
13.330000	28.711389
13.340000	28.711389
13.350000	28.711389
13.360000	28.711389
13.370000	28.711389
13.380000	28.711389
13.390000	28.711389
13.400000	28.711389
13.410000	28.711389
13.420000	28.711389
13.430000	28.711389
13.440000	28.711389
13.450000	28.711389
13.460000	28.711389
13.470000	28.711389
13.480000	28.711389
13.490000	28.711389
13.500000	28.634353
13.510000	28.634353
13.520000	28.634353
13.530000	28.634353
13.540000	28.634353
13.550000	28.634353
13.560000	28.634353
13.570000	28.634353
13.580000	28.634353
13.590000	28.634353
13.600000	28.634353
13.610000	28.634353
13.620000	28.634353
13.630000	28.634353
13.640000	28.634353
13.650000	28.634353
13.660000	28.634353
13.670000	28.634353
13.680000	28.634353
13.690000	28.634353
13.700000	28.634353
13.710000	28.634353
13.720000	28.634353
13.730000	28.634353
13.740000	28.634353
13.750000	28.634353
13.760000	28.634353
13.770000	28.634353
13.780000	28.634353
13.790000	28.634353
13.800000	28.634353
13.810000	28.634353
13.820000	28.634353
13.830000	28.634353
13.840000	28.634353
13.850000	28.634353
13.860000	28.634353
13.870000	28.634353
13.880000	28.634353
13.890000	28.634353
13.900000	28.634353
13.910000	28.634353
13.920000	28.634353
13.930000	28.634353
13.940000	28.634353
13.950000	28.634353
13.960000	28.634353
13.970000	28.634353
13.980000	28.634353
13.990000	28.634353
14.000000	28.557702
14.010000	28.557702
14.020000	28.557702
14.030000	28.557702
14.040000	28.557702
14.050000	28.557702
14.060000	28.557702
14.070000	28.557702
14.080000	28.557702
14.090000	28.557702
14.100000	28.557702
14.110000	28.557702
14.120000	28.557702
14.130000	28.557702
14.140000	28.557702
14.150000	28.557702
14.160000	28.557702
14.170000	28.557702
14.180000	28.557702
14.190000	28.557702
14.200000	28.557702
14.210000	28.557702
14.220000	28.557702
14.230000	28.557702
14.240000	28.557702
14.250000	28.557702
14.260000	28.557702
14.270000	28.557702
14.280000	28.557702
14.290000	28.557702
14.300000	28.557702
14.310000	28.557702
14.320000	28.557702
14.330000	28.557702
14.340000	28.557702
14.350000	28.557702
14.360000	28.557702
14.370000	28.557702
14.380000	28.557702
14.390000	28.557702
14.400000	28.557702
14.410000	28.557702
14.420000	28.557702
14.430000	28.557702
14.440000	28.557702
14.450000	28.557702
14.460000	28.557702
14.470000	28.557702
14.480000	28.557702
14.490000	28.557702
14.500000	28.482016
14.510000	28.482016
14.520000	28.482016
14.530000	28.482016
14.540000	28.482016
14.550000	28.482016
14.560000	28.482016
14.570000	28.482016
14.580000	28.482016
14.590000	28.482016
14.600000	28.482016
14.610000	28.482016
14.620000	28.482016
14.630000	28.482016
14.640000	28.482016
14.650000	28.482016
14.660000	28.482016
14.670000	28.482016
14.680000	28.482016
14.690000	28.482016
14.700000	28.482016
14.710000	28.482016
14.720000	28.482016
14.730000	28.482016
14.740000	28.482016
14.750000	28.482016
14.760000	28.482016
14.770000	28.482016
14.780000	28.482016
14.790000	28.482016
14.800000	28.482016
14.810000	28.482016
14.820000	28.482016
14.830000	28.482016
14.840000	28.482016
14.850000	28.482016
14.860000	28.482016
14.870000	28.482016
14.880000	28.482016
14.890000	28.482016
14.900000	28.482016
14.910000	28.482016
14.920000	28.482016
14.930000	28.482016
14.940000	28.482016
14.950000	28.482016
14.960000	28.482016
14.970000	28.482016
14.980000	28.482016
14.990000	28.482016
15.000000	28.407260
15.010000	28.407260
15.020000	28.407260
15.030000	28.407260
15.040000	28.407260
15.050000	28.407260
15.060000	28.407260
15.070000	28.407260
15.080000	28.407260
15.090000	28.407260
15.100000	28.407260
15.110000	28.407260
15.120000	28.407260
15.130000	28.407260
15.140000	28.407260
15.150000	28.407260
15.160000	28.407260
15.170000	28.407260
15.180000	28.407260
15.190000	28.407260
15.200000	28.407260
15.210000	28.407260
15.220000	28.407260
15.230000	28.407260
15.240000	28.407260
15.250000	28.407260
15.260000	28.407260
15.270000	28.407260
15.280000	28.407260
15.290000	28.407260
15.300000	28.407260
15.310000	28.407260
15.320000	28.407260
15.330000	28.407260
15.340000	28.407260
15.350000	28.407260
15.360000	28.407260
15.370000	28.407260
15.380000	28.407260
15.390000	28.407260
15.400000	28.407260
15.410000	28.407260
15.420000	28.407260
15.430000	28.407260
15.440000	28.407260
15.450000	28.407260
15.460000	28.407260
15.470000	28.407260
15.480000	28.407260
15.490000	28.407260
15.500000	28.334576
15.510000	28.334576
15.520000	28.334576
15.530000	28.334576
15.540000	28.334576
15.550000	28.334576
15.560000	28.334576
15.570000	28.334576
15.580000	28.334576
15.590000	28.334576
15.600000	28.334576
15.610000	28.334576
15.620000	28.334576
15.630000	28.334576
15.640000	28.334576
15.650000	28.334576
15.660000	28.334576
15.670000	28.334576
15.680000	28.334576
15.690000	28.334576
15.700000	28.334576
15.710000	28.334576
15.720000	28.334576
15.730000	28.334576
15.740000	28.334576
15.750000	28.334576
15.760000	28.334576
15.770000	28.334576
15.780000	28.334576
15.790000	28.334576
15.800000	28.334576
15.810000	28.334576
15.820000	28.334576
15.830000	28.334576
15.840000	28.334576
15.850000	28.334576
15.860000	28.334576
15.870000	28.334576
15.880000	28.334576
15.890000	28.334576
15.900000	28.334576
15.910000	28.334576
15.920000	28.334576
15.930000	28.334576
15.940000	28.334576
15.950000	28.334576
15.960000	28.334576
15.970000	28.334576
15.980000	28.334576
15.990000	28.334576
16.000000	28.262330
16.010000	28.262330
16.020000	28.262330
16.030000	28.262330
16.040000	28.262330
16.050000	28.262330
16.060000	28.262330
16.070000	28.262330
16.080000	28.262330
16.090000	28.262330
16.100000	28.262330
16.110000	28.262330
16.120000	28.262330
16.130000	28.262330
16.140000	28.262330
16.150000	28.262330
16.160000	28.262330
16.170000	28.262330
16.180000	28.262330
16.190000	28.262330
16.200000	28.262330
16.210000	28.262330
16.220000	28.262330
16.230000	28.262330
16.240000	28.262330
16.250000	28.262330
16.260000	28.262330
16.270000	28.262330
16.280000	28.262330
16.290000	28.262330
16.300000	28.262330
16.310000	28.262330
16.320000	28.262330
16.330000	28.262330
16.340000	28.262330
16.350000	28.262330
16.360000	28.262330
16.370000	28.262330
16.380000	28.262330
16.390000	28.262330
16.400000	28.262330
16.410000	28.262330
16.420000	28.262330
16.430000	28.262330
16.440000	28.262330
16.450000	28.262330
16.460000	28.262330
16.470000	28.262330
16.480000	28.262330
16.490000	28.262330
16.500000	28.191431
16.510000	28.191431
16.520000	28.191431
16.530000	28.191431
16.540000	28.191431
16.550000	28.191431
16.560000	28.191431
16.570000	28.191431
16.580000	28.191431
16.590000	28.191431
16.600000	28.191431
16.610000	28.191431
16.620000	28.191431
16.630000	28.191431
16.640000	28.191431
16.650000	28.191431
16.660000	28.191431
16.670000	28.191431
16.680000	28.191431
16.690000	28.191431
16.700000	28.191431
16.710000	28.191431
16.720000	28.191431
16.730000	28.191431
16.740000	28.191431
16.750000	28.191431
16.760000	28.191431
16.770000	28.191431
16.780000	28.191431
16.790000	28.191431
16.800000	28.191431
16.810000	28.191431
16.820000	28.191431
16.830000	28.191431
16.840000	28.191431
16.850000	28.191431
16.860000	28.191431
16.870000	28.191431
16.880000	28.191431
16.890000	28.191431
16.900000	28.191431
16.910000	28.191431
16.920000	28.191431
16.930000	28.191431
16.940000	28.191431
16.950000	28.191431
16.960000	28.191431
16.970000	28.191431
16.980000	28.191431
16.990000	28.191431
17.000000	28.123052
17.010000	28.123052
17.020000	28.123052
17.030000	28.123052
17.040000	28.123052
17.050000	28.123052
17.060000	28.123052
17.070000	28.123052
17.080000	28.123052
17.090000	28.123052
17.100000	28.123052
17.110000	28.123052
17.120000	28.123052
17.130000	28.123052
17.140000	28.123052
17.150000	28.123052
17.160000	28.123052
17.170000	28.123052
17.180000	28.123052
17.190000	28.123052
17.200000	28.123052
17.210000	28.123052
17.220000	28.123052
17.230000	28.123052
17.240000	28.123052
17.250000	28.123052
17.260000	28.123052
17.270000	28.123052
17.280000	28.123052
17.290000	28.123052
17.300000	28.123052
17.310000	28.123052
17.320000	28.123052
17.330000	28.123052
17.340000	28.123052
17.350000	28.123052
17.360000	28.123052
17.370000	28.123052
17.380000	28.123052
17.390000	28.123052
17.400000	28.123052
17.410000	28.123052
17.420000	28.123052
17.430000	28.123052
17.440000	28.123052
17.450000	28.123052
17.460000	28.123052
17.470000	28.123052
17.480000	28.123052
17.490000	28.123052
17.500000	28.055489
17.510000	28.055489
17.520000	28.055489
17.530000	28.055489
17.540000	28.055489
17.550000	28.055489
17.560000	28.055489
17.570000	28.055489
17.580000	28.055489
17.590000	28.055489
17.600000	28.055489
17.610000	28.055489
17.620000	28.055489
17.630000	28.055489
17.640000	28.055489
17.650000	28.055489
17.660000	28.055489
17.670000	28.055489
17.680000	28.055489
17.690000	28.055489
17.700000	28.055489
17.710000	28.055489
17.720000	28.055489
17.730000	28.055489
17.740000	28.055489
17.750000	28.055489
17.760000	28.055489
17.770000	28.055489
17.780000	28.055489
17.790000	28.055489
17.800000	28.055489
17.810000	28.055489
17.820000	28.055489
17.830000	28.055489
17.840000	28.055489
17.850000	28.055489
17.860000	28.055489
17.870000	28.055489
17.880000	28.055489
17.890000	28.055489
17.900000	28.055489
17.910000	28.055489
17.920000	28.055489
17.930000	28.055489
17.940000	28.055489
17.950000	28.055489
17.960000	28.055489
17.970000	28.055489
17.980000	28.055489
17.990000	28.055489
