LabVIEW Measurement	
Writer_Version	2
Reader_Version	2
Separator	Tab
Decimal_Separator	.
Multi_Headings	No
X_Columns	One
Time_Pref	Absolute
Operator	biomech-dyno
Date	2023/05/24
Time	16:48:16.3068024999997945361
***End_of_Header***	
	
Channels	1	
Samples	10	
Date	2023/05/24	
Time	16:53:45.0856121999999090672	
X_Dimension	Time	
X0	0.0000000000000000E+0	
Delta_X	0.010000	
***End_of_Header***		
X_Value	Untitled	Comment
0.000000	24.987800
0.010000	24.987800
0.020000	24.987800
0.030000	24.987800
0.040000	24.987800
0.050000	24.987800
0.060000	24.987800
0.070000	24.987800
0.080000	24.987800
0.090000	24.987800
0.100000	24.987800
0.110000	24.987800
0.120000	24.987800
0.130000	24.987800
0.140000	24.987800
0.150000	24.987800
0.160000	24.987800
0.170000	24.987800
0.180000	24.987800
0.190000	24.987800
0.200000	24.987800
0.210000	24.987800
0.220000	24.987800
0.230000	24.987800
0.240000	24.987800
0.250000	24.987800
0.260000	24.987800
0.270000	24.987800
0.280000	24.987800
0.290000	24.987800
0.300000	24.987800
0.310000	24.987800
0.320000	24.987800
0.330000	24.987800
0.340000	24.987800
0.350000	24.987800
0.360000	24.987800
0.370000	24.987800
0.380000	24.987800
0.390000	24.987800
0.400000	24.987800
0.410000	24.987800
0.420000	24.987800
0.430000	24.987800
0.440000	24.987800
0.450000	24.987800
0.460000	24.987800
0.470000	24.987800
0.480000	24.987800
0.490000	24.987800
0.500000	25.020439
0.510000	25.020439
0.520000	25.020439
0.530000	25.020439
0.540000	25.020439
0.550000	25.020439
0.560000	25.020439
0.570000	25.020439
0.580000	25.020439
0.590000	25.020439
0.600000	25.020439
0.610000	25.020439
0.620000	25.020439
0.630000	25.020439
0.640000	25.020439
0.650000	25.020439
0.660000	25.020439
0.670000	25.020439
0.680000	25.020439
0.690000	25.020439
0.700000	25.020439
0.710000	25.020439
0.720000	25.020439
0.730000	25.020439
0.740000	25.020439
0.750000	25.020439
0.760000	25.020439
0.770000	25.020439
0.780000	25.020439
0.790000	25.020439
0.800000	25.020439
0.810000	25.020439
0.820000	25.020439
0.830000	25.020439
0.840000	25.020439
0.850000	25.020439
0.860000	25.020439
0.870000	25.020439
0.880000	25.020439
0.890000	25.020439
0.900000	25.020439
0.910000	25.020439
0.920000	25.020439
0.930000	25.020439
0.940000	25.020439
0.950000	25.020439
0.960000	25.020439
0.970000	25.020439
0.980000	25.020439
0.990000	25.020439
1.000000	25.318959
1.010000	25.318959
1.020000	25.318959
1.030000	25.318959
1.040000	25.318959
1.050000	25.318959
1.060000	25.318959
1.070000	25.318959
1.080000	25.318959
1.090000	25.318959
1.100000	25.318959
1.110000	25.318959
1.120000	25.318959
1.130000	25.318959
1.140000	25.318959
1.150000	25.318959
1.160000	25.318959
1.170000	25.318959
1.180000	25.318959
1.190000	25.318959
1.200000	25.318959
1.210000	25.318959
1.220000	25.318959
1.230000	25.318959
1.240000	25.318959
1.250000	25.318959
1.260000	25.318959
1.270000	25.318959
1.280000	25.318959
1.290000	25.318959
1.300000	25.318959
1.310000	25.318959
1.320000	25.318959
1.330000	25.318959
1.340000	25.318959
1.350000	25.318959
1.360000	25.318959
1.370000	25.318959
1.380000	25.318959
1.390000	25.318959
1.400000	25.318959
1.410000	25.318959
1.420000	25.318959
1.430000	25.318959
1.440000	25.318959
1.450000	25.318959
1.460000	25.318959
1.470000	25.318959
1.480000	25.318959
1.490000	25.318959
1.500000	26.013208
1.510000	26.013208
1.520000	26.013208
1.530000	26.013208
1.540000	26.013208
1.550000	26.013208
1.560000	26.013208
1.570000	26.013208
1.580000	26.013208
1.590000	26.013208
1.600000	26.013208
1.610000	26.013208
1.620000	26.013208
1.630000	26.013208
1.640000	26.013208
1.650000	26.013208
1.660000	26.013208
1.670000	26.013208
1.680000	26.013208
1.690000	26.013208
1.700000	26.013208
1.710000	26.013208
1.720000	26.013208
1.730000	26.013208
1.740000	26.013208
1.750000	26.013208
1.760000	26.013208
1.770000	26.013208
1.780000	26.013208
1.790000	26.013208
1.800000	26.013208
1.810000	26.013208
1.820000	26.013208
1.830000	26.013208
1.840000	26.013208
1.850000	26.013208
1.860000	26.013208
1.870000	26.013208
1.880000	26.013208
1.890000	26.013208
1.900000	26.013208
1.910000	26.013208
1.920000	26.013208
1.930000	26.013208
1.940000	26.013208
1.950000	26.013208
1.960000	26.013208
1.970000	26.013208
1.980000	26.013208
1.990000	26.013208
2.000000	27.037164
2.010000	27.037164
2.020000	27.037164
2.030000	27.037164
2.040000	27.037164
2.050000	27.037164
2.060000	27.037164
2.070000	27.037164
2.080000	27.037164
2.090000	27.037164
2.100000	27.037164
2.110000	27.037164
2.120000	27.037164
2.130000	27.037164
2.140000	27.037164
2.150000	27.037164
2.160000	27.037164
2.170000	27.037164
2.180000	27.037164
2.190000	27.037164
2.200000	27.037164
2.210000	27.037164
2.220000	27.037164
2.230000	27.037164
2.240000	27.037164
2.250000	27.037164
2.260000	27.037164
2.270000	27.037164
2.280000	27.037164
2.290000	27.037164
2.300000	27.037164
2.310000	27.037164
2.320000	27.037164
2.330000	27.037164
2.340000	27.037164
2.350000	27.037164
2.360000	27.037164
2.370000	27.037164
2.380000	27.037164
2.390000	27.037164
2.400000	27.037164
2.410000	27.037164
2.420000	27.037164
2.430000	27.037164
2.440000	27.037164
2.450000	27.037164
2.460000	27.037164
2.470000	27.037164
2.480000	27.037164
2.490000	27.037164
2.500000	28.305307
2.510000	28.305307
2.520000	28.305307
2.530000	28.305307
2.540000	28.305307
2.550000	28.305307
2.560000	28.305307
2.570000	28.305307
2.580000	28.305307
2.590000	28.305307
2.600000	28.305307
2.610000	28.305307
2.620000	28.305307
2.630000	28.305307
2.640000	28.305307
2.650000	28.305307
2.660000	28.305307
2.670000	28.305307
2.680000	28.305307
2.690000	28.305307
2.700000	28.305307
2.710000	28.305307
2.720000	28.305307
2.730000	28.305307
2.740000	28.305307
2.750000	28.305307
2.760000	28.305307
2.770000	28.305307
2.780000	28.305307
2.790000	28.305307
2.800000	28.305307
2.810000	28.305307
2.820000	28.305307
2.830000	28.305307
2.840000	28.305307
2.850000	28.305307
2.860000	28.305307
2.870000	28.305307
2.880000	28.305307
2.890000	28.305307
2.900000	28.305307
2.910000	28.305307
2.920000	28.305307
2.930000	28.305307
2.940000	28.305307
2.950000	28.305307
2.960000	28.305307
2.970000	28.305307
2.980000	28.305307
2.990000	28.305307
3.000000	29.725736
3.010000	29.725736
3.020000	29.725736
3.030000	29.725736
3.040000	29.725736
3.050000	29.725736
3.060000	29.725736
3.070000	29.725736
3.080000	29.725736
3.090000	29.725736
3.100000	29.725736
3.110000	29.725736
3.120000	29.725736
3.130000	29.725736
3.140000	29.725736
3.150000	29.725736
3.160000	29.725736
3.170000	29.725736
3.180000	29.725736
3.190000	29.725736
3.200000	29.725736
3.210000	29.725736
3.220000	29.725736
3.230000	29.725736
3.240000	29.725736
3.250000	29.725736
3.260000	29.725736
3.270000	29.725736
3.280000	29.725736
3.290000	29.725736
3.300000	29.725736
3.310000	29.725736
3.320000	29.725736
3.330000	29.725736
3.340000	29.725736
3.350000	29.725736
3.360000	29.725736
3.370000	29.725736
3.380000	29.725736
3.390000	29.725736
3.400000	29.725736
3.410000	29.725736
3.420000	29.725736
3.430000	29.725736
3.440000	29.725736
3.450000	29.725736
3.460000	29.725736
3.470000	29.725736
3.480000	29.725736
3.490000	29.725736
3.500000	31.049942
3.510000	31.049942
3.520000	31.049942
3.530000	31.049942
3.540000	31.049942
3.550000	31.049942
3.560000	31.049942
3.570000	31.049942
3.580000	31.049942
3.590000	31.049942
3.600000	31.049942
3.610000	31.049942
3.620000	31.049942
3.630000	31.049942
3.640000	31.049942
3.650000	31.049942
3.660000	31.049942
3.670000	31.049942
3.680000	31.049942
3.690000	31.049942
3.700000	31.049942
3.710000	31.049942
3.720000	31.049942
3.730000	31.049942
3.740000	31.049942
3.750000	31.049942
3.760000	31.049942
3.770000	31.049942
3.780000	31.049942
3.790000	31.049942
3.800000	31.049942
3.810000	31.049942
3.820000	31.049942
3.830000	31.049942
3.840000	31.049942
3.850000	31.049942
3.860000	31.049942
3.870000	31.049942
3.880000	31.049942
3.890000	31.049942
3.900000	31.049942
3.910000	31.049942
3.920000	31.049942
3.930000	31.049942
3.940000	31.049942
3.950000	31.049942
3.960000	31.049942
3.970000	31.049942
3.980000	31.049942
3.990000	31.049942
4.000000	32.062510
4.010000	32.062510
4.020000	32.062510
4.030000	32.062510
4.040000	32.062510
4.050000	32.062510
4.060000	32.062510
4.070000	32.062510
4.080000	32.062510
4.090000	32.062510
4.100000	32.062510
4.110000	32.062510
4.120000	32.062510
4.130000	32.062510
4.140000	32.062510
4.150000	32.062510
4.160000	32.062510
4.170000	32.062510
4.180000	32.062510
4.190000	32.062510
4.200000	32.062510
4.210000	32.062510
4.220000	32.062510
4.230000	32.062510
4.240000	32.062510
4.250000	32.062510
4.260000	32.062510
4.270000	32.062510
4.280000	32.062510
4.290000	32.062510
4.300000	32.062510
4.310000	32.062510
4.320000	32.062510
4.330000	32.062510
4.340000	32.062510
4.350000	32.062510
4.360000	32.062510
4.370000	32.062510
4.380000	32.062510
4.390000	32.062510
4.400000	32.062510
4.410000	32.062510
4.420000	32.062510
4.430000	32.062510
4.440000	32.062510
4.450000	32.062510
4.460000	32.062510
4.470000	32.062510
4.480000	32.062510
4.490000	32.062510
4.500000	32.791287
4.510000	32.791287
4.520000	32.791287
4.530000	32.791287
4.540000	32.791287
4.550000	32.791287
4.560000	32.791287
4.570000	32.791287
4.580000	32.791287
4.590000	32.791287
4.600000	32.791287
4.610000	32.791287
4.620000	32.791287
4.630000	32.791287
4.640000	32.791287
4.650000	32.791287
4.660000	32.791287
4.670000	32.791287
4.680000	32.791287
4.690000	32.791287
4.700000	32.791287
4.710000	32.791287
4.720000	32.791287
4.730000	32.791287
4.740000	32.791287
4.750000	32.791287
4.760000	32.791287
4.770000	32.791287
4.780000	32.791287
4.790000	32.791287
4.800000	32.791287
4.810000	32.791287
4.820000	32.791287
4.830000	32.791287
4.840000	32.791287
4.850000	32.791287
4.860000	32.791287
4.870000	32.791287
4.880000	32.791287
4.890000	32.791287
4.900000	32.791287
4.910000	32.791287
4.920000	32.791287
4.930000	32.791287
4.940000	32.791287
4.950000	32.791287
4.960000	32.791287
4.970000	32.791287
4.980000	32.791287
4.990000	32.791287
5.000000	33.298600
5.010000	33.298600
5.020000	33.298600
5.030000	33.298600
5.040000	33.298600
5.050000	33.298600
5.060000	33.298600
5.070000	33.298600
5.080000	33.298600
5.090000	33.298600
5.100000	33.298600
5.110000	33.298600
5.120000	33.298600
5.130000	33.298600
5.140000	33.298600
5.150000	33.298600
5.160000	33.298600
5.170000	33.298600
5.180000	33.298600
5.190000	33.298600
5.200000	33.298600
5.210000	33.298600
5.220000	33.298600
5.230000	33.298600
5.240000	33.298600
5.250000	33.298600
5.260000	33.298600
5.270000	33.298600
5.280000	33.298600
5.290000	33.298600
5.300000	33.298600
5.310000	33.298600
5.320000	33.298600
5.330000	33.298600
5.340000	33.298600
5.350000	33.298600
5.360000	33.298600
5.370000	33.298600
5.380000	33.298600
5.390000	33.298600
5.400000	33.298600
5.410000	33.298600
5.420000	33.298600
5.430000	33.298600
5.440000	33.298600
5.450000	33.298600
5.460000	33.298600
5.470000	33.298600
5.480000	33.298600
5.490000	33.298600
5.500000	33.637688
5.510000	33.637688
5.520000	33.637688
5.530000	33.637688
5.540000	33.637688
5.550000	33.637688
5.560000	33.637688
5.570000	33.637688
5.580000	33.637688
5.590000	33.637688
5.600000	33.637688
5.610000	33.637688
5.620000	33.637688
5.630000	33.637688
5.640000	33.637688
5.650000	33.637688
5.660000	33.637688
5.670000	33.637688
5.680000	33.637688
5.690000	33.637688
5.700000	33.637688
5.710000	33.637688
5.720000	33.637688
5.730000	33.637688
5.740000	33.637688
5.750000	33.637688
5.760000	33.637688
5.770000	33.637688
5.780000	33.637688
5.790000	33.637688
5.800000	33.637688
5.810000	33.637688
5.820000	33.637688
5.830000	33.637688
5.840000	33.637688
5.850000	33.637688
5.860000	33.637688
5.870000	33.637688
5.880000	33.637688
5.890000	33.637688
5.900000	33.637688
5.910000	33.637688
5.920000	33.637688
5.930000	33.637688
5.940000	33.637688
5.950000	33.637688
5.960000	33.637688
5.970000	33.637688
5.980000	33.637688
5.990000	33.637688
6.000000	33.849591
6.010000	33.849591
6.020000	33.849591
6.030000	33.849591
6.040000	33.849591
6.050000	33.849591
6.060000	33.849591
6.070000	33.849591
6.080000	33.849591
6.090000	33.849591
6.100000	33.849591
6.110000	33.849591
6.120000	33.849591
6.130000	33.849591
6.140000	33.849591
6.150000	33.849591
6.160000	33.849591
6.170000	33.849591
6.180000	33.849591
6.190000	33.849591
6.200000	33.849591
6.210000	33.849591
6.220000	33.849591
6.230000	33.849591
6.240000	33.849591
6.250000	33.849591
6.260000	33.849591
6.270000	33.849591
6.280000	33.849591
6.290000	33.849591
6.300000	33.849591
6.310000	33.849591
6.320000	33.849591
6.330000	33.849591
6.340000	33.849591
6.350000	33.849591
6.360000	33.849591
6.370000	33.849591
6.380000	33.849591
6.390000	33.849591
6.400000	33.849591
6.410000	33.849591
6.420000	33.849591
6.430000	33.849591
6.440000	33.849591
6.450000	33.849591
6.460000	33.849591
6.470000	33.849591
6.480000	33.849591
6.490000	33.849591
6.500000	33.966765
6.510000	33.966765
6.520000	33.966765
6.530000	33.966765
6.540000	33.966765
6.550000	33.966765
6.560000	33.966765
6.570000	33.966765
6.580000	33.966765
6.590000	33.966765
6.600000	33.966765
6.610000	33.966765
6.620000	33.966765
6.630000	33.966765
6.640000	33.966765
6.650000	33.966765
6.660000	33.966765
6.670000	33.966765
6.680000	33.966765
6.690000	33.966765
6.700000	33.966765
6.710000	33.966765
6.720000	33.966765
6.730000	33.966765
6.740000	33.966765
6.750000	33.966765
6.760000	33.966765
6.770000	33.966765
6.780000	33.966765
6.790000	33.966765
6.800000	33.966765
6.810000	33.966765
6.820000	33.966765
6.830000	33.966765
6.840000	33.966765
6.850000	33.966765
6.860000	33.966765
6.870000	33.966765
6.880000	33.966765
6.890000	33.966765
6.900000	33.966765
6.910000	33.966765
6.920000	33.966765
6.930000	33.966765
6.940000	33.966765
6.950000	33.966765
6.960000	33.966765
6.970000	33.966765
6.980000	33.966765
6.990000	33.966765
7.000000	34.011621
7.010000	34.011621
7.020000	34.011621
7.030000	34.011621
7.040000	34.011621
7.050000	34.011621
7.060000	34.011621
7.070000	34.011621
7.080000	34.011621
7.090000	34.011621
7.100000	34.011621
7.110000	34.011621
7.120000	34.011621
7.130000	34.011621
7.140000	34.011621
7.150000	34.011621
7.160000	34.011621
7.170000	34.011621
7.180000	34.011621
7.190000	34.011621
7.200000	34.011621
7.210000	34.011621
7.220000	34.011621
7.230000	34.011621
7.240000	34.011621
7.250000	34.011621
7.260000	34.011621
7.270000	34.011621
7.280000	34.011621
7.290000	34.011621
7.300000	34.011621
7.310000	34.011621
7.320000	34.011621
7.330000	34.011621
7.340000	34.011621
7.350000	34.011621
7.360000	34.011621
7.370000	34.011621
7.380000	34.011621
7.390000	34.011621
7.400000	34.011621
7.410000	34.011621
7.420000	34.011621
7.430000	34.011621
7.440000	34.011621
7.450000	34.011621
7.460000	34.011621
7.470000	34.011621
7.480000	34.011621
7.490000	34.011621
7.500000	33.996267
7.510000	33.996267
7.520000	33.996267
7.530000	33.996267
7.540000	33.996267
7.550000	33.996267
7.560000	33.996267
7.570000	33.996267
7.580000	33.996267
7.590000	33.996267
7.600000	33.996267
7.610000	33.996267
7.620000	33.996267
7.630000	33.996267
7.640000	33.996267
7.650000	33.996267
7.660000	33.996267
7.670000	33.996267
7.680000	33.996267
7.690000	33.996267
7.700000	33.996267
7.710000	33.996267
7.720000	33.996267
7.730000	33.996267
7.740000	33.996267
7.750000	33.996267
7.760000	33.996267
7.770000	33.996267
7.780000	33.996267
7.790000	33.996267
7.800000	33.996267
7.810000	33.996267
7.820000	33.996267
7.830000	33.996267
7.840000	33.996267
7.850000	33.996267
7.860000	33.996267
7.870000	33.996267
7.880000	33.996267
7.890000	33.996267
7.900000	33.996267
7.910000	33.996267
7.920000	33.996267
7.930000	33.996267
7.940000	33.996267
7.950000	33.996267
7.960000	33.996267
7.970000	33.996267
7.980000	33.996267
7.990000	33.996267
8.000000	33.938270
8.010000	33.938270
8.020000	33.938270
8.030000	33.938270
8.040000	33.938270
8.050000	33.938270
8.060000	33.938270
8.070000	33.938270
8.080000	33.938270
8.090000	33.938270
8.100000	33.938270
8.110000	33.938270
8.120000	33.938270
8.130000	33.938270
8.140000	33.938270
8.150000	33.938270
8.160000	33.938270
8.170000	33.938270
8.180000	33.938270
8.190000	33.938270
8.200000	33.938270
8.210000	33.938270
8.220000	33.938270
8.230000	33.938270
8.240000	33.938270
8.250000	33.938270
8.260000	33.938270
8.270000	33.938270
8.280000	33.938270
8.290000	33.938270
8.300000	33.938270
8.310000	33.938270
8.320000	33.938270
8.330000	33.938270
8.340000	33.938270
8.350000	33.938270
8.360000	33.938270
8.370000	33.938270
8.380000	33.938270
8.390000	33.938270
8.400000	33.938270
8.410000	33.938270
8.420000	33.938270
8.430000	33.938270
8.440000	33.938270
8.450000	33.938270
8.460000	33.938270
8.470000	33.938270
8.480000	33.938270
8.490000	33.938270
8.500000	33.848630
8.510000	33.848630
8.520000	33.848630
8.530000	33.848630
8.540000	33.848630
8.550000	33.848630
8.560000	33.848630
8.570000	33.848630
8.580000	33.848630
8.590000	33.848630
8.600000	33.848630
8.610000	33.848630
8.620000	33.848630
8.630000	33.848630
8.640000	33.848630
8.650000	33.848630
8.660000	33.848630
8.670000	33.848630
8.680000	33.848630
8.690000	33.848630
8.700000	33.848630
8.710000	33.848630
8.720000	33.848630
8.730000	33.848630
8.740000	33.848630
8.750000	33.848630
8.760000	33.848630
8.770000	33.848630
8.780000	33.848630
8.790000	33.848630
8.800000	33.848630
8.810000	33.848630
8.820000	33.848630
8.830000	33.848630
8.840000	33.848630
8.850000	33.848630
8.860000	33.848630
8.870000	33.848630
8.880000	33.848630
8.890000	33.848630
8.900000	33.848630
8.910000	33.848630
8.920000	33.848630
8.930000	33.848630
8.940000	33.848630
8.950000	33.848630
8.960000	33.848630
8.970000	33.848630
8.980000	33.848630
8.990000	33.848630
9.000000	33.739460
9.010000	33.739460
9.020000	33.739460
9.030000	33.739460
9.040000	33.739460
9.050000	33.739460
9.060000	33.739460
9.070000	33.739460
9.080000	33.739460
9.090000	33.739460
9.100000	33.739460
9.110000	33.739460
9.120000	33.739460
9.130000	33.739460
9.140000	33.739460
9.150000	33.739460
9.160000	33.739460
9.170000	33.739460
9.180000	33.739460
9.190000	33.739460
9.200000	33.739460
9.210000	33.739460
9.220000	33.739460
9.230000	33.739460
9.240000	33.739460
9.250000	33.739460
9.260000	33.739460
9.270000	33.739460
9.280000	33.739460
9.290000	33.739460
9.300000	33.739460
9.310000	33.739460
9.320000	33.739460
9.330000	33.739460
9.340000	33.739460
9.350000	33.739460
9.360000	33.739460
9.370000	33.739460
9.380000	33.739460
9.390000	33.739460
9.400000	33.739460
9.410000	33.739460
9.420000	33.739460
9.430000	33.739460
9.440000	33.739460
9.450000	33.739460
9.460000	33.739460
9.470000	33.739460
9.480000	33.739460
9.490000	33.739460
9.500000	33.613171
9.510000	33.613171
9.520000	33.613171
9.530000	33.613171
9.540000	33.613171
9.550000	33.613171
9.560000	33.613171
9.570000	33.613171
9.580000	33.613171
9.590000	33.613171
9.600000	33.613171
9.610000	33.613171
9.620000	33.613171
9.630000	33.613171
9.640000	33.613171
9.650000	33.613171
9.660000	33.613171
9.670000	33.613171
9.680000	33.613171
9.690000	33.613171
9.700000	33.613171
9.710000	33.613171
9.720000	33.613171
9.730000	33.613171
9.740000	33.613171
9.750000	33.613171
9.760000	33.613171
9.770000	33.613171
9.780000	33.613171
9.790000	33.613171
9.800000	33.613171
9.810000	33.613171
9.820000	33.613171
9.830000	33.613171
9.840000	33.613171
9.850000	33.613171
9.860000	33.613171
9.870000	33.613171
9.880000	33.613171
9.890000	33.613171
9.900000	33.613171
9.910000	33.613171
9.920000	33.613171
9.930000	33.613171
9.940000	33.613171
9.950000	33.613171
9.960000	33.613171
9.970000	33.613171
9.980000	33.613171
9.990000	33.613171
10.000000	33.472435
10.010000	33.472435
10.020000	33.472435
10.030000	33.472435
10.040000	33.472435
10.050000	33.472435
10.060000	33.472435
10.070000	33.472435
10.080000	33.472435
10.090000	33.472435
10.100000	33.472435
10.110000	33.472435
10.120000	33.472435
10.130000	33.472435
10.140000	33.472435
10.150000	33.472435
10.160000	33.472435
10.170000	33.472435
10.180000	33.472435
10.190000	33.472435
10.200000	33.472435
10.210000	33.472435
10.220000	33.472435
10.230000	33.472435
10.240000	33.472435
10.250000	33.472435
10.260000	33.472435
10.270000	33.472435
10.280000	33.472435
10.290000	33.472435
10.300000	33.472435
10.310000	33.472435
10.320000	33.472435
10.330000	33.472435
10.340000	33.472435
10.350000	33.472435
10.360000	33.472435
10.370000	33.472435
10.380000	33.472435
10.390000	33.472435
10.400000	33.472435
10.410000	33.472435
10.420000	33.472435
10.430000	33.472435
10.440000	33.472435
10.450000	33.472435
10.460000	33.472435
10.470000	33.472435
10.480000	33.472435
10.490000	33.472435
10.500000	33.320433
10.510000	33.320433
10.520000	33.320433
10.530000	33.320433
10.540000	33.320433
10.550000	33.320433
10.560000	33.320433
10.570000	33.320433
10.580000	33.320433
10.590000	33.320433
10.600000	33.320433
10.610000	33.320433
10.620000	33.320433
10.630000	33.320433
10.640000	33.320433
10.650000	33.320433
10.660000	33.320433
10.670000	33.320433
10.680000	33.320433
10.690000	33.320433
10.700000	33.320433
10.710000	33.320433
10.720000	33.320433
10.730000	33.320433
10.740000	33.320433
10.750000	33.320433
10.760000	33.320433
10.770000	33.320433
10.780000	33.320433
10.790000	33.320433
10.800000	33.320433
10.810000	33.320433
10.820000	33.320433
10.830000	33.320433
10.840000	33.320433
10.850000	33.320433
10.860000	33.320433
10.870000	33.320433
10.880000	33.320433
10.890000	33.320433
10.900000	33.320433
10.910000	33.320433
10.920000	33.320433
10.930000	33.320433
10.940000	33.320433
10.950000	33.320433
10.960000	33.320433
10.970000	33.320433
10.980000	33.320433
10.990000	33.320433
11.000000	33.163386
11.010000	33.163386
11.020000	33.163386
11.030000	33.163386
11.040000	33.163386
11.050000	33.163386
11.060000	33.163386
11.070000	33.163386
11.080000	33.163386
11.090000	33.163386
11.100000	33.163386
11.110000	33.163386
11.120000	33.163386
11.130000	33.163386
11.140000	33.163386
11.150000	33.163386
11.160000	33.163386
11.170000	33.163386
11.180000	33.163386
11.190000	33.163386
11.200000	33.163386
11.210000	33.163386
11.220000	33.163386
11.230000	33.163386
11.240000	33.163386
11.250000	33.163386
11.260000	33.163386
11.270000	33.163386
11.280000	33.163386
11.290000	33.163386
11.300000	33.163386
11.310000	33.163386
11.320000	33.163386
11.330000	33.163386
11.340000	33.163386
11.350000	33.163386
11.360000	33.163386
11.370000	33.163386
11.380000	33.163386
11.390000	33.163386
11.400000	33.163386
11.410000	33.163386
11.420000	33.163386
11.430000	33.163386
11.440000	33.163386
11.450000	33.163386
11.460000	33.163386
11.470000	33.163386
11.480000	33.163386
11.490000	33.163386
11.500000	33.002243
11.510000	33.002243
11.520000	33.002243
11.530000	33.002243
11.540000	33.002243
11.550000	33.002243
11.560000	33.002243
11.570000	33.002243
11.580000	33.002243
11.590000	33.002243
11.600000	33.002243
11.610000	33.002243
11.620000	33.002243
11.630000	33.002243
11.640000	33.002243
11.650000	33.002243
11.660000	33.002243
11.670000	33.002243
11.680000	33.002243
11.690000	33.002243
11.700000	33.002243
11.710000	33.002243
11.720000	33.002243
11.730000	33.002243
11.740000	33.002243
11.750000	33.002243
11.760000	33.002243
11.770000	33.002243
11.780000	33.002243
11.790000	33.002243
11.800000	33.002243
11.810000	33.002243
11.820000	33.002243
11.830000	33.002243
11.840000	33.002243
11.850000	33.002243
11.860000	33.002243
11.870000	33.002243
11.880000	33.002243
11.890000	33.002243
11.900000	33.002243
11.910000	33.002243
11.920000	33.002243
11.930000	33.002243
11.940000	33.002243
11.950000	33.002243
11.960000	33.002243
11.970000	33.002243
11.980000	33.002243
11.990000	33.002243
12.000000	32.839481
12.010000	32.839481
12.020000	32.839481
12.030000	32.839481
12.040000	32.839481
12.050000	32.839481
12.060000	32.839481
12.070000	32.839481
12.080000	32.839481
12.090000	32.839481
12.100000	32.839481
12.110000	32.839481
12.120000	32.839481
12.130000	32.839481
12.140000	32.839481
12.150000	32.839481
12.160000	32.839481
12.170000	32.839481
12.180000	32.839481
12.190000	32.839481
12.200000	32.839481
12.210000	32.839481
12.220000	32.839481
12.230000	32.839481
12.240000	32.839481
12.250000	32.839481
12.260000	32.839481
12.270000	32.839481
12.280000	32.839481
12.290000	32.839481
12.300000	32.839481
12.310000	32.839481
12.320000	32.839481
12.330000	32.839481
12.340000	32.839481
12.350000	32.839481
12.360000	32.839481
12.370000	32.839481
12.380000	32.839481
12.390000	32.839481
12.400000	32.839481
12.410000	32.839481
12.420000	32.839481
12.430000	32.839481
12.440000	32.839481
12.450000	32.839481
12.460000	32.839481
12.470000	32.839481
12.480000	32.839481
12.490000	32.839481
12.500000	32.679537
12.510000	32.679537
12.520000	32.679537
12.530000	32.679537
12.540000	32.679537
12.550000	32.679537
12.560000	32.679537
12.570000	32.679537
12.580000	32.679537
12.590000	32.679537
12.600000	32.679537
12.610000	32.679537
12.620000	32.679537
12.630000	32.679537
12.640000	32.679537
12.650000	32.679537
12.660000	32.679537
12.670000	32.679537
12.680000	32.679537
12.690000	32.679537
12.700000	32.679537
12.710000	32.679537
12.720000	32.679537
12.730000	32.679537
12.740000	32.679537
12.750000	32.679537
12.760000	32.679537
12.770000	32.679537
12.780000	32.679537
12.790000	32.679537
12.800000	32.679537
12.810000	32.679537
12.820000	32.679537
12.830000	32.679537
12.840000	32.679537
12.850000	32.679537
12.860000	32.679537
12.870000	32.679537
12.880000	32.679537
12.890000	32.679537
12.900000	32.679537
12.910000	32.679537
12.920000	32.679537
12.930000	32.679537
12.940000	32.679537
12.950000	32.679537
12.960000	32.679537
12.970000	32.679537
12.980000	32.679537
12.990000	32.679537
13.000000	32.522527
13.010000	32.522527
13.020000	32.522527
13.030000	32.522527
13.040000	32.522527
13.050000	32.522527
13.060000	32.522527
13.070000	32.522527
13.080000	32.522527
13.090000	32.522527
13.100000	32.522527
13.110000	32.522527
13.120000	32.522527
13.130000	32.522527
13.140000	32.522527
13.150000	32.522527
13.160000	32.522527
13.170000	32.522527
13.180000	32.522527
13.190000	32.522527
13.200000	32.522527
13.210000	32.522527
13.220000	32.522527
13.230000	32.522527
13.240000	32.522527
13.250000	32.522527
13.260000	32.522527
13.270000	32.522527
13.280000	32.522527
13.290000	32.522527
13.300000	32.522527
13.310000	32.522527
13.320000	32.522527
13.330000	32.522527
13.340000	32.522527
13.350000	32.522527
13.360000	32.522527
13.370000	32.522527
13.380000	32.522527
13.390000	32.522527
13.400000	32.522527
13.410000	32.522527
13.420000	32.522527
13.430000	32.522527
13.440000	32.522527
13.450000	32.522527
13.460000	32.522527
13.470000	32.522527
13.480000	32.522527
13.490000	32.522527
13.500000	32.366240
13.510000	32.366240
13.520000	32.366240
13.530000	32.366240
13.540000	32.366240
13.550000	32.366240
13.560000	32.366240
13.570000	32.366240
13.580000	32.366240
13.590000	32.366240
13.600000	32.366240
13.610000	32.366240
13.620000	32.366240
13.630000	32.366240
13.640000	32.366240
13.650000	32.366240
13.660000	32.366240
13.670000	32.366240
13.680000	32.366240
13.690000	32.366240
13.700000	32.366240
13.710000	32.366240
13.720000	32.366240
13.730000	32.366240
13.740000	32.366240
13.750000	32.366240
13.760000	32.366240
13.770000	32.366240
13.780000	32.366240
13.790000	32.366240
13.800000	32.366240
13.810000	32.366240
13.820000	32.366240
13.830000	32.366240
13.840000	32.366240
13.850000	32.366240
13.860000	32.366240
13.870000	32.366240
13.880000	32.366240
13.890000	32.366240
13.900000	32.366240
13.910000	32.366240
13.920000	32.366240
13.930000	32.366240
13.940000	32.366240
13.950000	32.366240
13.960000	32.366240
13.970000	32.366240
13.980000	32.366240
13.990000	32.366240
14.000000	32.212226
14.010000	32.212226
14.020000	32.212226
14.030000	32.212226
14.040000	32.212226
14.050000	32.212226
14.060000	32.212226
14.070000	32.212226
14.080000	32.212226
14.090000	32.212226
14.100000	32.212226
14.110000	32.212226
14.120000	32.212226
14.130000	32.212226
14.140000	32.212226
14.150000	32.212226
14.160000	32.212226
14.170000	32.212226
14.180000	32.212226
14.190000	32.212226
14.200000	32.212226
14.210000	32.212226
14.220000	32.212226
14.230000	32.212226
14.240000	32.212226
14.250000	32.212226
14.260000	32.212226
14.270000	32.212226
14.280000	32.212226
14.290000	32.212226
14.300000	32.212226
14.310000	32.212226
14.320000	32.212226
14.330000	32.212226
14.340000	32.212226
14.350000	32.212226
14.360000	32.212226
14.370000	32.212226
14.380000	32.212226
14.390000	32.212226
14.400000	32.212226
14.410000	32.212226
14.420000	32.212226
14.430000	32.212226
14.440000	32.212226
14.450000	32.212226
14.460000	32.212226
14.470000	32.212226
14.480000	32.212226
14.490000	32.212226
14.500000	32.061880
14.510000	32.061880
14.520000	32.061880
14.530000	32.061880
14.540000	32.061880
14.550000	32.061880
14.560000	32.061880
14.570000	32.061880
14.580000	32.061880
14.590000	32.061880
14.600000	32.061880
14.610000	32.061880
14.620000	32.061880
14.630000	32.061880
14.640000	32.061880
14.650000	32.061880
14.660000	32.061880
14.670000	32.061880
14.680000	32.061880
14.690000	32.061880
14.700000	32.061880
14.710000	32.061880
14.720000	32.061880
14.730000	32.061880
14.740000	32.061880
14.750000	32.061880
14.760000	32.061880
14.770000	32.061880
14.780000	32.061880
14.790000	32.061880
14.800000	32.061880
14.810000	32.061880
14.820000	32.061880
14.830000	32.061880
14.840000	32.061880
14.850000	32.061880
14.860000	32.061880
14.870000	32.061880
14.880000	32.061880
14.890000	32.061880
14.900000	32.061880
14.910000	32.061880
14.920000	32.061880
14.930000	32.061880
14.940000	32.061880
14.950000	32.061880
14.960000	32.061880
14.970000	32.061880
14.980000	32.061880
14.990000	32.061880
15.000000	31.911352
15.010000	31.911352
15.020000	31.911352
15.030000	31.911352
15.040000	31.911352
15.050000	31.911352
15.060000	31.911352
15.070000	31.911352
15.080000	31.911352
15.090000	31.911352
15.100000	31.911352
15.110000	31.911352
15.120000	31.911352
15.130000	31.911352
15.140000	31.911352
15.150000	31.911352
15.160000	31.911352
15.170000	31.911352
15.180000	31.911352
15.190000	31.911352
15.200000	31.911352
15.210000	31.911352
15.220000	31.911352
15.230000	31.911352
15.240000	31.911352
15.250000	31.911352
15.260000	31.911352
15.270000	31.911352
15.280000	31.911352
15.290000	31.911352
15.300000	31.911352
15.310000	31.911352
15.320000	31.911352
15.330000	31.911352
15.340000	31.911352
15.350000	31.911352
15.360000	31.911352
15.370000	31.911352
15.380000	31.911352
15.390000	31.911352
15.400000	31.911352
15.410000	31.911352
15.420000	31.911352
15.430000	31.911352
15.440000	31.911352
15.450000	31.911352
15.460000	31.911352
15.470000	31.911352
15.480000	31.911352
15.490000	31.911352
15.500000	31.765544
15.510000	31.765544
15.520000	31.765544
15.530000	31.765544
15.540000	31.765544
15.550000	31.765544
15.560000	31.765544
15.570000	31.765544
15.580000	31.765544
15.590000	31.765544
15.600000	31.765544
15.610000	31.765544
15.620000	31.765544
15.630000	31.765544
15.640000	31.765544
15.650000	31.765544
15.660000	31.765544
15.670000	31.765544
15.680000	31.765544
15.690000	31.765544
15.700000	31.765544
15.710000	31.765544
15.720000	31.765544
15.730000	31.765544
15.740000	31.765544
15.750000	31.765544
15.760000	31.765544
15.770000	31.765544
15.780000	31.765544
15.790000	31.765544
15.800000	31.765544
15.810000	31.765544
15.820000	31.765544
15.830000	31.765544
15.840000	31.765544
15.850000	31.765544
15.860000	31.765544
15.870000	31.765544
15.880000	31.765544
15.890000	31.765544
15.900000	31.765544
15.910000	31.765544
15.920000	31.765544
15.930000	31.765544
15.940000	31.765544
15.950000	31.765544
15.960000	31.765544
15.970000	31.765544
15.980000	31.765544
15.990000	31.765544
16.000000	31.627008
16.010000	31.627008
16.020000	31.627008
16.030000	31.627008
16.040000	31.627008
16.050000	31.627008
16.060000	31.627008
16.070000	31.627008
16.080000	31.627008
16.090000	31.627008
16.100000	31.627008
16.110000	31.627008
16.120000	31.627008
16.130000	31.627008
16.140000	31.627008
16.150000	31.627008
16.160000	31.627008
16.170000	31.627008
16.180000	31.627008
16.190000	31.627008
16.200000	31.627008
16.210000	31.627008
16.220000	31.627008
16.230000	31.627008
16.240000	31.627008
16.250000	31.627008
16.260000	31.627008
16.270000	31.627008
16.280000	31.627008
16.290000	31.627008
16.300000	31.627008
16.310000	31.627008
16.320000	31.627008
16.330000	31.627008
16.340000	31.627008
16.350000	31.627008
16.360000	31.627008
16.370000	31.627008
16.380000	31.627008
16.390000	31.627008
16.400000	31.627008
16.410000	31.627008
16.420000	31.627008
16.430000	31.627008
16.440000	31.627008
16.450000	31.627008
16.460000	31.627008
16.470000	31.627008
16.480000	31.627008
16.490000	31.627008
16.500000	31.488291
16.510000	31.488291
16.520000	31.488291
16.530000	31.488291
16.540000	31.488291
16.550000	31.488291
16.560000	31.488291
16.570000	31.488291
16.580000	31.488291
16.590000	31.488291
16.600000	31.488291
16.610000	31.488291
16.620000	31.488291
16.630000	31.488291
16.640000	31.488291
16.650000	31.488291
16.660000	31.488291
16.670000	31.488291
16.680000	31.488291
16.690000	31.488291
16.700000	31.488291
16.710000	31.488291
16.720000	31.488291
16.730000	31.488291
16.740000	31.488291
16.750000	31.488291
16.760000	31.488291
16.770000	31.488291
16.780000	31.488291
16.790000	31.488291
16.800000	31.488291
16.810000	31.488291
16.820000	31.488291
16.830000	31.488291
16.840000	31.488291
16.850000	31.488291
16.860000	31.488291
16.870000	31.488291
16.880000	31.488291
16.890000	31.488291
16.900000	31.488291
16.910000	31.488291
16.920000	31.488291
16.930000	31.488291
16.940000	31.488291
16.950000	31.488291
16.960000	31.488291
16.970000	31.488291
16.980000	31.488291
16.990000	31.488291
17.000000	31.352778
17.010000	31.352778
17.020000	31.352778
17.030000	31.352778
17.040000	31.352778
17.050000	31.352778
17.060000	31.352778
17.070000	31.352778
17.080000	31.352778
17.090000	31.352778
17.100000	31.352778
17.110000	31.352778
17.120000	31.352778
17.130000	31.352778
17.140000	31.352778
17.150000	31.352778
17.160000	31.352778
17.170000	31.352778
17.180000	31.352778
17.190000	31.352778
17.200000	31.352778
17.210000	31.352778
17.220000	31.352778
17.230000	31.352778
17.240000	31.352778
17.250000	31.352778
17.260000	31.352778
17.270000	31.352778
17.280000	31.352778
17.290000	31.352778
17.300000	31.352778
17.310000	31.352778
17.320000	31.352778
17.330000	31.352778
17.340000	31.352778
17.350000	31.352778
17.360000	31.352778
17.370000	31.352778
17.380000	31.352778
17.390000	31.352778
17.400000	31.352778
17.410000	31.352778
17.420000	31.352778
17.430000	31.352778
17.440000	31.352778
17.450000	31.352778
17.460000	31.352778
17.470000	31.352778
17.480000	31.352778
17.490000	31.352778
17.500000	31.221718
17.510000	31.221718
17.520000	31.221718
17.530000	31.221718
17.540000	31.221718
17.550000	31.221718
17.560000	31.221718
17.570000	31.221718
17.580000	31.221718
17.590000	31.221718
17.600000	31.221718
17.610000	31.221718
17.620000	31.221718
17.630000	31.221718
17.640000	31.221718
17.650000	31.221718
17.660000	31.221718
17.670000	31.221718
17.680000	31.221718
17.690000	31.221718
