LabVIEW Measurement	
Writer_Version	2
Reader_Version	2
Separator	Tab
Decimal_Separator	.
Multi_Headings	No
X_Columns	One
Time_Pref	Absolute
Operator	biomech-dyno
Date	2023/05/24
Time	16:48:16.3068024999997945361
***End_of_Header***	
	
Channels	1	
Samples	10	
Date	2023/05/24	
Time	16:51:48.1364471999998827451	
X_Dimension	Time	
X0	0.0000000000000000E+0	
Delta_X	0.010000	
***End_of_Header***		
X_Value	Untitled	Comment
0.000000	24.909872
0.010000	24.909872
0.020000	24.909872
0.030000	24.909872
0.040000	24.909872
0.050000	24.909872
0.060000	24.909872
0.070000	24.909872
0.080000	24.909872
0.090000	24.909872
0.100000	24.909872
0.110000	24.909872
0.120000	24.909872
0.130000	24.909872
0.140000	24.909872
0.150000	24.909872
0.160000	24.909872
0.170000	24.909872
0.180000	24.909872
0.190000	24.909872
0.200000	24.909872
0.210000	24.909872
0.220000	24.909872
0.230000	24.909872
0.240000	24.909872
0.250000	24.909872
0.260000	24.909872
0.270000	24.909872
0.280000	24.909872
0.290000	24.909872
0.300000	24.909872
0.310000	24.909872
0.320000	24.909872
0.330000	24.909872
0.340000	24.909872
0.350000	24.909872
0.360000	24.909872
0.370000	24.909872
0.380000	24.909872
0.390000	24.909872
0.400000	24.909872
0.410000	24.909872
0.420000	24.909872
0.430000	24.909872
0.440000	24.909872
0.450000	24.909872
0.460000	24.909872
0.470000	24.909872
0.480000	24.909872
0.490000	24.909872
0.500000	24.925807
0.510000	24.925807
0.520000	24.925807
0.530000	24.925807
0.540000	24.925807
0.550000	24.925807
0.560000	24.925807
0.570000	24.925807
0.580000	24.925807
0.590000	24.925807
0.600000	24.925807
0.610000	24.925807
0.620000	24.925807
0.630000	24.925807
0.640000	24.925807
0.650000	24.925807
0.660000	24.925807
0.670000	24.925807
0.680000	24.925807
0.690000	24.925807
0.700000	24.925807
0.710000	24.925807
0.720000	24.925807
0.730000	24.925807
0.740000	24.925807
0.750000	24.925807
0.760000	24.925807
0.770000	24.925807
0.780000	24.925807
0.790000	24.925807
0.800000	24.925807
0.810000	24.925807
0.820000	24.925807
0.830000	24.925807
0.840000	24.925807
0.850000	24.925807
0.860000	24.925807
0.870000	24.925807
0.880000	24.925807
0.890000	24.925807
0.900000	24.925807
0.910000	24.925807
0.920000	24.925807
0.930000	24.925807
0.940000	24.925807
0.950000	24.925807
0.960000	24.925807
0.970000	24.925807
0.980000	24.925807
0.990000	24.925807
1.000000	25.058614
1.010000	25.058614
1.020000	25.058614
1.030000	25.058614
1.040000	25.058614
1.050000	25.058614
1.060000	25.058614
1.070000	25.058614
1.080000	25.058614
1.090000	25.058614
1.100000	25.058614
1.110000	25.058614
1.120000	25.058614
1.130000	25.058614
1.140000	25.058614
1.150000	25.058614
1.160000	25.058614
1.170000	25.058614
1.180000	25.058614
1.190000	25.058614
1.200000	25.058614
1.210000	25.058614
1.220000	25.058614
1.230000	25.058614
1.240000	25.058614
1.250000	25.058614
1.260000	25.058614
1.270000	25.058614
1.280000	25.058614
1.290000	25.058614
1.300000	25.058614
1.310000	25.058614
1.320000	25.058614
1.330000	25.058614
1.340000	25.058614
1.350000	25.058614
1.360000	25.058614
1.370000	25.058614
1.380000	25.058614
1.390000	25.058614
1.400000	25.058614
1.410000	25.058614
1.420000	25.058614
1.430000	25.058614
1.440000	25.058614
1.450000	25.058614
1.460000	25.058614
1.470000	25.058614
1.480000	25.058614
1.490000	25.058614
1.500000	25.366464
1.510000	25.366464
1.520000	25.366464
1.530000	25.366464
1.540000	25.366464
1.550000	25.366464
1.560000	25.366464
1.570000	25.366464
1.580000	25.366464
1.590000	25.366464
1.600000	25.366464
1.610000	25.366464
1.620000	25.366464
1.630000	25.366464
1.640000	25.366464
1.650000	25.366464
1.660000	25.366464
1.670000	25.366464
1.680000	25.366464
1.690000	25.366464
1.700000	25.366464
1.710000	25.366464
1.720000	25.366464
1.730000	25.366464
1.740000	25.366464
1.750000	25.366464
1.760000	25.366464
1.770000	25.366464
1.780000	25.366464
1.790000	25.366464
1.800000	25.366464
1.810000	25.366464
1.820000	25.366464
1.830000	25.366464
1.840000	25.366464
1.850000	25.366464
1.860000	25.366464
1.870000	25.366464
1.880000	25.366464
1.890000	25.366464
1.900000	25.366464
1.910000	25.366464
1.920000	25.366464
1.930000	25.366464
1.940000	25.366464
1.950000	25.366464
1.960000	25.366464
1.970000	25.366464
1.980000	25.366464
1.990000	25.366464
2.000000	25.813700
2.010000	25.813700
2.020000	25.813700
2.030000	25.813700
2.040000	25.813700
2.050000	25.813700
2.060000	25.813700
2.070000	25.813700
2.080000	25.813700
2.090000	25.813700
2.100000	25.813700
2.110000	25.813700
2.120000	25.813700
2.130000	25.813700
2.140000	25.813700
2.150000	25.813700
2.160000	25.813700
2.170000	25.813700
2.180000	25.813700
2.190000	25.813700
2.200000	25.813700
2.210000	25.813700
2.220000	25.813700
2.230000	25.813700
2.240000	25.813700
2.250000	25.813700
2.260000	25.813700
2.270000	25.813700
2.280000	25.813700
2.290000	25.813700
2.300000	25.813700
2.310000	25.813700
2.320000	25.813700
2.330000	25.813700
2.340000	25.813700
2.350000	25.813700
2.360000	25.813700
2.370000	25.813700
2.380000	25.813700
2.390000	25.813700
2.400000	25.813700
2.410000	25.813700
2.420000	25.813700
2.430000	25.813700
2.440000	25.813700
2.450000	25.813700
2.460000	25.813700
2.470000	25.813700
2.480000	25.813700
2.490000	25.813700
2.500000	26.368626
2.510000	26.368626
2.520000	26.368626
2.530000	26.368626
2.540000	26.368626
2.550000	26.368626
2.560000	26.368626
2.570000	26.368626
2.580000	26.368626
2.590000	26.368626
2.600000	26.368626
2.610000	26.368626
2.620000	26.368626
2.630000	26.368626
2.640000	26.368626
2.650000	26.368626
2.660000	26.368626
2.670000	26.368626
2.680000	26.368626
2.690000	26.368626
2.700000	26.368626
2.710000	26.368626
2.720000	26.368626
2.730000	26.368626
2.740000	26.368626
2.750000	26.368626
2.760000	26.368626
2.770000	26.368626
2.780000	26.368626
2.790000	26.368626
2.800000	26.368626
2.810000	26.368626
2.820000	26.368626
2.830000	26.368626
2.840000	26.368626
2.850000	26.368626
2.860000	26.368626
2.870000	26.368626
2.880000	26.368626
2.890000	26.368626
2.900000	26.368626
2.910000	26.368626
2.920000	26.368626
2.930000	26.368626
2.940000	26.368626
2.950000	26.368626
2.960000	26.368626
2.970000	26.368626
2.980000	26.368626
2.990000	26.368626
3.000000	26.986967
3.010000	26.986967
3.020000	26.986967
3.030000	26.986967
3.040000	26.986967
3.050000	26.986967
3.060000	26.986967
3.070000	26.986967
3.080000	26.986967
3.090000	26.986967
3.100000	26.986967
3.110000	26.986967
3.120000	26.986967
3.130000	26.986967
3.140000	26.986967
3.150000	26.986967
3.160000	26.986967
3.170000	26.986967
3.180000	26.986967
3.190000	26.986967
3.200000	26.986967
3.210000	26.986967
3.220000	26.986967
3.230000	26.986967
3.240000	26.986967
3.250000	26.986967
3.260000	26.986967
3.270000	26.986967
3.280000	26.986967
3.290000	26.986967
3.300000	26.986967
3.310000	26.986967
3.320000	26.986967
3.330000	26.986967
3.340000	26.986967
3.350000	26.986967
3.360000	26.986967
3.370000	26.986967
3.380000	26.986967
3.390000	26.986967
3.400000	26.986967
3.410000	26.986967
3.420000	26.986967
3.430000	26.986967
3.440000	26.986967
3.450000	26.986967
3.460000	26.986967
3.470000	26.986967
3.480000	26.986967
3.490000	26.986967
3.500000	27.539176
3.510000	27.539176
3.520000	27.539176
3.530000	27.539176
3.540000	27.539176
3.550000	27.539176
3.560000	27.539176
3.570000	27.539176
3.580000	27.539176
3.590000	27.539176
3.600000	27.539176
3.610000	27.539176
3.620000	27.539176
3.630000	27.539176
3.640000	27.539176
3.650000	27.539176
3.660000	27.539176
3.670000	27.539176
3.680000	27.539176
3.690000	27.539176
3.700000	27.539176
3.710000	27.539176
3.720000	27.539176
3.730000	27.539176
3.740000	27.539176
3.750000	27.539176
3.760000	27.539176
3.770000	27.539176
3.780000	27.539176
3.790000	27.539176
3.800000	27.539176
3.810000	27.539176
3.820000	27.539176
3.830000	27.539176
3.840000	27.539176
3.850000	27.539176
3.860000	27.539176
3.870000	27.539176
3.880000	27.539176
3.890000	27.539176
3.900000	27.539176
3.910000	27.539176
3.920000	27.539176
3.930000	27.539176
3.940000	27.539176
3.950000	27.539176
3.960000	27.539176
3.970000	27.539176
3.980000	27.539176
3.990000	27.539176
4.000000	27.945882
4.010000	27.945882
4.020000	27.945882
4.030000	27.945882
4.040000	27.945882
4.050000	27.945882
4.060000	27.945882
4.070000	27.945882
4.080000	27.945882
4.090000	27.945882
4.100000	27.945882
4.110000	27.945882
4.120000	27.945882
4.130000	27.945882
4.140000	27.945882
4.150000	27.945882
4.160000	27.945882
4.170000	27.945882
4.180000	27.945882
4.190000	27.945882
4.200000	27.945882
4.210000	27.945882
4.220000	27.945882
4.230000	27.945882
4.240000	27.945882
4.250000	27.945882
4.260000	27.945882
4.270000	27.945882
4.280000	27.945882
4.290000	27.945882
4.300000	27.945882
4.310000	27.945882
4.320000	27.945882
4.330000	27.945882
4.340000	27.945882
4.350000	27.945882
4.360000	27.945882
4.370000	27.945882
4.380000	27.945882
4.390000	27.945882
4.400000	27.945882
4.410000	27.945882
4.420000	27.945882
4.430000	27.945882
4.440000	27.945882
4.450000	27.945882
4.460000	27.945882
4.470000	27.945882
4.480000	27.945882
4.490000	27.945882
4.500000	28.239679
4.510000	28.239679
4.520000	28.239679
4.530000	28.239679
4.540000	28.239679
4.550000	28.239679
4.560000	28.239679
4.570000	28.239679
4.580000	28.239679
4.590000	28.239679
4.600000	28.239679
4.610000	28.239679
4.620000	28.239679
4.630000	28.239679
4.640000	28.239679
4.650000	28.239679
4.660000	28.239679
4.670000	28.239679
4.680000	28.239679
4.690000	28.239679
4.700000	28.239679
4.710000	28.239679
4.720000	28.239679
4.730000	28.239679
4.740000	28.239679
4.750000	28.239679
4.760000	28.239679
4.770000	28.239679
4.780000	28.239679
4.790000	28.239679
4.800000	28.239679
4.810000	28.239679
4.820000	28.239679
4.830000	28.239679
4.840000	28.239679
4.850000	28.239679
4.860000	28.239679
4.870000	28.239679
4.880000	28.239679
4.890000	28.239679
4.900000	28.239679
4.910000	28.239679
4.920000	28.239679
4.930000	28.239679
4.940000	28.239679
4.950000	28.239679
4.960000	28.239679
4.970000	28.239679
4.980000	28.239679
4.990000	28.239679
5.000000	28.447898
5.010000	28.447898
5.020000	28.447898
5.030000	28.447898
5.040000	28.447898
5.050000	28.447898
5.060000	28.447898
5.070000	28.447898
5.080000	28.447898
5.090000	28.447898
5.100000	28.447898
5.110000	28.447898
5.120000	28.447898
5.130000	28.447898
5.140000	28.447898
5.150000	28.447898
5.160000	28.447898
5.170000	28.447898
5.180000	28.447898
5.190000	28.447898
5.200000	28.447898
5.210000	28.447898
5.220000	28.447898
5.230000	28.447898
5.240000	28.447898
5.250000	28.447898
5.260000	28.447898
5.270000	28.447898
5.280000	28.447898
5.290000	28.447898
5.300000	28.447898
5.310000	28.447898
5.320000	28.447898
5.330000	28.447898
5.340000	28.447898
5.350000	28.447898
5.360000	28.447898
5.370000	28.447898
5.380000	28.447898
5.390000	28.447898
5.400000	28.447898
5.410000	28.447898
5.420000	28.447898
5.430000	28.447898
5.440000	28.447898
5.450000	28.447898
5.460000	28.447898
5.470000	28.447898
5.480000	28.447898
5.490000	28.447898
5.500000	28.587883
5.510000	28.587883
5.520000	28.587883
5.530000	28.587883
5.540000	28.587883
5.550000	28.587883
5.560000	28.587883
5.570000	28.587883
5.580000	28.587883
5.590000	28.587883
5.600000	28.587883
5.610000	28.587883
5.620000	28.587883
5.630000	28.587883
5.640000	28.587883
5.650000	28.587883
5.660000	28.587883
5.670000	28.587883
5.680000	28.587883
5.690000	28.587883
5.700000	28.587883
5.710000	28.587883
5.720000	28.587883
5.730000	28.587883
5.740000	28.587883
5.750000	28.587883
5.760000	28.587883
5.770000	28.587883
5.780000	28.587883
5.790000	28.587883
5.800000	28.587883
5.810000	28.587883
5.820000	28.587883
5.830000	28.587883
5.840000	28.587883
5.850000	28.587883
5.860000	28.587883
5.870000	28.587883
5.880000	28.587883
5.890000	28.587883
5.900000	28.587883
5.910000	28.587883
5.920000	28.587883
5.930000	28.587883
5.940000	28.587883
5.950000	28.587883
5.960000	28.587883
5.970000	28.587883
5.980000	28.587883
5.990000	28.587883
6.000000	28.676744
6.010000	28.676744
6.020000	28.676744
6.030000	28.676744
6.040000	28.676744
6.050000	28.676744
6.060000	28.676744
6.070000	28.676744
6.080000	28.676744
6.090000	28.676744
6.100000	28.676744
6.110000	28.676744
6.120000	28.676744
6.130000	28.676744
6.140000	28.676744
6.150000	28.676744
6.160000	28.676744
6.170000	28.676744
6.180000	28.676744
6.190000	28.676744
6.200000	28.676744
6.210000	28.676744
6.220000	28.676744
6.230000	28.676744
6.240000	28.676744
6.250000	28.676744
6.260000	28.676744
6.270000	28.676744
6.280000	28.676744
6.290000	28.676744
6.300000	28.676744
6.310000	28.676744
6.320000	28.676744
6.330000	28.676744
6.340000	28.676744
6.350000	28.676744
6.360000	28.676744
6.370000	28.676744
6.380000	28.676744
6.390000	28.676744
6.400000	28.676744
6.410000	28.676744
6.420000	28.676744
6.430000	28.676744
6.440000	28.676744
6.450000	28.676744
6.460000	28.676744
6.470000	28.676744
6.480000	28.676744
6.490000	28.676744
6.500000	28.725051
6.510000	28.725051
6.520000	28.725051
6.530000	28.725051
6.540000	28.725051
6.550000	28.725051
6.560000	28.725051
6.570000	28.725051
6.580000	28.725051
6.590000	28.725051
6.600000	28.725051
6.610000	28.725051
6.620000	28.725051
6.630000	28.725051
6.640000	28.725051
6.650000	28.725051
6.660000	28.725051
6.670000	28.725051
6.680000	28.725051
6.690000	28.725051
6.700000	28.725051
6.710000	28.725051
6.720000	28.725051
6.730000	28.725051
6.740000	28.725051
6.750000	28.725051
6.760000	28.725051
6.770000	28.725051
6.780000	28.725051
6.790000	28.725051
6.800000	28.725051
6.810000	28.725051
6.820000	28.725051
6.830000	28.725051
6.840000	28.725051
6.850000	28.725051
6.860000	28.725051
6.870000	28.725051
6.880000	28.725051
6.890000	28.725051
6.900000	28.725051
6.910000	28.725051
6.920000	28.725051
6.930000	28.725051
6.940000	28.725051
6.950000	28.725051
6.960000	28.725051
6.970000	28.725051
6.980000	28.725051
6.990000	28.725051
7.000000	28.744736
7.010000	28.744736
7.020000	28.744736
7.030000	28.744736
7.040000	28.744736
7.050000	28.744736
7.060000	28.744736
7.070000	28.744736
7.080000	28.744736
7.090000	28.744736
7.100000	28.744736
7.110000	28.744736
7.120000	28.744736
7.130000	28.744736
7.140000	28.744736
7.150000	28.744736
7.160000	28.744736
7.170000	28.744736
7.180000	28.744736
7.190000	28.744736
7.200000	28.744736
7.210000	28.744736
7.220000	28.744736
7.230000	28.744736
7.240000	28.744736
7.250000	28.744736
7.260000	28.744736
7.270000	28.744736
7.280000	28.744736
7.290000	28.744736
7.300000	28.744736
7.310000	28.744736
7.320000	28.744736
7.330000	28.744736
7.340000	28.744736
7.350000	28.744736
7.360000	28.744736
7.370000	28.744736
7.380000	28.744736
7.390000	28.744736
7.400000	28.744736
7.410000	28.744736
7.420000	28.744736
7.430000	28.744736
7.440000	28.744736
7.450000	28.744736
7.460000	28.744736
7.470000	28.744736
7.480000	28.744736
7.490000	28.744736
7.500000	28.740259
7.510000	28.740259
7.520000	28.740259
7.530000	28.740259
7.540000	28.740259
7.550000	28.740259
7.560000	28.740259
7.570000	28.740259
7.580000	28.740259
7.590000	28.740259
7.600000	28.740259
7.610000	28.740259
7.620000	28.740259
7.630000	28.740259
7.640000	28.740259
7.650000	28.740259
7.660000	28.740259
7.670000	28.740259
7.680000	28.740259
7.690000	28.740259
7.700000	28.740259
7.710000	28.740259
7.720000	28.740259
7.730000	28.740259
7.740000	28.740259
7.750000	28.740259
7.760000	28.740259
7.770000	28.740259
7.780000	28.740259
7.790000	28.740259
7.800000	28.740259
7.810000	28.740259
7.820000	28.740259
7.830000	28.740259
7.840000	28.740259
7.850000	28.740259
7.860000	28.740259
7.870000	28.740259
7.880000	28.740259
7.890000	28.740259
7.900000	28.740259
7.910000	28.740259
7.920000	28.740259
7.930000	28.740259
7.940000	28.740259
7.950000	28.740259
7.960000	28.740259
7.970000	28.740259
7.980000	28.740259
7.990000	28.740259
8.000000	28.719288
8.010000	28.719288
8.020000	28.719288
8.030000	28.719288
8.040000	28.719288
8.050000	28.719288
8.060000	28.719288
8.070000	28.719288
8.080000	28.719288
8.090000	28.719288
8.100000	28.719288
8.110000	28.719288
8.120000	28.719288
8.130000	28.719288
8.140000	28.719288
8.150000	28.719288
8.160000	28.719288
8.170000	28.719288
8.180000	28.719288
8.190000	28.719288
8.200000	28.719288
8.210000	28.719288
8.220000	28.719288
8.230000	28.719288
8.240000	28.719288
8.250000	28.719288
8.260000	28.719288
8.270000	28.719288
8.280000	28.719288
8.290000	28.719288
8.300000	28.719288
8.310000	28.719288
8.320000	28.719288
8.330000	28.719288
8.340000	28.719288
8.350000	28.719288
8.360000	28.719288
8.370000	28.719288
8.380000	28.719288
8.390000	28.719288
8.400000	28.719288
8.410000	28.719288
8.420000	28.719288
8.430000	28.719288
8.440000	28.719288
8.450000	28.719288
8.460000	28.719288
8.470000	28.719288
8.480000	28.719288
8.490000	28.719288
8.500000	28.685733
8.510000	28.685733
8.520000	28.685733
8.530000	28.685733
8.540000	28.685733
8.550000	28.685733
8.560000	28.685733
8.570000	28.685733
8.580000	28.685733
8.590000	28.685733
8.600000	28.685733
8.610000	28.685733
8.620000	28.685733
8.630000	28.685733
8.640000	28.685733
8.650000	28.685733
8.660000	28.685733
8.670000	28.685733
8.680000	28.685733
8.690000	28.685733
8.700000	28.685733
8.710000	28.685733
8.720000	28.685733
8.730000	28.685733
8.740000	28.685733
8.750000	28.685733
8.760000	28.685733
8.770000	28.685733
8.780000	28.685733
8.790000	28.685733
8.800000	28.685733
8.810000	28.685733
8.820000	28.685733
8.830000	28.685733
8.840000	28.685733
8.850000	28.685733
8.860000	28.685733
8.870000	28.685733
8.880000	28.685733
8.890000	28.685733
8.900000	28.685733
8.910000	28.685733
8.920000	28.685733
8.930000	28.685733
8.940000	28.685733
8.950000	28.685733
8.960000	28.685733
8.970000	28.685733
8.980000	28.685733
8.990000	28.685733
9.000000	28.642730
9.010000	28.642730
9.020000	28.642730
9.030000	28.642730
9.040000	28.642730
9.050000	28.642730
9.060000	28.642730
9.070000	28.642730
9.080000	28.642730
9.090000	28.642730
9.100000	28.642730
9.110000	28.642730
9.120000	28.642730
9.130000	28.642730
9.140000	28.642730
9.150000	28.642730
9.160000	28.642730
9.170000	28.642730
9.180000	28.642730
9.190000	28.642730
9.200000	28.642730
9.210000	28.642730
9.220000	28.642730
9.230000	28.642730
9.240000	28.642730
9.250000	28.642730
9.260000	28.642730
9.270000	28.642730
9.280000	28.642730
9.290000	28.642730
9.300000	28.642730
9.310000	28.642730
9.320000	28.642730
9.330000	28.642730
9.340000	28.642730
9.350000	28.642730
9.360000	28.642730
9.370000	28.642730
9.380000	28.642730
9.390000	28.642730
9.400000	28.642730
9.410000	28.642730
9.420000	28.642730
9.430000	28.642730
9.440000	28.642730
9.450000	28.642730
9.460000	28.642730
9.470000	28.642730
9.480000	28.642730
9.490000	28.642730
9.500000	28.591729
9.510000	28.591729
9.520000	28.591729
9.530000	28.591729
9.540000	28.591729
9.550000	28.591729
9.560000	28.591729
9.570000	28.591729
9.580000	28.591729
9.590000	28.591729
9.600000	28.591729
9.610000	28.591729
9.620000	28.591729
9.630000	28.591729
9.640000	28.591729
9.650000	28.591729
9.660000	28.591729
9.670000	28.591729
9.680000	28.591729
9.690000	28.591729
9.700000	28.591729
9.710000	28.591729
9.720000	28.591729
9.730000	28.591729
9.740000	28.591729
9.750000	28.591729
9.760000	28.591729
9.770000	28.591729
9.780000	28.591729
9.790000	28.591729
9.800000	28.591729
9.810000	28.591729
9.820000	28.591729
9.830000	28.591729
9.840000	28.591729
9.850000	28.591729
9.860000	28.591729
9.870000	28.591729
9.880000	28.591729
9.890000	28.591729
9.900000	28.591729
9.910000	28.591729
9.920000	28.591729
9.930000	28.591729
9.940000	28.591729
9.950000	28.591729
9.960000	28.591729
9.970000	28.591729
9.980000	28.591729
9.990000	28.591729
10.000000	28.534061
10.010000	28.534061
10.020000	28.534061
10.030000	28.534061
10.040000	28.534061
10.050000	28.534061
10.060000	28.534061
10.070000	28.534061
10.080000	28.534061
10.090000	28.534061
10.100000	28.534061
10.110000	28.534061
10.120000	28.534061
10.130000	28.534061
10.140000	28.534061
10.150000	28.534061
10.160000	28.534061
10.170000	28.534061
10.180000	28.534061
10.190000	28.534061
10.200000	28.534061
10.210000	28.534061
10.220000	28.534061
10.230000	28.534061
10.240000	28.534061
10.250000	28.534061
10.260000	28.534061
10.270000	28.534061
10.280000	28.534061
10.290000	28.534061
10.300000	28.534061
10.310000	28.534061
10.320000	28.534061
10.330000	28.534061
10.340000	28.534061
10.350000	28.534061
10.360000	28.534061
10.370000	28.534061
10.380000	28.534061
10.390000	28.534061
10.400000	28.534061
10.410000	28.534061
10.420000	28.534061
10.430000	28.534061
10.440000	28.534061
10.450000	28.534061
10.460000	28.534061
10.470000	28.534061
10.480000	28.534061
10.490000	28.534061
10.500000	28.473164
10.510000	28.473164
10.520000	28.473164
10.530000	28.473164
10.540000	28.473164
10.550000	28.473164
10.560000	28.473164
10.570000	28.473164
10.580000	28.473164
10.590000	28.473164
10.600000	28.473164
10.610000	28.473164
10.620000	28.473164
10.630000	28.473164
10.640000	28.473164
10.650000	28.473164
10.660000	28.473164
10.670000	28.473164
10.680000	28.473164
10.690000	28.473164
10.700000	28.473164
10.710000	28.473164
10.720000	28.473164
10.730000	28.473164
10.740000	28.473164
10.750000	28.473164
10.760000	28.473164
10.770000	28.473164
10.780000	28.473164
10.790000	28.473164
10.800000	28.473164
10.810000	28.473164
10.820000	28.473164
10.830000	28.473164
10.840000	28.473164
10.850000	28.473164
10.860000	28.473164
10.870000	28.473164
10.880000	28.473164
10.890000	28.473164
10.900000	28.473164
10.910000	28.473164
10.920000	28.473164
10.930000	28.473164
10.940000	28.473164
10.950000	28.473164
10.960000	28.473164
10.970000	28.473164
10.980000	28.473164
10.990000	28.473164
11.000000	28.408866
11.010000	28.408866
11.020000	28.408866
11.030000	28.408866
11.040000	28.408866
11.050000	28.408866
11.060000	28.408866
11.070000	28.408866
11.080000	28.408866
11.090000	28.408866
11.100000	28.408866
11.110000	28.408866
11.120000	28.408866
11.130000	28.408866
11.140000	28.408866
11.150000	28.408866
11.160000	28.408866
11.170000	28.408866
11.180000	28.408866
11.190000	28.408866
11.200000	28.408866
11.210000	28.408866
11.220000	28.408866
11.230000	28.408866
11.240000	28.408866
11.250000	28.408866
11.260000	28.408866
11.270000	28.408866
11.280000	28.408866
11.290000	28.408866
11.300000	28.408866
11.310000	28.408866
11.320000	28.408866
11.330000	28.408866
11.340000	28.408866
11.350000	28.408866
11.360000	28.408866
11.370000	28.408866
11.380000	28.408866
11.390000	28.408866
11.400000	28.408866
11.410000	28.408866
11.420000	28.408866
11.430000	28.408866
11.440000	28.408866
11.450000	28.408866
11.460000	28.408866
11.470000	28.408866
11.480000	28.408866
11.490000	28.408866
11.500000	28.344000
11.510000	28.344000
11.520000	28.344000
11.530000	28.344000
11.540000	28.344000
11.550000	28.344000
11.560000	28.344000
11.570000	28.344000
11.580000	28.344000
11.590000	28.344000
11.600000	28.344000
11.610000	28.344000
11.620000	28.344000
11.630000	28.344000
11.640000	28.344000
11.650000	28.344000
11.660000	28.344000
11.670000	28.344000
11.680000	28.344000
11.690000	28.344000
11.700000	28.344000
11.710000	28.344000
11.720000	28.344000
11.730000	28.344000
11.740000	28.344000
11.750000	28.344000
11.760000	28.344000
11.770000	28.344000
11.780000	28.344000
11.790000	28.344000
11.800000	28.344000
11.810000	28.344000
11.820000	28.344000
11.830000	28.344000
11.840000	28.344000
11.850000	28.344000
11.860000	28.344000
11.870000	28.344000
11.880000	28.344000
11.890000	28.344000
11.900000	28.344000
11.910000	28.344000
11.920000	28.344000
11.930000	28.344000
11.940000	28.344000
11.950000	28.344000
11.960000	28.344000
11.970000	28.344000
11.980000	28.344000
11.990000	28.344000
12.000000	28.278240
12.010000	28.278240
12.020000	28.278240
12.030000	28.278240
12.040000	28.278240
12.050000	28.278240
12.060000	28.278240
12.070000	28.278240
12.080000	28.278240
12.090000	28.278240
12.100000	28.278240
12.110000	28.278240
12.120000	28.278240
12.130000	28.278240
12.140000	28.278240
12.150000	28.278240
12.160000	28.278240
12.170000	28.278240
12.180000	28.278240
12.190000	28.278240
12.200000	28.278240
12.210000	28.278240
12.220000	28.278240
12.230000	28.278240
12.240000	28.278240
12.250000	28.278240
12.260000	28.278240
12.270000	28.278240
12.280000	28.278240
12.290000	28.278240
12.300000	28.278240
12.310000	28.278240
12.320000	28.278240
12.330000	28.278240
12.340000	28.278240
12.350000	28.278240
12.360000	28.278240
12.370000	28.278240
12.380000	28.278240
12.390000	28.278240
12.400000	28.278240
12.410000	28.278240
12.420000	28.278240
12.430000	28.278240
12.440000	28.278240
12.450000	28.278240
12.460000	28.278240
12.470000	28.278240
12.480000	28.278240
12.490000	28.278240
12.500000	28.211615
12.510000	28.211615
12.520000	28.211615
12.530000	28.211615
12.540000	28.211615
12.550000	28.211615
12.560000	28.211615
12.570000	28.211615
12.580000	28.211615
12.590000	28.211615
12.600000	28.211615
12.610000	28.211615
12.620000	28.211615
12.630000	28.211615
12.640000	28.211615
12.650000	28.211615
12.660000	28.211615
12.670000	28.211615
12.680000	28.211615
12.690000	28.211615
12.700000	28.211615
12.710000	28.211615
12.720000	28.211615
12.730000	28.211615
12.740000	28.211615
12.750000	28.211615
12.760000	28.211615
12.770000	28.211615
12.780000	28.211615
12.790000	28.211615
12.800000	28.211615
12.810000	28.211615
12.820000	28.211615
12.830000	28.211615
12.840000	28.211615
12.850000	28.211615
12.860000	28.211615
12.870000	28.211615
12.880000	28.211615
12.890000	28.211615
12.900000	28.211615
12.910000	28.211615
12.920000	28.211615
12.930000	28.211615
12.940000	28.211615
12.950000	28.211615
12.960000	28.211615
12.970000	28.211615
12.980000	28.211615
12.990000	28.211615
13.000000	28.145922
13.010000	28.145922
13.020000	28.145922
13.030000	28.145922
13.040000	28.145922
13.050000	28.145922
13.060000	28.145922
13.070000	28.145922
13.080000	28.145922
13.090000	28.145922
13.100000	28.145922
13.110000	28.145922
13.120000	28.145922
13.130000	28.145922
13.140000	28.145922
13.150000	28.145922
13.160000	28.145922
13.170000	28.145922
13.180000	28.145922
13.190000	28.145922
13.200000	28.145922
13.210000	28.145922
13.220000	28.145922
13.230000	28.145922
13.240000	28.145922
13.250000	28.145922
13.260000	28.145922
13.270000	28.145922
13.280000	28.145922
13.290000	28.145922
13.300000	28.145922
13.310000	28.145922
13.320000	28.145922
13.330000	28.145922
13.340000	28.145922
13.350000	28.145922
13.360000	28.145922
13.370000	28.145922
13.380000	28.145922
13.390000	28.145922
13.400000	28.145922
13.410000	28.145922
13.420000	28.145922
13.430000	28.145922
13.440000	28.145922
13.450000	28.145922
13.460000	28.145922
13.470000	28.145922
13.480000	28.145922
13.490000	28.145922
13.500000	28.079728
13.510000	28.079728
13.520000	28.079728
13.530000	28.079728
13.540000	28.079728
13.550000	28.079728
13.560000	28.079728
13.570000	28.079728
13.580000	28.079728
13.590000	28.079728
13.600000	28.079728
13.610000	28.079728
13.620000	28.079728
13.630000	28.079728
13.640000	28.079728
13.650000	28.079728
13.660000	28.079728
13.670000	28.079728
13.680000	28.079728
13.690000	28.079728
13.700000	28.079728
13.710000	28.079728
13.720000	28.079728
13.730000	28.079728
13.740000	28.079728
13.750000	28.079728
13.760000	28.079728
13.770000	28.079728
13.780000	28.079728
13.790000	28.079728
13.800000	28.079728
13.810000	28.079728
13.820000	28.079728
13.830000	28.079728
13.840000	28.079728
13.850000	28.079728
13.860000	28.079728
13.870000	28.079728
13.880000	28.079728
13.890000	28.079728
13.900000	28.079728
13.910000	28.079728
13.920000	28.079728
13.930000	28.079728
13.940000	28.079728
13.950000	28.079728
13.960000	28.079728
13.970000	28.079728
13.980000	28.079728
13.990000	28.079728
14.000000	28.012615
14.010000	28.012615
14.020000	28.012615
14.030000	28.012615
14.040000	28.012615
14.050000	28.012615
14.060000	28.012615
14.070000	28.012615
14.080000	28.012615
14.090000	28.012615
14.100000	28.012615
14.110000	28.012615
14.120000	28.012615
14.130000	28.012615
14.140000	28.012615
14.150000	28.012615
14.160000	28.012615
14.170000	28.012615
14.180000	28.012615
14.190000	28.012615
14.200000	28.012615
14.210000	28.012615
14.220000	28.012615
14.230000	28.012615
14.240000	28.012615
14.250000	28.012615
14.260000	28.012615
14.270000	28.012615
14.280000	28.012615
14.290000	28.012615
14.300000	28.012615
14.310000	28.012615
14.320000	28.012615
14.330000	28.012615
14.340000	28.012615
14.350000	28.012615
14.360000	28.012615
14.370000	28.012615
14.380000	28.012615
14.390000	28.012615
14.400000	28.012615
14.410000	28.012615
14.420000	28.012615
14.430000	28.012615
14.440000	28.012615
14.450000	28.012615
14.460000	28.012615
14.470000	28.012615
14.480000	28.012615
14.490000	28.012615
14.500000	27.946403
14.510000	27.946403
14.520000	27.946403
14.530000	27.946403
14.540000	27.946403
14.550000	27.946403
14.560000	27.946403
14.570000	27.946403
14.580000	27.946403
14.590000	27.946403
14.600000	27.946403
14.610000	27.946403
14.620000	27.946403
14.630000	27.946403
14.640000	27.946403
14.650000	27.946403
14.660000	27.946403
14.670000	27.946403
14.680000	27.946403
14.690000	27.946403
14.700000	27.946403
14.710000	27.946403
14.720000	27.946403
14.730000	27.946403
14.740000	27.946403
14.750000	27.946403
14.760000	27.946403
14.770000	27.946403
14.780000	27.946403
14.790000	27.946403
14.800000	27.946403
14.810000	27.946403
14.820000	27.946403
14.830000	27.946403
14.840000	27.946403
14.850000	27.946403
14.860000	27.946403
14.870000	27.946403
14.880000	27.946403
14.890000	27.946403
14.900000	27.946403
14.910000	27.946403
14.920000	27.946403
14.930000	27.946403
14.940000	27.946403
14.950000	27.946403
14.960000	27.946403
14.970000	27.946403
14.980000	27.946403
14.990000	27.946403
15.000000	27.883013
15.010000	27.883013
15.020000	27.883013
15.030000	27.883013
15.040000	27.883013
15.050000	27.883013
15.060000	27.883013
15.070000	27.883013
15.080000	27.883013
15.090000	27.883013
15.100000	27.883013
15.110000	27.883013
15.120000	27.883013
15.130000	27.883013
15.140000	27.883013
15.150000	27.883013
15.160000	27.883013
15.170000	27.883013
15.180000	27.883013
15.190000	27.883013
15.200000	27.883013
15.210000	27.883013
15.220000	27.883013
15.230000	27.883013
15.240000	27.883013
15.250000	27.883013
15.260000	27.883013
15.270000	27.883013
15.280000	27.883013
15.290000	27.883013
15.300000	27.883013
15.310000	27.883013
15.320000	27.883013
15.330000	27.883013
15.340000	27.883013
15.350000	27.883013
15.360000	27.883013
15.370000	27.883013
15.380000	27.883013
15.390000	27.883013
15.400000	27.883013
15.410000	27.883013
15.420000	27.883013
15.430000	27.883013
15.440000	27.883013
15.450000	27.883013
15.460000	27.883013
15.470000	27.883013
15.480000	27.883013
15.490000	27.883013
15.500000	27.820926
15.510000	27.820926
15.520000	27.820926
15.530000	27.820926
15.540000	27.820926
15.550000	27.820926
15.560000	27.820926
15.570000	27.820926
15.580000	27.820926
15.590000	27.820926
15.600000	27.820926
15.610000	27.820926
15.620000	27.820926
15.630000	27.820926
15.640000	27.820926
15.650000	27.820926
15.660000	27.820926
15.670000	27.820926
15.680000	27.820926
15.690000	27.820926
15.700000	27.820926
15.710000	27.820926
15.720000	27.820926
15.730000	27.820926
15.740000	27.820926
15.750000	27.820926
15.760000	27.820926
15.770000	27.820926
15.780000	27.820926
15.790000	27.820926
15.800000	27.820926
15.810000	27.820926
15.820000	27.820926
15.830000	27.820926
15.840000	27.820926
15.850000	27.820926
15.860000	27.820926
15.870000	27.820926
15.880000	27.820926
15.890000	27.820926
15.900000	27.820926
15.910000	27.820926
15.920000	27.820926
15.930000	27.820926
15.940000	27.820926
15.950000	27.820926
15.960000	27.820926
15.970000	27.820926
15.980000	27.820926
15.990000	27.820926
16.000000	27.759527
16.010000	27.759527
16.020000	27.759527
16.030000	27.759527
16.040000	27.759527
16.050000	27.759527
16.060000	27.759527
16.070000	27.759527
16.080000	27.759527
16.090000	27.759527
16.100000	27.759527
16.110000	27.759527
16.120000	27.759527
16.130000	27.759527
16.140000	27.759527
16.150000	27.759527
16.160000	27.759527
16.170000	27.759527
16.180000	27.759527
16.190000	27.759527
16.200000	27.759527
16.210000	27.759527
16.220000	27.759527
16.230000	27.759527
16.240000	27.759527
16.250000	27.759527
16.260000	27.759527
16.270000	27.759527
16.280000	27.759527
16.290000	27.759527
16.300000	27.759527
16.310000	27.759527
16.320000	27.759527
16.330000	27.759527
16.340000	27.759527
16.350000	27.759527
16.360000	27.759527
16.370000	27.759527
16.380000	27.759527
16.390000	27.759527
16.400000	27.759527
16.410000	27.759527
16.420000	27.759527
16.430000	27.759527
16.440000	27.759527
16.450000	27.759527
16.460000	27.759527
16.470000	27.759527
16.480000	27.759527
16.490000	27.759527
16.500000	27.700250
16.510000	27.700250
16.520000	27.700250
16.530000	27.700250
16.540000	27.700250
16.550000	27.700250
16.560000	27.700250
16.570000	27.700250
16.580000	27.700250
16.590000	27.700250
16.600000	27.700250
16.610000	27.700250
16.620000	27.700250
16.630000	27.700250
16.640000	27.700250
16.650000	27.700250
16.660000	27.700250
16.670000	27.700250
16.680000	27.700250
16.690000	27.700250
16.700000	27.700250
16.710000	27.700250
16.720000	27.700250
16.730000	27.700250
16.740000	27.700250
16.750000	27.700250
16.760000	27.700250
16.770000	27.700250
16.780000	27.700250
16.790000	27.700250
16.800000	27.700250
16.810000	27.700250
16.820000	27.700250
16.830000	27.700250
16.840000	27.700250
16.850000	27.700250
16.860000	27.700250
16.870000	27.700250
16.880000	27.700250
16.890000	27.700250
16.900000	27.700250
16.910000	27.700250
16.920000	27.700250
16.930000	27.700250
16.940000	27.700250
16.950000	27.700250
16.960000	27.700250
16.970000	27.700250
16.980000	27.700250
16.990000	27.700250
17.000000	27.641643
17.010000	27.641643
17.020000	27.641643
17.030000	27.641643
17.040000	27.641643
17.050000	27.641643
17.060000	27.641643
17.070000	27.641643
17.080000	27.641643
17.090000	27.641643
17.100000	27.641643
17.110000	27.641643
17.120000	27.641643
17.130000	27.641643
17.140000	27.641643
17.150000	27.641643
17.160000	27.641643
17.170000	27.641643
17.180000	27.641643
17.190000	27.641643
17.200000	27.641643
17.210000	27.641643
17.220000	27.641643
17.230000	27.641643
17.240000	27.641643
17.250000	27.641643
17.260000	27.641643
17.270000	27.641643
17.280000	27.641643
17.290000	27.641643
17.300000	27.641643
17.310000	27.641643
17.320000	27.641643
17.330000	27.641643
17.340000	27.641643
17.350000	27.641643
17.360000	27.641643
17.370000	27.641643
17.380000	27.641643
17.390000	27.641643
17.400000	27.641643
17.410000	27.641643
17.420000	27.641643
17.430000	27.641643
17.440000	27.641643
17.450000	27.641643
17.460000	27.641643
17.470000	27.641643
17.480000	27.641643
17.490000	27.641643
17.500000	27.584841
17.510000	27.584841
17.520000	27.584841
17.530000	27.584841
17.540000	27.584841
17.550000	27.584841
17.560000	27.584841
17.570000	27.584841
17.580000	27.584841
17.590000	27.584841
17.600000	27.584841
17.610000	27.584841
17.620000	27.584841
17.630000	27.584841
17.640000	27.584841
17.650000	27.584841
17.660000	27.584841
17.670000	27.584841
17.680000	27.584841
17.690000	27.584841
