LabVIEW Measurement	
Writer_Version	2
Reader_Version	2
Separator	Tab
Decimal_Separator	.
Multi_Headings	No
X_Columns	One
Time_Pref	Absolute
Operator	biomech-dyno
Date	2023/05/24
Time	16:48:16.3068024999997945361
***End_of_Header***	
	
Channels	1	
Samples	10	
Date	2023/05/24	
Time	16:54:58.3097695999997929998	
X_Dimension	Time	
X0	0.0000000000000000E+0	
Delta_X	0.010000	
***End_of_Header***		
X_Value	Untitled	Comment
0.000000	24.991174
0.010000	24.991174
0.020000	24.991174
0.030000	24.991174
0.040000	24.991174
0.050000	24.991174
0.060000	24.991174
0.070000	24.991174
0.080000	24.991174
0.090000	24.991174
0.100000	24.991174
0.110000	24.991174
0.120000	24.991174
0.130000	24.991174
0.140000	24.991174
0.150000	24.991174
0.160000	24.991174
0.170000	24.991174
0.180000	24.991174
0.190000	24.991174
0.200000	24.991174
0.210000	24.991174
0.220000	24.991174
0.230000	24.991174
0.240000	24.991174
0.250000	24.991174
0.260000	24.991174
0.270000	24.991174
0.280000	24.991174
0.290000	24.991174
0.300000	24.991174
0.310000	24.991174
0.320000	24.991174
0.330000	24.991174
0.340000	24.991174
0.350000	24.991174
0.360000	24.991174
0.370000	24.991174
0.380000	24.991174
0.390000	24.991174
0.400000	24.991174
0.410000	24.991174
0.420000	24.991174
0.430000	24.991174
0.440000	24.991174
0.450000	24.991174
0.460000	24.991174
0.470000	24.991174
0.480000	24.991174
0.490000	24.991174
0.500000	25.030596
0.510000	25.030596
0.520000	25.030596
0.530000	25.030596
0.540000	25.030596
0.550000	25.030596
0.560000	25.030596
0.570000	25.030596
0.580000	25.030596
0.590000	25.030596
0.600000	25.030596
0.610000	25.030596
0.620000	25.030596
0.630000	25.030596
0.640000	25.030596
0.650000	25.030596
0.660000	25.030596
0.670000	25.030596
0.680000	25.030596
0.690000	25.030596
0.700000	25.030596
0.710000	25.030596
0.720000	25.030596
0.730000	25.030596
0.740000	25.030596
0.750000	25.030596
0.760000	25.030596
0.770000	25.030596
0.780000	25.030596
0.790000	25.030596
0.800000	25.030596
0.810000	25.030596
0.820000	25.030596
0.830000	25.030596
0.840000	25.030596
0.850000	25.030596
0.860000	25.030596
0.870000	25.030596
0.880000	25.030596
0.890000	25.030596
0.900000	25.030596
0.910000	25.030596
0.920000	25.030596
0.930000	25.030596
0.940000	25.030596
0.950000	25.030596
0.960000	25.030596
0.970000	25.030596
0.980000	25.030596
0.990000	25.030596
1.000000	25.434506
1.010000	25.434506
1.020000	25.434506
1.030000	25.434506
1.040000	25.434506
1.050000	25.434506
1.060000	25.434506
1.070000	25.434506
1.080000	25.434506
1.090000	25.434506
1.100000	25.434506
1.110000	25.434506
1.120000	25.434506
1.130000	25.434506
1.140000	25.434506
1.150000	25.434506
1.160000	25.434506
1.170000	25.434506
1.180000	25.434506
1.190000	25.434506
1.200000	25.434506
1.210000	25.434506
1.220000	25.434506
1.230000	25.434506
1.240000	25.434506
1.250000	25.434506
1.260000	25.434506
1.270000	25.434506
1.280000	25.434506
1.290000	25.434506
1.300000	25.434506
1.310000	25.434506
1.320000	25.434506
1.330000	25.434506
1.340000	25.434506
1.350000	25.434506
1.360000	25.434506
1.370000	25.434506
1.380000	25.434506
1.390000	25.434506
1.400000	25.434506
1.410000	25.434506
1.420000	25.434506
1.430000	25.434506
1.440000	25.434506
1.450000	25.434506
1.460000	25.434506
1.470000	25.434506
1.480000	25.434506
1.490000	25.434506
1.500000	26.379784
1.510000	26.379784
1.520000	26.379784
1.530000	26.379784
1.540000	26.379784
1.550000	26.379784
1.560000	26.379784
1.570000	26.379784
1.580000	26.379784
1.590000	26.379784
1.600000	26.379784
1.610000	26.379784
1.620000	26.379784
1.630000	26.379784
1.640000	26.379784
1.650000	26.379784
1.660000	26.379784
1.670000	26.379784
1.680000	26.379784
1.690000	26.379784
1.700000	26.379784
1.710000	26.379784
1.720000	26.379784
1.730000	26.379784
1.740000	26.379784
1.750000	26.379784
1.760000	26.379784
1.770000	26.379784
1.780000	26.379784
1.790000	26.379784
1.800000	26.379784
1.810000	26.379784
1.820000	26.379784
1.830000	26.379784
1.840000	26.379784
1.850000	26.379784
1.860000	26.379784
1.870000	26.379784
1.880000	26.379784
1.890000	26.379784
1.900000	26.379784
1.910000	26.379784
1.920000	26.379784
1.930000	26.379784
1.940000	26.379784
1.950000	26.379784
1.960000	26.379784
1.970000	26.379784
1.980000	26.379784
1.990000	26.379784
2.000000	27.767181
2.010000	27.767181
2.020000	27.767181
2.030000	27.767181
2.040000	27.767181
2.050000	27.767181
2.060000	27.767181
2.070000	27.767181
2.080000	27.767181
2.090000	27.767181
2.100000	27.767181
2.110000	27.767181
2.120000	27.767181
2.130000	27.767181
2.140000	27.767181
2.150000	27.767181
2.160000	27.767181
2.170000	27.767181
2.180000	27.767181
2.190000	27.767181
2.200000	27.767181
2.210000	27.767181
2.220000	27.767181
2.230000	27.767181
2.240000	27.767181
2.250000	27.767181
2.260000	27.767181
2.270000	27.767181
2.280000	27.767181
2.290000	27.767181
2.300000	27.767181
2.310000	27.767181
2.320000	27.767181
2.330000	27.767181
2.340000	27.767181
2.350000	27.767181
2.360000	27.767181
2.370000	27.767181
2.380000	27.767181
2.390000	27.767181
2.400000	27.767181
2.410000	27.767181
2.420000	27.767181
2.430000	27.767181
2.440000	27.767181
2.450000	27.767181
2.460000	27.767181
2.470000	27.767181
2.480000	27.767181
2.490000	27.767181
2.500000	29.497056
2.510000	29.497056
2.520000	29.497056
2.530000	29.497056
2.540000	29.497056
2.550000	29.497056
2.560000	29.497056
2.570000	29.497056
2.580000	29.497056
2.590000	29.497056
2.600000	29.497056
2.610000	29.497056
2.620000	29.497056
2.630000	29.497056
2.640000	29.497056
2.650000	29.497056
2.660000	29.497056
2.670000	29.497056
2.680000	29.497056
2.690000	29.497056
2.700000	29.497056
2.710000	29.497056
2.720000	29.497056
2.730000	29.497056
2.740000	29.497056
2.750000	29.497056
2.760000	29.497056
2.770000	29.497056
2.780000	29.497056
2.790000	29.497056
2.800000	29.497056
2.810000	29.497056
2.820000	29.497056
2.830000	29.497056
2.840000	29.497056
2.850000	29.497056
2.860000	29.497056
2.870000	29.497056
2.880000	29.497056
2.890000	29.497056
2.900000	29.497056
2.910000	29.497056
2.920000	29.497056
2.930000	29.497056
2.940000	29.497056
2.950000	29.497056
2.960000	29.497056
2.970000	29.497056
2.980000	29.497056
2.990000	29.497056
3.000000	31.465323
3.010000	31.465323
3.020000	31.465323
3.030000	31.465323
3.040000	31.465323
3.050000	31.465323
3.060000	31.465323
3.070000	31.465323
3.080000	31.465323
3.090000	31.465323
3.100000	31.465323
3.110000	31.465323
3.120000	31.465323
3.130000	31.465323
3.140000	31.465323
3.150000	31.465323
3.160000	31.465323
3.170000	31.465323
3.180000	31.465323
3.190000	31.465323
3.200000	31.465323
3.210000	31.465323
3.220000	31.465323
3.230000	31.465323
3.240000	31.465323
3.250000	31.465323
3.260000	31.465323
3.270000	31.465323
3.280000	31.465323
3.290000	31.465323
3.300000	31.465323
3.310000	31.465323
3.320000	31.465323
3.330000	31.465323
3.340000	31.465323
3.350000	31.465323
3.360000	31.465323
3.370000	31.465323
3.380000	31.465323
3.390000	31.465323
3.400000	31.465323
3.410000	31.465323
3.420000	31.465323
3.430000	31.465323
3.440000	31.465323
3.450000	31.465323
3.460000	31.465323
3.470000	31.465323
3.480000	31.465323
3.490000	31.465323
3.500000	33.279205
3.510000	33.279205
3.520000	33.279205
3.530000	33.279205
3.540000	33.279205
3.550000	33.279205
3.560000	33.279205
3.570000	33.279205
3.580000	33.279205
3.590000	33.279205
3.600000	33.279205
3.610000	33.279205
3.620000	33.279205
3.630000	33.279205
3.640000	33.279205
3.650000	33.279205
3.660000	33.279205
3.670000	33.279205
3.680000	33.279205
3.690000	33.279205
3.700000	33.279205
3.710000	33.279205
3.720000	33.279205
3.730000	33.279205
3.740000	33.279205
3.750000	33.279205
3.760000	33.279205
3.770000	33.279205
3.780000	33.279205
3.790000	33.279205
3.800000	33.279205
3.810000	33.279205
3.820000	33.279205
3.830000	33.279205
3.840000	33.279205
3.850000	33.279205
3.860000	33.279205
3.870000	33.279205
3.880000	33.279205
3.890000	33.279205
3.900000	33.279205
3.910000	33.279205
3.920000	33.279205
3.930000	33.279205
3.940000	33.279205
3.950000	33.279205
3.960000	33.279205
3.970000	33.279205
3.980000	33.279205
3.990000	33.279205
4.000000	34.655952
4.010000	34.655952
4.020000	34.655952
4.030000	34.655952
4.040000	34.655952
4.050000	34.655952
4.060000	34.655952
4.070000	34.655952
4.080000	34.655952
4.090000	34.655952
4.100000	34.655952
4.110000	34.655952
4.120000	34.655952
4.130000	34.655952
4.140000	34.655952
4.150000	34.655952
4.160000	34.655952
4.170000	34.655952
4.180000	34.655952
4.190000	34.655952
4.200000	34.655952
4.210000	34.655952
4.220000	34.655952
4.230000	34.655952
4.240000	34.655952
4.250000	34.655952
4.260000	34.655952
4.270000	34.655952
4.280000	34.655952
4.290000	34.655952
4.300000	34.655952
4.310000	34.655952
4.320000	34.655952
4.330000	34.655952
4.340000	34.655952
4.350000	34.655952
4.360000	34.655952
4.370000	34.655952
4.380000	34.655952
4.390000	34.655952
4.400000	34.655952
4.410000	34.655952
4.420000	34.655952
4.430000	34.655952
4.440000	34.655952
4.450000	34.655952
4.460000	34.655952
4.470000	34.655952
4.480000	34.655952
4.490000	34.655952
4.500000	35.650320
4.510000	35.650320
4.520000	35.650320
4.530000	35.650320
4.540000	35.650320
4.550000	35.650320
4.560000	35.650320
4.570000	35.650320
4.580000	35.650320
4.590000	35.650320
4.600000	35.650320
4.610000	35.650320
4.620000	35.650320
4.630000	35.650320
4.640000	35.650320
4.650000	35.650320
4.660000	35.650320
4.670000	35.650320
4.680000	35.650320
4.690000	35.650320
4.700000	35.650320
4.710000	35.650320
4.720000	35.650320
4.730000	35.650320
4.740000	35.650320
4.750000	35.650320
4.760000	35.650320
4.770000	35.650320
4.780000	35.650320
4.790000	35.650320
4.800000	35.650320
4.810000	35.650320
4.820000	35.650320
4.830000	35.650320
4.840000	35.650320
4.850000	35.650320
4.860000	35.650320
4.870000	35.650320
4.880000	35.650320
4.890000	35.650320
4.900000	35.650320
4.910000	35.650320
4.920000	35.650320
4.930000	35.650320
4.940000	35.650320
4.950000	35.650320
4.960000	35.650320
4.970000	35.650320
4.980000	35.650320
4.990000	35.650320
5.000000	36.341543
5.010000	36.341543
5.020000	36.341543
5.030000	36.341543
5.040000	36.341543
5.050000	36.341543
5.060000	36.341543
5.070000	36.341543
5.080000	36.341543
5.090000	36.341543
5.100000	36.341543
5.110000	36.341543
5.120000	36.341543
5.130000	36.341543
5.140000	36.341543
5.150000	36.341543
5.160000	36.341543
5.170000	36.341543
5.180000	36.341543
5.190000	36.341543
5.200000	36.341543
5.210000	36.341543
5.220000	36.341543
5.230000	36.341543
5.240000	36.341543
5.250000	36.341543
5.260000	36.341543
5.270000	36.341543
5.280000	36.341543
5.290000	36.341543
5.300000	36.341543
5.310000	36.341543
5.320000	36.341543
5.330000	36.341543
5.340000	36.341543
5.350000	36.341543
5.360000	36.341543
5.370000	36.341543
5.380000	36.341543
5.390000	36.341543
5.400000	36.341543
5.410000	36.341543
5.420000	36.341543
5.430000	36.341543
5.440000	36.341543
5.450000	36.341543
5.460000	36.341543
5.470000	36.341543
5.480000	36.341543
5.490000	36.341543
5.500000	36.807928
5.510000	36.807928
5.520000	36.807928
5.530000	36.807928
5.540000	36.807928
5.550000	36.807928
5.560000	36.807928
5.570000	36.807928
5.580000	36.807928
5.590000	36.807928
5.600000	36.807928
5.610000	36.807928
5.620000	36.807928
5.630000	36.807928
5.640000	36.807928
5.650000	36.807928
5.660000	36.807928
5.670000	36.807928
5.680000	36.807928
5.690000	36.807928
5.700000	36.807928
5.710000	36.807928
5.720000	36.807928
5.730000	36.807928
5.740000	36.807928
5.750000	36.807928
5.760000	36.807928
5.770000	36.807928
5.780000	36.807928
5.790000	36.807928
5.800000	36.807928
5.810000	36.807928
5.820000	36.807928
5.830000	36.807928
5.840000	36.807928
5.850000	36.807928
5.860000	36.807928
5.870000	36.807928
5.880000	36.807928
5.890000	36.807928
5.900000	36.807928
5.910000	36.807928
5.920000	36.807928
5.930000	36.807928
5.940000	36.807928
5.950000	36.807928
5.960000	36.807928
5.970000	36.807928
5.980000	36.807928
5.990000	36.807928
6.000000	37.105152
6.010000	37.105152
6.020000	37.105152
6.030000	37.105152
6.040000	37.105152
6.050000	37.105152
6.060000	37.105152
6.070000	37.105152
6.080000	37.105152
6.090000	37.105152
6.100000	37.105152
6.110000	37.105152
6.120000	37.105152
6.130000	37.105152
6.140000	37.105152
6.150000	37.105152
6.160000	37.105152
6.170000	37.105152
6.180000	37.105152
6.190000	37.105152
6.200000	37.105152
6.210000	37.105152
6.220000	37.105152
6.230000	37.105152
6.240000	37.105152
6.250000	37.105152
6.260000	37.105152
6.270000	37.105152
6.280000	37.105152
6.290000	37.105152
6.300000	37.105152
6.310000	37.105152
6.320000	37.105152
6.330000	37.105152
6.340000	37.105152
6.350000	37.105152
6.360000	37.105152
6.370000	37.105152
6.380000	37.105152
6.390000	37.105152
6.400000	37.105152
6.410000	37.105152
6.420000	37.105152
6.430000	37.105152
6.440000	37.105152
6.450000	37.105152
6.460000	37.105152
6.470000	37.105152
6.480000	37.105152
6.490000	37.105152
6.500000	37.269675
6.510000	37.269675
6.520000	37.269675
6.530000	37.269675
6.540000	37.269675
6.550000	37.269675
6.560000	37.269675
6.570000	37.269675
6.580000	37.269675
6.590000	37.269675
6.600000	37.269675
6.610000	37.269675
6.620000	37.269675
6.630000	37.269675
6.640000	37.269675
6.650000	37.269675
6.660000	37.269675
6.670000	37.269675
6.680000	37.269675
6.690000	37.269675
6.700000	37.269675
6.710000	37.269675
6.720000	37.269675
6.730000	37.269675
6.740000	37.269675
6.750000	37.269675
6.760000	37.269675
6.770000	37.269675
6.780000	37.269675
6.790000	37.269675
6.800000	37.269675
6.810000	37.269675
6.820000	37.269675
6.830000	37.269675
6.840000	37.269675
6.850000	37.269675
6.860000	37.269675
6.870000	37.269675
6.880000	37.269675
6.890000	37.269675
6.900000	37.269675
6.910000	37.269675
6.920000	37.269675
6.930000	37.269675
6.940000	37.269675
6.950000	37.269675
6.960000	37.269675
6.970000	37.269675
6.980000	37.269675
6.990000	37.269675
7.000000	37.327294
7.010000	37.327294
7.020000	37.327294
7.030000	37.327294
7.040000	37.327294
7.050000	37.327294
7.060000	37.327294
7.070000	37.327294
7.080000	37.327294
7.090000	37.327294
7.100000	37.327294
7.110000	37.327294
7.120000	37.327294
7.130000	37.327294
7.140000	37.327294
7.150000	37.327294
7.160000	37.327294
7.170000	37.327294
7.180000	37.327294
7.190000	37.327294
7.200000	37.327294
7.210000	37.327294
7.220000	37.327294
7.230000	37.327294
7.240000	37.327294
7.250000	37.327294
7.260000	37.327294
7.270000	37.327294
7.280000	37.327294
7.290000	37.327294
7.300000	37.327294
7.310000	37.327294
7.320000	37.327294
7.330000	37.327294
7.340000	37.327294
7.350000	37.327294
7.360000	37.327294
7.370000	37.327294
7.380000	37.327294
7.390000	37.327294
7.400000	37.327294
7.410000	37.327294
7.420000	37.327294
7.430000	37.327294
7.440000	37.327294
7.450000	37.327294
7.460000	37.327294
7.470000	37.327294
7.480000	37.327294
7.490000	37.327294
7.500000	37.307920
7.510000	37.307920
7.520000	37.307920
7.530000	37.307920
7.540000	37.307920
7.550000	37.307920
7.560000	37.307920
7.570000	37.307920
7.580000	37.307920
7.590000	37.307920
7.600000	37.307920
7.610000	37.307920
7.620000	37.307920
7.630000	37.307920
7.640000	37.307920
7.650000	37.307920
7.660000	37.307920
7.670000	37.307920
7.680000	37.307920
7.690000	37.307920
7.700000	37.307920
7.710000	37.307920
7.720000	37.307920
7.730000	37.307920
7.740000	37.307920
7.750000	37.307920
7.760000	37.307920
7.770000	37.307920
7.780000	37.307920
7.790000	37.307920
7.800000	37.307920
7.810000	37.307920
7.820000	37.307920
7.830000	37.307920
7.840000	37.307920
7.850000	37.307920
7.860000	37.307920
7.870000	37.307920
7.880000	37.307920
7.890000	37.307920
7.900000	37.307920
7.910000	37.307920
7.920000	37.307920
7.930000	37.307920
7.940000	37.307920
7.950000	37.307920
7.960000	37.307920
7.970000	37.307920
7.980000	37.307920
7.990000	37.307920
8.000000	37.236613
8.010000	37.236613
8.020000	37.236613
8.030000	37.236613
8.040000	37.236613
8.050000	37.236613
8.060000	37.236613
8.070000	37.236613
8.080000	37.236613
8.090000	37.236613
8.100000	37.236613
8.110000	37.236613
8.120000	37.236613
8.130000	37.236613
8.140000	37.236613
8.150000	37.236613
8.160000	37.236613
8.170000	37.236613
8.180000	37.236613
8.190000	37.236613
8.200000	37.236613
8.210000	37.236613
8.220000	37.236613
8.230000	37.236613
8.240000	37.236613
8.250000	37.236613
8.260000	37.236613
8.270000	37.236613
8.280000	37.236613
8.290000	37.236613
8.300000	37.236613
8.310000	37.236613
8.320000	37.236613
8.330000	37.236613
8.340000	37.236613
8.350000	37.236613
8.360000	37.236613
8.370000	37.236613
8.380000	37.236613
8.390000	37.236613
8.400000	37.236613
8.410000	37.236613
8.420000	37.236613
8.430000	37.236613
8.440000	37.236613
8.450000	37.236613
8.460000	37.236613
8.470000	37.236613
8.480000	37.236613
8.490000	37.236613
8.500000	37.127011
8.510000	37.127011
8.520000	37.127011
8.530000	37.127011
8.540000	37.127011
8.550000	37.127011
8.560000	37.127011
8.570000	37.127011
8.580000	37.127011
8.590000	37.127011
8.600000	37.127011
8.610000	37.127011
8.620000	37.127011
8.630000	37.127011
8.640000	37.127011
8.650000	37.127011
8.660000	37.127011
8.670000	37.127011
8.680000	37.127011
8.690000	37.127011
8.700000	37.127011
8.710000	37.127011
8.720000	37.127011
8.730000	37.127011
8.740000	37.127011
8.750000	37.127011
8.760000	37.127011
8.770000	37.127011
8.780000	37.127011
8.790000	37.127011
8.800000	37.127011
8.810000	37.127011
8.820000	37.127011
8.830000	37.127011
8.840000	37.127011
8.850000	37.127011
8.860000	37.127011
8.870000	37.127011
8.880000	37.127011
8.890000	37.127011
8.900000	37.127011
8.910000	37.127011
8.920000	37.127011
8.930000	37.127011
8.940000	37.127011
8.950000	37.127011
8.960000	37.127011
8.970000	37.127011
8.980000	37.127011
8.990000	37.127011
9.000000	36.981527
9.010000	36.981527
9.020000	36.981527
9.030000	36.981527
9.040000	36.981527
9.050000	36.981527
9.060000	36.981527
9.070000	36.981527
9.080000	36.981527
9.090000	36.981527
9.100000	36.981527
9.110000	36.981527
9.120000	36.981527
9.130000	36.981527
9.140000	36.981527
9.150000	36.981527
9.160000	36.981527
9.170000	36.981527
9.180000	36.981527
9.190000	36.981527
9.200000	36.981527
9.210000	36.981527
9.220000	36.981527
9.230000	36.981527
9.240000	36.981527
9.250000	36.981527
9.260000	36.981527
9.270000	36.981527
9.280000	36.981527
9.290000	36.981527
9.300000	36.981527
9.310000	36.981527
9.320000	36.981527
9.330000	36.981527
9.340000	36.981527
9.350000	36.981527
9.360000	36.981527
9.370000	36.981527
9.380000	36.981527
9.390000	36.981527
9.400000	36.981527
9.410000	36.981527
9.420000	36.981527
9.430000	36.981527
9.440000	36.981527
9.450000	36.981527
9.460000	36.981527
9.470000	36.981527
9.480000	36.981527
9.490000	36.981527
9.500000	36.776091
9.510000	36.776091
9.520000	36.776091
9.530000	36.776091
9.540000	36.776091
9.550000	36.776091
9.560000	36.776091
9.570000	36.776091
9.580000	36.776091
9.590000	36.776091
9.600000	36.776091
9.610000	36.776091
9.620000	36.776091
9.630000	36.776091
9.640000	36.776091
9.650000	36.776091
9.660000	36.776091
9.670000	36.776091
9.680000	36.776091
9.690000	36.776091
9.700000	36.776091
9.710000	36.776091
9.720000	36.776091
9.730000	36.776091
9.740000	36.776091
9.750000	36.776091
9.760000	36.776091
9.770000	36.776091
9.780000	36.776091
9.790000	36.776091
9.800000	36.776091
9.810000	36.776091
9.820000	36.776091
9.830000	36.776091
9.840000	36.776091
9.850000	36.776091
9.860000	36.776091
9.870000	36.776091
9.880000	36.776091
9.890000	36.776091
9.900000	36.776091
9.910000	36.776091
9.920000	36.776091
9.930000	36.776091
9.940000	36.776091
9.950000	36.776091
9.960000	36.776091
9.970000	36.776091
9.980000	36.776091
9.990000	36.776091
10.000000	36.531166
10.010000	36.531166
10.020000	36.531166
10.030000	36.531166
10.040000	36.531166
10.050000	36.531166
10.060000	36.531166
10.070000	36.531166
10.080000	36.531166
10.090000	36.531166
10.100000	36.531166
10.110000	36.531166
10.120000	36.531166
10.130000	36.531166
10.140000	36.531166
10.150000	36.531166
10.160000	36.531166
10.170000	36.531166
10.180000	36.531166
10.190000	36.531166
10.200000	36.531166
10.210000	36.531166
10.220000	36.531166
10.230000	36.531166
10.240000	36.531166
10.250000	36.531166
10.260000	36.531166
10.270000	36.531166
10.280000	36.531166
10.290000	36.531166
10.300000	36.531166
10.310000	36.531166
10.320000	36.531166
10.330000	36.531166
10.340000	36.531166
10.350000	36.531166
10.360000	36.531166
10.370000	36.531166
10.380000	36.531166
10.390000	36.531166
10.400000	36.531166
10.410000	36.531166
10.420000	36.531166
10.430000	36.531166
10.440000	36.531166
10.450000	36.531166
10.460000	36.531166
10.470000	36.531166
10.480000	36.531166
10.490000	36.531166
10.500000	36.292312
10.510000	36.292312
10.520000	36.292312
10.530000	36.292312
10.540000	36.292312
10.550000	36.292312
10.560000	36.292312
10.570000	36.292312
10.580000	36.292312
10.590000	36.292312
10.600000	36.292312
10.610000	36.292312
10.620000	36.292312
10.630000	36.292312
10.640000	36.292312
10.650000	36.292312
10.660000	36.292312
10.670000	36.292312
10.680000	36.292312
10.690000	36.292312
10.700000	36.292312
10.710000	36.292312
10.720000	36.292312
10.730000	36.292312
10.740000	36.292312
10.750000	36.292312
10.760000	36.292312
10.770000	36.292312
10.780000	36.292312
10.790000	36.292312
10.800000	36.292312
10.810000	36.292312
10.820000	36.292312
10.830000	36.292312
10.840000	36.292312
10.850000	36.292312
10.860000	36.292312
10.870000	36.292312
10.880000	36.292312
10.890000	36.292312
10.900000	36.292312
10.910000	36.292312
10.920000	36.292312
10.930000	36.292312
10.940000	36.292312
10.950000	36.292312
10.960000	36.292312
10.970000	36.292312
10.980000	36.292312
10.990000	36.292312
11.000000	36.059551
11.010000	36.059551
11.020000	36.059551
11.030000	36.059551
11.040000	36.059551
11.050000	36.059551
11.060000	36.059551
11.070000	36.059551
11.080000	36.059551
11.090000	36.059551
11.100000	36.059551
11.110000	36.059551
11.120000	36.059551
11.130000	36.059551
11.140000	36.059551
11.150000	36.059551
11.160000	36.059551
11.170000	36.059551
11.180000	36.059551
11.190000	36.059551
11.200000	36.059551
11.210000	36.059551
11.220000	36.059551
11.230000	36.059551
11.240000	36.059551
11.250000	36.059551
11.260000	36.059551
11.270000	36.059551
11.280000	36.059551
11.290000	36.059551
11.300000	36.059551
11.310000	36.059551
11.320000	36.059551
11.330000	36.059551
11.340000	36.059551
11.350000	36.059551
11.360000	36.059551
11.370000	36.059551
11.380000	36.059551
11.390000	36.059551
11.400000	36.059551
11.410000	36.059551
11.420000	36.059551
11.430000	36.059551
11.440000	36.059551
11.450000	36.059551
11.460000	36.059551
11.470000	36.059551
11.480000	36.059551
11.490000	36.059551
11.500000	35.818757
11.510000	35.818757
11.520000	35.818757
11.530000	35.818757
11.540000	35.818757
11.550000	35.818757
11.560000	35.818757
11.570000	35.818757
11.580000	35.818757
11.590000	35.818757
11.600000	35.818757
11.610000	35.818757
11.620000	35.818757
11.630000	35.818757
11.640000	35.818757
11.650000	35.818757
11.660000	35.818757
11.670000	35.818757
11.680000	35.818757
11.690000	35.818757
11.700000	35.818757
11.710000	35.818757
11.720000	35.818757
11.730000	35.818757
11.740000	35.818757
11.750000	35.818757
11.760000	35.818757
11.770000	35.818757
11.780000	35.818757
11.790000	35.818757
11.800000	35.818757
11.810000	35.818757
11.820000	35.818757
11.830000	35.818757
11.840000	35.818757
11.850000	35.818757
11.860000	35.818757
11.870000	35.818757
11.880000	35.818757
11.890000	35.818757
11.900000	35.818757
11.910000	35.818757
11.920000	35.818757
11.930000	35.818757
11.940000	35.818757
11.950000	35.818757
11.960000	35.818757
11.970000	35.818757
11.980000	35.818757
11.990000	35.818757
12.000000	35.606293
12.010000	35.606293
12.020000	35.606293
12.030000	35.606293
12.040000	35.606293
12.050000	35.606293
12.060000	35.606293
12.070000	35.606293
12.080000	35.606293
12.090000	35.606293
12.100000	35.606293
12.110000	35.606293
12.120000	35.606293
12.130000	35.606293
12.140000	35.606293
12.150000	35.606293
12.160000	35.606293
12.170000	35.606293
12.180000	35.606293
12.190000	35.606293
12.200000	35.606293
12.210000	35.606293
12.220000	35.606293
12.230000	35.606293
12.240000	35.606293
12.250000	35.606293
12.260000	35.606293
12.270000	35.606293
12.280000	35.606293
12.290000	35.606293
12.300000	35.606293
12.310000	35.606293
12.320000	35.606293
12.330000	35.606293
12.340000	35.606293
12.350000	35.606293
12.360000	35.606293
12.370000	35.606293
12.380000	35.606293
12.390000	35.606293
12.400000	35.606293
12.410000	35.606293
12.420000	35.606293
12.430000	35.606293
12.440000	35.606293
12.450000	35.606293
12.460000	35.606293
12.470000	35.606293
12.480000	35.606293
12.490000	35.606293
12.500000	35.399968
12.510000	35.399968
12.520000	35.399968
12.530000	35.399968
12.540000	35.399968
12.550000	35.399968
12.560000	35.399968
12.570000	35.399968
12.580000	35.399968
12.590000	35.399968
12.600000	35.399968
12.610000	35.399968
12.620000	35.399968
12.630000	35.399968
12.640000	35.399968
12.650000	35.399968
12.660000	35.399968
12.670000	35.399968
12.680000	35.399968
12.690000	35.399968
12.700000	35.399968
12.710000	35.399968
12.720000	35.399968
12.730000	35.399968
12.740000	35.399968
12.750000	35.399968
12.760000	35.399968
12.770000	35.399968
12.780000	35.399968
12.790000	35.399968
12.800000	35.399968
12.810000	35.399968
12.820000	35.399968
12.830000	35.399968
12.840000	35.399968
12.850000	35.399968
12.860000	35.399968
12.870000	35.399968
12.880000	35.399968
12.890000	35.399968
12.900000	35.399968
12.910000	35.399968
12.920000	35.399968
12.930000	35.399968
12.940000	35.399968
12.950000	35.399968
12.960000	35.399968
12.970000	35.399968
12.980000	35.399968
12.990000	35.399968
13.000000	35.201192
13.010000	35.201192
13.020000	35.201192
13.030000	35.201192
13.040000	35.201192
13.050000	35.201192
13.060000	35.201192
13.070000	35.201192
13.080000	35.201192
13.090000	35.201192
13.100000	35.201192
13.110000	35.201192
13.120000	35.201192
13.130000	35.201192
13.140000	35.201192
13.150000	35.201192
13.160000	35.201192
13.170000	35.201192
13.180000	35.201192
13.190000	35.201192
13.200000	35.201192
13.210000	35.201192
13.220000	35.201192
13.230000	35.201192
13.240000	35.201192
13.250000	35.201192
13.260000	35.201192
13.270000	35.201192
13.280000	35.201192
13.290000	35.201192
13.300000	35.201192
13.310000	35.201192
13.320000	35.201192
13.330000	35.201192
13.340000	35.201192
13.350000	35.201192
13.360000	35.201192
13.370000	35.201192
13.380000	35.201192
13.390000	35.201192
13.400000	35.201192
13.410000	35.201192
13.420000	35.201192
13.430000	35.201192
13.440000	35.201192
13.450000	35.201192
13.460000	35.201192
13.470000	35.201192
13.480000	35.201192
13.490000	35.201192
13.500000	35.003088
13.510000	35.003088
13.520000	35.003088
13.530000	35.003088
13.540000	35.003088
13.550000	35.003088
13.560000	35.003088
13.570000	35.003088
13.580000	35.003088
13.590000	35.003088
13.600000	35.003088
13.610000	35.003088
13.620000	35.003088
13.630000	35.003088
13.640000	35.003088
13.650000	35.003088
13.660000	35.003088
13.670000	35.003088
13.680000	35.003088
13.690000	35.003088
13.700000	35.003088
13.710000	35.003088
13.720000	35.003088
13.730000	35.003088
13.740000	35.003088
13.750000	35.003088
13.760000	35.003088
13.770000	35.003088
13.780000	35.003088
13.790000	35.003088
13.800000	35.003088
13.810000	35.003088
13.820000	35.003088
13.830000	35.003088
13.840000	35.003088
13.850000	35.003088
13.860000	35.003088
13.870000	35.003088
13.880000	35.003088
13.890000	35.003088
13.900000	35.003088
13.910000	35.003088
13.920000	35.003088
13.930000	35.003088
13.940000	35.003088
13.950000	35.003088
13.960000	35.003088
13.970000	35.003088
13.980000	35.003088
13.990000	35.003088
14.000000	34.807693
14.010000	34.807693
14.020000	34.807693
14.030000	34.807693
14.040000	34.807693
14.050000	34.807693
14.060000	34.807693
14.070000	34.807693
14.080000	34.807693
14.090000	34.807693
14.100000	34.807693
14.110000	34.807693
14.120000	34.807693
14.130000	34.807693
14.140000	34.807693
14.150000	34.807693
14.160000	34.807693
14.170000	34.807693
14.180000	34.807693
14.190000	34.807693
14.200000	34.807693
14.210000	34.807693
14.220000	34.807693
14.230000	34.807693
14.240000	34.807693
14.250000	34.807693
14.260000	34.807693
14.270000	34.807693
14.280000	34.807693
14.290000	34.807693
14.300000	34.807693
14.310000	34.807693
14.320000	34.807693
14.330000	34.807693
14.340000	34.807693
14.350000	34.807693
14.360000	34.807693
14.370000	34.807693
14.380000	34.807693
14.390000	34.807693
14.400000	34.807693
14.410000	34.807693
14.420000	34.807693
14.430000	34.807693
14.440000	34.807693
14.450000	34.807693
14.460000	34.807693
14.470000	34.807693
14.480000	34.807693
14.490000	34.807693
14.500000	34.613157
14.510000	34.613157
14.520000	34.613157
14.530000	34.613157
14.540000	34.613157
14.550000	34.613157
14.560000	34.613157
14.570000	34.613157
14.580000	34.613157
14.590000	34.613157
14.600000	34.613157
14.610000	34.613157
14.620000	34.613157
14.630000	34.613157
14.640000	34.613157
14.650000	34.613157
14.660000	34.613157
14.670000	34.613157
14.680000	34.613157
14.690000	34.613157
14.700000	34.613157
14.710000	34.613157
14.720000	34.613157
14.730000	34.613157
14.740000	34.613157
14.750000	34.613157
14.760000	34.613157
14.770000	34.613157
14.780000	34.613157
14.790000	34.613157
14.800000	34.613157
14.810000	34.613157
14.820000	34.613157
14.830000	34.613157
14.840000	34.613157
14.850000	34.613157
14.860000	34.613157
14.870000	34.613157
14.880000	34.613157
14.890000	34.613157
14.900000	34.613157
14.910000	34.613157
14.920000	34.613157
14.930000	34.613157
14.940000	34.613157
14.950000	34.613157
14.960000	34.613157
14.970000	34.613157
14.980000	34.613157
14.990000	34.613157
15.000000	34.420731
15.010000	34.420731
15.020000	34.420731
15.030000	34.420731
15.040000	34.420731
15.050000	34.420731
15.060000	34.420731
15.070000	34.420731
15.080000	34.420731
15.090000	34.420731
15.100000	34.420731
15.110000	34.420731
15.120000	34.420731
15.130000	34.420731
15.140000	34.420731
15.150000	34.420731
15.160000	34.420731
15.170000	34.420731
15.180000	34.420731
15.190000	34.420731
15.200000	34.420731
15.210000	34.420731
15.220000	34.420731
15.230000	34.420731
15.240000	34.420731
15.250000	34.420731
15.260000	34.420731
15.270000	34.420731
15.280000	34.420731
15.290000	34.420731
15.300000	34.420731
15.310000	34.420731
15.320000	34.420731
15.330000	34.420731
15.340000	34.420731
15.350000	34.420731
15.360000	34.420731
15.370000	34.420731
15.380000	34.420731
15.390000	34.420731
15.400000	34.420731
15.410000	34.420731
15.420000	34.420731
15.430000	34.420731
15.440000	34.420731
15.450000	34.420731
15.460000	34.420731
15.470000	34.420731
15.480000	34.420731
15.490000	34.420731
15.500000	34.229735
15.510000	34.229735
15.520000	34.229735
15.530000	34.229735
15.540000	34.229735
15.550000	34.229735
15.560000	34.229735
15.570000	34.229735
15.580000	34.229735
15.590000	34.229735
15.600000	34.229735
15.610000	34.229735
15.620000	34.229735
15.630000	34.229735
15.640000	34.229735
15.650000	34.229735
15.660000	34.229735
15.670000	34.229735
15.680000	34.229735
15.690000	34.229735
15.700000	34.229735
15.710000	34.229735
15.720000	34.229735
15.730000	34.229735
15.740000	34.229735
15.750000	34.229735
15.760000	34.229735
15.770000	34.229735
15.780000	34.229735
15.790000	34.229735
15.800000	34.229735
15.810000	34.229735
15.820000	34.229735
15.830000	34.229735
15.840000	34.229735
15.850000	34.229735
15.860000	34.229735
15.870000	34.229735
15.880000	34.229735
15.890000	34.229735
15.900000	34.229735
15.910000	34.229735
15.920000	34.229735
15.930000	34.229735
15.940000	34.229735
15.950000	34.229735
15.960000	34.229735
15.970000	34.229735
15.980000	34.229735
15.990000	34.229735
16.000000	34.042897
16.010000	34.042897
16.020000	34.042897
16.030000	34.042897
16.040000	34.042897
16.050000	34.042897
16.060000	34.042897
16.070000	34.042897
16.080000	34.042897
16.090000	34.042897
16.100000	34.042897
16.110000	34.042897
16.120000	34.042897
16.130000	34.042897
16.140000	34.042897
16.150000	34.042897
16.160000	34.042897
16.170000	34.042897
16.180000	34.042897
16.190000	34.042897
16.200000	34.042897
16.210000	34.042897
16.220000	34.042897
16.230000	34.042897
16.240000	34.042897
16.250000	34.042897
16.260000	34.042897
16.270000	34.042897
16.280000	34.042897
16.290000	34.042897
16.300000	34.042897
16.310000	34.042897
16.320000	34.042897
16.330000	34.042897
16.340000	34.042897
16.350000	34.042897
16.360000	34.042897
16.370000	34.042897
16.380000	34.042897
16.390000	34.042897
16.400000	34.042897
16.410000	34.042897
16.420000	34.042897
16.430000	34.042897
16.440000	34.042897
16.450000	34.042897
16.460000	34.042897
16.470000	34.042897
16.480000	34.042897
16.490000	34.042897
16.500000	33.858974
16.510000	33.858974
16.520000	33.858974
16.530000	33.858974
16.540000	33.858974
16.550000	33.858974
16.560000	33.858974
16.570000	33.858974
16.580000	33.858974
16.590000	33.858974
16.600000	33.858974
16.610000	33.858974
16.620000	33.858974
16.630000	33.858974
16.640000	33.858974
16.650000	33.858974
16.660000	33.858974
16.670000	33.858974
16.680000	33.858974
16.690000	33.858974
16.700000	33.858974
16.710000	33.858974
16.720000	33.858974
16.730000	33.858974
16.740000	33.858974
16.750000	33.858974
16.760000	33.858974
16.770000	33.858974
16.780000	33.858974
16.790000	33.858974
16.800000	33.858974
16.810000	33.858974
16.820000	33.858974
16.830000	33.858974
16.840000	33.858974
16.850000	33.858974
16.860000	33.858974
16.870000	33.858974
16.880000	33.858974
16.890000	33.858974
16.900000	33.858974
16.910000	33.858974
16.920000	33.858974
16.930000	33.858974
16.940000	33.858974
16.950000	33.858974
16.960000	33.858974
16.970000	33.858974
16.980000	33.858974
16.990000	33.858974
17.000000	33.683478
17.010000	33.683478
17.020000	33.683478
17.030000	33.683478
17.040000	33.683478
17.050000	33.683478
17.060000	33.683478
17.070000	33.683478
17.080000	33.683478
17.090000	33.683478
17.100000	33.683478
17.110000	33.683478
17.120000	33.683478
17.130000	33.683478
17.140000	33.683478
17.150000	33.683478
17.160000	33.683478
17.170000	33.683478
17.180000	33.683478
17.190000	33.683478
17.200000	33.683478
17.210000	33.683478
17.220000	33.683478
17.230000	33.683478
17.240000	33.683478
17.250000	33.683478
17.260000	33.683478
17.270000	33.683478
17.280000	33.683478
17.290000	33.683478
17.300000	33.683478
17.310000	33.683478
17.320000	33.683478
17.330000	33.683478
17.340000	33.683478
17.350000	33.683478
17.360000	33.683478
17.370000	33.683478
17.380000	33.683478
17.390000	33.683478
17.400000	33.683478
17.410000	33.683478
17.420000	33.683478
17.430000	33.683478
17.440000	33.683478
17.450000	33.683478
17.460000	33.683478
17.470000	33.683478
17.480000	33.683478
17.490000	33.683478
17.500000	33.513133
17.510000	33.513133
17.520000	33.513133
17.530000	33.513133
17.540000	33.513133
17.550000	33.513133
17.560000	33.513133
17.570000	33.513133
17.580000	33.513133
17.590000	33.513133
17.600000	33.513133
17.610000	33.513133
17.620000	33.513133
17.630000	33.513133
17.640000	33.513133
17.650000	33.513133
17.660000	33.513133
17.670000	33.513133
17.680000	33.513133
17.690000	33.513133
