LabVIEW Measurement	
Writer_Version	2
Reader_Version	2
Separator	Tab
Decimal_Separator	.
Multi_Headings	No
X_Columns	One
Time_Pref	Absolute
Operator	biomech-dyno
Date	2023/05/24
Time	16:48:16.3068024999997945361
***End_of_Header***	
	
Channels	1	
Samples	10	
Date	2023/05/24	
Time	17:01:19.3416961999997764684	
X_Dimension	Time	
X0	0.0000000000000000E+0	
Delta_X	0.010000	
***End_of_Header***		
X_Value	Untitled	Comment
0.000000	25.149006
0.010000	25.149006
0.020000	25.149006
0.030000	25.149006
0.040000	25.149006
0.050000	25.149006
0.060000	25.149006
0.070000	25.149006
0.080000	25.149006
0.090000	25.149006
0.100000	25.149006
0.110000	25.149006
0.120000	25.149006
0.130000	25.149006
0.140000	25.149006
0.150000	25.149006
0.160000	25.149006
0.170000	25.149006
0.180000	25.149006
0.190000	25.149006
0.200000	25.149006
0.210000	25.149006
0.220000	25.149006
0.230000	25.149006
0.240000	25.149006
0.250000	25.149006
0.260000	25.149006
0.270000	25.149006
0.280000	25.149006
0.290000	25.149006
0.300000	25.149006
0.310000	25.149006
0.320000	25.149006
0.330000	25.149006
0.340000	25.149006
0.350000	25.149006
0.360000	25.149006
0.370000	25.149006
0.380000	25.149006
0.390000	25.149006
0.400000	25.149006
0.410000	25.149006
0.420000	25.149006
0.430000	25.149006
0.440000	25.149006
0.450000	25.149006
0.460000	25.149006
0.470000	25.149006
0.480000	25.149006
0.490000	25.149006
0.500000	25.158809
0.510000	25.158809
0.520000	25.158809
0.530000	25.158809
0.540000	25.158809
0.550000	25.158809
0.560000	25.158809
0.570000	25.158809
0.580000	25.158809
0.590000	25.158809
0.600000	25.158809
0.610000	25.158809
0.620000	25.158809
0.630000	25.158809
0.640000	25.158809
0.650000	25.158809
0.660000	25.158809
0.670000	25.158809
0.680000	25.158809
0.690000	25.158809
0.700000	25.158809
0.710000	25.158809
0.720000	25.158809
0.730000	25.158809
0.740000	25.158809
0.750000	25.158809
0.760000	25.158809
0.770000	25.158809
0.780000	25.158809
0.790000	25.158809
0.800000	25.158809
0.810000	25.158809
0.820000	25.158809
0.830000	25.158809
0.840000	25.158809
0.850000	25.158809
0.860000	25.158809
0.870000	25.158809
0.880000	25.158809
0.890000	25.158809
0.900000	25.158809
0.910000	25.158809
0.920000	25.158809
0.930000	25.158809
0.940000	25.158809
0.950000	25.158809
0.960000	25.158809
0.970000	25.158809
0.980000	25.158809
0.990000	25.158809
1.000000	25.169589
1.010000	25.169589
1.020000	25.169589
1.030000	25.169589
1.040000	25.169589
1.050000	25.169589
1.060000	25.169589
1.070000	25.169589
1.080000	25.169589
1.090000	25.169589
1.100000	25.169589
1.110000	25.169589
1.120000	25.169589
1.130000	25.169589
1.140000	25.169589
1.150000	25.169589
1.160000	25.169589
1.170000	25.169589
1.180000	25.169589
1.190000	25.169589
1.200000	25.169589
1.210000	25.169589
1.220000	25.169589
1.230000	25.169589
1.240000	25.169589
1.250000	25.169589
1.260000	25.169589
1.270000	25.169589
1.280000	25.169589
1.290000	25.169589
1.300000	25.169589
1.310000	25.169589
1.320000	25.169589
1.330000	25.169589
1.340000	25.169589
1.350000	25.169589
1.360000	25.169589
1.370000	25.169589
1.380000	25.169589
1.390000	25.169589
1.400000	25.169589
1.410000	25.169589
1.420000	25.169589
1.430000	25.169589
1.440000	25.169589
1.450000	25.169589
1.460000	25.169589
1.470000	25.169589
1.480000	25.169589
1.490000	25.169589
1.500000	25.182216
1.510000	25.182216
1.520000	25.182216
1.530000	25.182216
1.540000	25.182216
1.550000	25.182216
1.560000	25.182216
1.570000	25.182216
1.580000	25.182216
1.590000	25.182216
1.600000	25.182216
1.610000	25.182216
1.620000	25.182216
1.630000	25.182216
1.640000	25.182216
1.650000	25.182216
1.660000	25.182216
1.670000	25.182216
1.680000	25.182216
1.690000	25.182216
1.700000	25.182216
1.710000	25.182216
1.720000	25.182216
1.730000	25.182216
1.740000	25.182216
1.750000	25.182216
1.760000	25.182216
1.770000	25.182216
1.780000	25.182216
1.790000	25.182216
1.800000	25.182216
1.810000	25.182216
1.820000	25.182216
1.830000	25.182216
1.840000	25.182216
1.850000	25.182216
1.860000	25.182216
1.870000	25.182216
1.880000	25.182216
1.890000	25.182216
1.900000	25.182216
1.910000	25.182216
1.920000	25.182216
1.930000	25.182216
1.940000	25.182216
1.950000	25.182216
1.960000	25.182216
1.970000	25.182216
1.980000	25.182216
1.990000	25.182216
2.000000	25.195354
2.010000	25.195354
2.020000	25.195354
2.030000	25.195354
2.040000	25.195354
2.050000	25.195354
2.060000	25.195354
2.070000	25.195354
2.080000	25.195354
2.090000	25.195354
2.100000	25.195354
2.110000	25.195354
2.120000	25.195354
2.130000	25.195354
2.140000	25.195354
2.150000	25.195354
2.160000	25.195354
2.170000	25.195354
2.180000	25.195354
2.190000	25.195354
2.200000	25.195354
2.210000	25.195354
2.220000	25.195354
2.230000	25.195354
2.240000	25.195354
2.250000	25.195354
2.260000	25.195354
2.270000	25.195354
2.280000	25.195354
2.290000	25.195354
2.300000	25.195354
2.310000	25.195354
2.320000	25.195354
2.330000	25.195354
2.340000	25.195354
2.350000	25.195354
2.360000	25.195354
2.370000	25.195354
2.380000	25.195354
2.390000	25.195354
2.400000	25.195354
2.410000	25.195354
2.420000	25.195354
2.430000	25.195354
2.440000	25.195354
2.450000	25.195354
2.460000	25.195354
2.470000	25.195354
2.480000	25.195354
2.490000	25.195354
2.500000	25.207870
2.510000	25.207870
2.520000	25.207870
2.530000	25.207870
2.540000	25.207870
2.550000	25.207870
2.560000	25.207870
2.570000	25.207870
2.580000	25.207870
2.590000	25.207870
2.600000	25.207870
2.610000	25.207870
2.620000	25.207870
2.630000	25.207870
2.640000	25.207870
2.650000	25.207870
2.660000	25.207870
2.670000	25.207870
2.680000	25.207870
2.690000	25.207870
2.700000	25.207870
2.710000	25.207870
2.720000	25.207870
2.730000	25.207870
2.740000	25.207870
2.750000	25.207870
2.760000	25.207870
2.770000	25.207870
2.780000	25.207870
2.790000	25.207870
2.800000	25.207870
2.810000	25.207870
2.820000	25.207870
2.830000	25.207870
2.840000	25.207870
2.850000	25.207870
2.860000	25.207870
2.870000	25.207870
2.880000	25.207870
2.890000	25.207870
2.900000	25.207870
2.910000	25.207870
2.920000	25.207870
2.930000	25.207870
2.940000	25.207870
2.950000	25.207870
2.960000	25.207870
2.970000	25.207870
2.980000	25.207870
2.990000	25.207870
3.000000	25.219860
3.010000	25.219860
3.020000	25.219860
3.030000	25.219860
3.040000	25.219860
3.050000	25.219860
3.060000	25.219860
3.070000	25.219860
3.080000	25.219860
3.090000	25.219860
3.100000	25.219860
3.110000	25.219860
3.120000	25.219860
3.130000	25.219860
3.140000	25.219860
3.150000	25.219860
3.160000	25.219860
3.170000	25.219860
3.180000	25.219860
3.190000	25.219860
3.200000	25.219860
3.210000	25.219860
3.220000	25.219860
3.230000	25.219860
3.240000	25.219860
3.250000	25.219860
3.260000	25.219860
3.270000	25.219860
3.280000	25.219860
3.290000	25.219860
3.300000	25.219860
3.310000	25.219860
3.320000	25.219860
3.330000	25.219860
3.340000	25.219860
3.350000	25.219860
3.360000	25.219860
3.370000	25.219860
3.380000	25.219860
3.390000	25.219860
3.400000	25.219860
3.410000	25.219860
3.420000	25.219860
3.430000	25.219860
3.440000	25.219860
3.450000	25.219860
3.460000	25.219860
3.470000	25.219860
3.480000	25.219860
3.490000	25.219860
3.500000	25.230738
3.510000	25.230738
3.520000	25.230738
3.530000	25.230738
3.540000	25.230738
3.550000	25.230738
3.560000	25.230738
3.570000	25.230738
3.580000	25.230738
3.590000	25.230738
3.600000	25.230738
3.610000	25.230738
3.620000	25.230738
3.630000	25.230738
3.640000	25.230738
3.650000	25.230738
3.660000	25.230738
3.670000	25.230738
3.680000	25.230738
3.690000	25.230738
3.700000	25.230738
3.710000	25.230738
3.720000	25.230738
3.730000	25.230738
3.740000	25.230738
3.750000	25.230738
3.760000	25.230738
3.770000	25.230738
3.780000	25.230738
3.790000	25.230738
3.800000	25.230738
3.810000	25.230738
3.820000	25.230738
3.830000	25.230738
3.840000	25.230738
3.850000	25.230738
3.860000	25.230738
3.870000	25.230738
3.880000	25.230738
3.890000	25.230738
3.900000	25.230738
3.910000	25.230738
3.920000	25.230738
3.930000	25.230738
3.940000	25.230738
3.950000	25.230738
3.960000	25.230738
3.970000	25.230738
3.980000	25.230738
3.990000	25.230738
4.000000	25.241701
4.010000	25.241701
4.020000	25.241701
4.030000	25.241701
4.040000	25.241701
4.050000	25.241701
4.060000	25.241701
4.070000	25.241701
4.080000	25.241701
4.090000	25.241701
4.100000	25.241701
4.110000	25.241701
4.120000	25.241701
4.130000	25.241701
4.140000	25.241701
4.150000	25.241701
4.160000	25.241701
4.170000	25.241701
4.180000	25.241701
4.190000	25.241701
4.200000	25.241701
4.210000	25.241701
4.220000	25.241701
4.230000	25.241701
4.240000	25.241701
4.250000	25.241701
4.260000	25.241701
4.270000	25.241701
4.280000	25.241701
4.290000	25.241701
4.300000	25.241701
4.310000	25.241701
4.320000	25.241701
4.330000	25.241701
4.340000	25.241701
4.350000	25.241701
4.360000	25.241701
4.370000	25.241701
4.380000	25.241701
4.390000	25.241701
4.400000	25.241701
4.410000	25.241701
4.420000	25.241701
4.430000	25.241701
4.440000	25.241701
4.450000	25.241701
4.460000	25.241701
4.470000	25.241701
4.480000	25.241701
4.490000	25.241701
4.500000	25.252927
4.510000	25.252927
4.520000	25.252927
4.530000	25.252927
4.540000	25.252927
4.550000	25.252927
4.560000	25.252927
4.570000	25.252927
4.580000	25.252927
4.590000	25.252927
4.600000	25.252927
4.610000	25.252927
4.620000	25.252927
4.630000	25.252927
4.640000	25.252927
4.650000	25.252927
4.660000	25.252927
4.670000	25.252927
4.680000	25.252927
4.690000	25.252927
4.700000	25.252927
4.710000	25.252927
4.720000	25.252927
4.730000	25.252927
4.740000	25.252927
4.750000	25.252927
4.760000	25.252927
4.770000	25.252927
4.780000	25.252927
4.790000	25.252927
4.800000	25.252927
4.810000	25.252927
4.820000	25.252927
4.830000	25.252927
4.840000	25.252927
4.850000	25.252927
4.860000	25.252927
4.870000	25.252927
4.880000	25.252927
4.890000	25.252927
4.900000	25.252927
4.910000	25.252927
4.920000	25.252927
4.930000	25.252927
4.940000	25.252927
4.950000	25.252927
4.960000	25.252927
4.970000	25.252927
4.980000	25.252927
4.990000	25.252927
5.000000	25.263343
5.010000	25.263343
5.020000	25.263343
5.030000	25.263343
5.040000	25.263343
5.050000	25.263343
5.060000	25.263343
5.070000	25.263343
5.080000	25.263343
5.090000	25.263343
5.100000	25.263343
5.110000	25.263343
5.120000	25.263343
5.130000	25.263343
5.140000	25.263343
5.150000	25.263343
5.160000	25.263343
5.170000	25.263343
5.180000	25.263343
5.190000	25.263343
5.200000	25.263343
5.210000	25.263343
5.220000	25.263343
5.230000	25.263343
5.240000	25.263343
5.250000	25.263343
5.260000	25.263343
5.270000	25.263343
5.280000	25.263343
5.290000	25.263343
5.300000	25.263343
5.310000	25.263343
5.320000	25.263343
5.330000	25.263343
5.340000	25.263343
5.350000	25.263343
5.360000	25.263343
5.370000	25.263343
5.380000	25.263343
5.390000	25.263343
5.400000	25.263343
5.410000	25.263343
5.420000	25.263343
5.430000	25.263343
5.440000	25.263343
5.450000	25.263343
5.460000	25.263343
5.470000	25.263343
5.480000	25.263343
5.490000	25.263343
5.500000	25.271965
5.510000	25.271965
5.520000	25.271965
5.530000	25.271965
5.540000	25.271965
5.550000	25.271965
5.560000	25.271965
5.570000	25.271965
5.580000	25.271965
5.590000	25.271965
5.600000	25.271965
5.610000	25.271965
5.620000	25.271965
5.630000	25.271965
5.640000	25.271965
5.650000	25.271965
5.660000	25.271965
5.670000	25.271965
5.680000	25.271965
5.690000	25.271965
5.700000	25.271965
5.710000	25.271965
5.720000	25.271965
5.730000	25.271965
5.740000	25.271965
5.750000	25.271965
5.760000	25.271965
5.770000	25.271965
5.780000	25.271965
5.790000	25.271965
5.800000	25.271965
5.810000	25.271965
5.820000	25.271965
5.830000	25.271965
5.840000	25.271965
5.850000	25.271965
5.860000	25.271965
5.870000	25.271965
5.880000	25.271965
5.890000	25.271965
5.900000	25.271965
5.910000	25.271965
5.920000	25.271965
5.930000	25.271965
5.940000	25.271965
5.950000	25.271965
5.960000	25.271965
5.970000	25.271965
5.980000	25.271965
5.990000	25.271965
6.000000	25.279607
6.010000	25.279607
6.020000	25.279607
6.030000	25.279607
6.040000	25.279607
6.050000	25.279607
6.060000	25.279607
6.070000	25.279607
6.080000	25.279607
6.090000	25.279607
6.100000	25.279607
6.110000	25.279607
6.120000	25.279607
6.130000	25.279607
6.140000	25.279607
6.150000	25.279607
6.160000	25.279607
6.170000	25.279607
6.180000	25.279607
6.190000	25.279607
6.200000	25.279607
6.210000	25.279607
6.220000	25.279607
6.230000	25.279607
6.240000	25.279607
6.250000	25.279607
6.260000	25.279607
6.270000	25.279607
6.280000	25.279607
6.290000	25.279607
6.300000	25.279607
6.310000	25.279607
6.320000	25.279607
6.330000	25.279607
6.340000	25.279607
6.350000	25.279607
6.360000	25.279607
6.370000	25.279607
6.380000	25.279607
6.390000	25.279607
6.400000	25.279607
6.410000	25.279607
6.420000	25.279607
6.430000	25.279607
6.440000	25.279607
6.450000	25.279607
6.460000	25.279607
6.470000	25.279607
6.480000	25.279607
6.490000	25.279607
6.500000	25.286580
6.510000	25.286580
6.520000	25.286580
6.530000	25.286580
6.540000	25.286580
6.550000	25.286580
6.560000	25.286580
6.570000	25.286580
6.580000	25.286580
6.590000	25.286580
6.600000	25.286580
6.610000	25.286580
6.620000	25.286580
6.630000	25.286580
6.640000	25.286580
6.650000	25.286580
6.660000	25.286580
6.670000	25.286580
6.680000	25.286580
6.690000	25.286580
6.700000	25.286580
6.710000	25.286580
6.720000	25.286580
6.730000	25.286580
6.740000	25.286580
6.750000	25.286580
6.760000	25.286580
6.770000	25.286580
6.780000	25.286580
6.790000	25.286580
6.800000	25.286580
6.810000	25.286580
6.820000	25.286580
6.830000	25.286580
6.840000	25.286580
6.850000	25.286580
6.860000	25.286580
6.870000	25.286580
6.880000	25.286580
6.890000	25.286580
6.900000	25.286580
6.910000	25.286580
6.920000	25.286580
6.930000	25.286580
6.940000	25.286580
6.950000	25.286580
6.960000	25.286580
6.970000	25.286580
6.980000	25.286580
6.990000	25.286580
7.000000	25.292617
7.010000	25.292617
7.020000	25.292617
7.030000	25.292617
7.040000	25.292617
7.050000	25.292617
7.060000	25.292617
7.070000	25.292617
7.080000	25.292617
7.090000	25.292617
7.100000	25.292617
7.110000	25.292617
7.120000	25.292617
7.130000	25.292617
7.140000	25.292617
7.150000	25.292617
7.160000	25.292617
7.170000	25.292617
7.180000	25.292617
7.190000	25.292617
7.200000	25.292617
7.210000	25.292617
7.220000	25.292617
7.230000	25.292617
7.240000	25.292617
7.250000	25.292617
7.260000	25.292617
7.270000	25.292617
7.280000	25.292617
7.290000	25.292617
7.300000	25.292617
7.310000	25.292617
7.320000	25.292617
7.330000	25.292617
7.340000	25.292617
7.350000	25.292617
7.360000	25.292617
7.370000	25.292617
7.380000	25.292617
7.390000	25.292617
7.400000	25.292617
7.410000	25.292617
7.420000	25.292617
7.430000	25.292617
7.440000	25.292617
7.450000	25.292617
7.460000	25.292617
7.470000	25.292617
7.480000	25.292617
7.490000	25.292617
7.500000	25.297349
7.510000	25.297349
7.520000	25.297349
7.530000	25.297349
7.540000	25.297349
7.550000	25.297349
7.560000	25.297349
7.570000	25.297349
7.580000	25.297349
7.590000	25.297349
7.600000	25.297349
7.610000	25.297349
7.620000	25.297349
7.630000	25.297349
7.640000	25.297349
7.650000	25.297349
7.660000	25.297349
7.670000	25.297349
7.680000	25.297349
7.690000	25.297349
7.700000	25.297349
7.710000	25.297349
7.720000	25.297349
7.730000	25.297349
7.740000	25.297349
7.750000	25.297349
7.760000	25.297349
7.770000	25.297349
7.780000	25.297349
7.790000	25.297349
7.800000	25.297349
7.810000	25.297349
7.820000	25.297349
7.830000	25.297349
7.840000	25.297349
7.850000	25.297349
7.860000	25.297349
7.870000	25.297349
7.880000	25.297349
7.890000	25.297349
7.900000	25.297349
7.910000	25.297349
7.920000	25.297349
7.930000	25.297349
7.940000	25.297349
7.950000	25.297349
7.960000	25.297349
7.970000	25.297349
7.980000	25.297349
7.990000	25.297349
8.000000	25.301147
8.010000	25.301147
8.020000	25.301147
8.030000	25.301147
8.040000	25.301147
8.050000	25.301147
8.060000	25.301147
8.070000	25.301147
8.080000	25.301147
8.090000	25.301147
8.100000	25.301147
8.110000	25.301147
8.120000	25.301147
8.130000	25.301147
8.140000	25.301147
8.150000	25.301147
8.160000	25.301147
8.170000	25.301147
8.180000	25.301147
8.190000	25.301147
8.200000	25.301147
8.210000	25.301147
8.220000	25.301147
8.230000	25.301147
8.240000	25.301147
8.250000	25.301147
8.260000	25.301147
8.270000	25.301147
8.280000	25.301147
8.290000	25.301147
8.300000	25.301147
8.310000	25.301147
8.320000	25.301147
8.330000	25.301147
8.340000	25.301147
8.350000	25.301147
8.360000	25.301147
8.370000	25.301147
8.380000	25.301147
8.390000	25.301147
8.400000	25.301147
8.410000	25.301147
8.420000	25.301147
8.430000	25.301147
8.440000	25.301147
8.450000	25.301147
8.460000	25.301147
8.470000	25.301147
8.480000	25.301147
8.490000	25.301147
8.500000	25.304388
8.510000	25.304388
8.520000	25.304388
8.530000	25.304388
8.540000	25.304388
8.550000	25.304388
8.560000	25.304388
8.570000	25.304388
8.580000	25.304388
8.590000	25.304388
8.600000	25.304388
8.610000	25.304388
8.620000	25.304388
8.630000	25.304388
8.640000	25.304388
8.650000	25.304388
8.660000	25.304388
8.670000	25.304388
8.680000	25.304388
8.690000	25.304388
8.700000	25.304388
8.710000	25.304388
8.720000	25.304388
8.730000	25.304388
8.740000	25.304388
8.750000	25.304388
8.760000	25.304388
8.770000	25.304388
8.780000	25.304388
8.790000	25.304388
8.800000	25.304388
8.810000	25.304388
8.820000	25.304388
8.830000	25.304388
8.840000	25.304388
8.850000	25.304388
8.860000	25.304388
8.870000	25.304388
8.880000	25.304388
8.890000	25.304388
8.900000	25.304388
8.910000	25.304388
8.920000	25.304388
8.930000	25.304388
8.940000	25.304388
8.950000	25.304388
8.960000	25.304388
8.970000	25.304388
8.980000	25.304388
8.990000	25.304388
9.000000	25.306522
9.010000	25.306522
9.020000	25.306522
9.030000	25.306522
9.040000	25.306522
9.050000	25.306522
9.060000	25.306522
9.070000	25.306522
9.080000	25.306522
9.090000	25.306522
9.100000	25.306522
9.110000	25.306522
9.120000	25.306522
9.130000	25.306522
9.140000	25.306522
9.150000	25.306522
9.160000	25.306522
9.170000	25.306522
9.180000	25.306522
9.190000	25.306522
9.200000	25.306522
9.210000	25.306522
9.220000	25.306522
9.230000	25.306522
9.240000	25.306522
9.250000	25.306522
9.260000	25.306522
9.270000	25.306522
9.280000	25.306522
9.290000	25.306522
9.300000	25.306522
9.310000	25.306522
9.320000	25.306522
9.330000	25.306522
9.340000	25.306522
9.350000	25.306522
9.360000	25.306522
9.370000	25.306522
9.380000	25.306522
9.390000	25.306522
9.400000	25.306522
9.410000	25.306522
9.420000	25.306522
9.430000	25.306522
9.440000	25.306522
9.450000	25.306522
9.460000	25.306522
9.470000	25.306522
9.480000	25.306522
9.490000	25.306522
9.500000	25.308691
9.510000	25.308691
9.520000	25.308691
9.530000	25.308691
9.540000	25.308691
9.550000	25.308691
9.560000	25.308691
9.570000	25.308691
9.580000	25.308691
9.590000	25.308691
9.600000	25.308691
9.610000	25.308691
9.620000	25.308691
9.630000	25.308691
9.640000	25.308691
9.650000	25.308691
9.660000	25.308691
9.670000	25.308691
9.680000	25.308691
9.690000	25.308691
9.700000	25.308691
9.710000	25.308691
9.720000	25.308691
9.730000	25.308691
9.740000	25.308691
9.750000	25.308691
9.760000	25.308691
9.770000	25.308691
9.780000	25.308691
9.790000	25.308691
9.800000	25.308691
9.810000	25.308691
9.820000	25.308691
9.830000	25.308691
9.840000	25.308691
9.850000	25.308691
9.860000	25.308691
9.870000	25.308691
9.880000	25.308691
9.890000	25.308691
9.900000	25.308691
9.910000	25.308691
9.920000	25.308691
9.930000	25.308691
9.940000	25.308691
9.950000	25.308691
9.960000	25.308691
9.970000	25.308691
9.980000	25.308691
9.990000	25.308691
10.000000	25.309917
10.010000	25.309917
10.020000	25.309917
10.030000	25.309917
10.040000	25.309917
10.050000	25.309917
10.060000	25.309917
10.070000	25.309917
10.080000	25.309917
10.090000	25.309917
10.100000	25.309917
10.110000	25.309917
10.120000	25.309917
10.130000	25.309917
10.140000	25.309917
10.150000	25.309917
10.160000	25.309917
10.170000	25.309917
10.180000	25.309917
10.190000	25.309917
10.200000	25.309917
10.210000	25.309917
10.220000	25.309917
10.230000	25.309917
10.240000	25.309917
10.250000	25.309917
10.260000	25.309917
10.270000	25.309917
10.280000	25.309917
10.290000	25.309917
10.300000	25.309917
10.310000	25.309917
10.320000	25.309917
10.330000	25.309917
10.340000	25.309917
10.350000	25.309917
10.360000	25.309917
10.370000	25.309917
10.380000	25.309917
10.390000	25.309917
10.400000	25.309917
10.410000	25.309917
10.420000	25.309917
10.430000	25.309917
10.440000	25.309917
10.450000	25.309917
10.460000	25.309917
10.470000	25.309917
10.480000	25.309917
10.490000	25.309917
10.500000	25.310731
10.510000	25.310731
10.520000	25.310731
10.530000	25.310731
10.540000	25.310731
10.550000	25.310731
10.560000	25.310731
10.570000	25.310731
10.580000	25.310731
10.590000	25.310731
10.600000	25.310731
10.610000	25.310731
10.620000	25.310731
10.630000	25.310731
10.640000	25.310731
10.650000	25.310731
10.660000	25.310731
10.670000	25.310731
10.680000	25.310731
10.690000	25.310731
10.700000	25.310731
10.710000	25.310731
10.720000	25.310731
10.730000	25.310731
10.740000	25.310731
10.750000	25.310731
10.760000	25.310731
10.770000	25.310731
10.780000	25.310731
10.790000	25.310731
10.800000	25.310731
10.810000	25.310731
10.820000	25.310731
10.830000	25.310731
10.840000	25.310731
10.850000	25.310731
10.860000	25.310731
10.870000	25.310731
10.880000	25.310731
10.890000	25.310731
10.900000	25.310731
10.910000	25.310731
10.920000	25.310731
10.930000	25.310731
10.940000	25.310731
10.950000	25.310731
10.960000	25.310731
10.970000	25.310731
10.980000	25.310731
10.990000	25.310731
11.000000	25.312102
11.010000	25.312102
11.020000	25.312102
11.030000	25.312102
11.040000	25.312102
11.050000	25.312102
11.060000	25.312102
11.070000	25.312102
11.080000	25.312102
11.090000	25.312102
11.100000	25.312102
11.110000	25.312102
11.120000	25.312102
11.130000	25.312102
11.140000	25.312102
11.150000	25.312102
11.160000	25.312102
11.170000	25.312102
11.180000	25.312102
11.190000	25.312102
11.200000	25.312102
11.210000	25.312102
11.220000	25.312102
11.230000	25.312102
11.240000	25.312102
11.250000	25.312102
11.260000	25.312102
11.270000	25.312102
11.280000	25.312102
11.290000	25.312102
11.300000	25.312102
11.310000	25.312102
11.320000	25.312102
11.330000	25.312102
11.340000	25.312102
11.350000	25.312102
11.360000	25.312102
11.370000	25.312102
11.380000	25.312102
11.390000	25.312102
11.400000	25.312102
11.410000	25.312102
11.420000	25.312102
11.430000	25.312102
11.440000	25.312102
11.450000	25.312102
11.460000	25.312102
11.470000	25.312102
11.480000	25.312102
11.490000	25.312102
11.500000	25.311571
11.510000	25.311571
11.520000	25.311571
11.530000	25.311571
11.540000	25.311571
11.550000	25.311571
11.560000	25.311571
11.570000	25.311571
11.580000	25.311571
11.590000	25.311571
11.600000	25.311571
11.610000	25.311571
11.620000	25.311571
11.630000	25.311571
11.640000	25.311571
11.650000	25.311571
11.660000	25.311571
11.670000	25.311571
11.680000	25.311571
11.690000	25.311571
11.700000	25.311571
11.710000	25.311571
11.720000	25.311571
11.730000	25.311571
11.740000	25.311571
11.750000	25.311571
11.760000	25.311571
11.770000	25.311571
11.780000	25.311571
11.790000	25.311571
11.800000	25.311571
11.810000	25.311571
11.820000	25.311571
11.830000	25.311571
11.840000	25.311571
11.850000	25.311571
11.860000	25.311571
11.870000	25.311571
11.880000	25.311571
11.890000	25.311571
11.900000	25.311571
11.910000	25.311571
11.920000	25.311571
11.930000	25.311571
11.940000	25.311571
11.950000	25.311571
11.960000	25.311571
11.970000	25.311571
11.980000	25.311571
11.990000	25.311571
12.000000	25.311022
12.010000	25.311022
12.020000	25.311022
12.030000	25.311022
12.040000	25.311022
12.050000	25.311022
12.060000	25.311022
12.070000	25.311022
12.080000	25.311022
12.090000	25.311022
12.100000	25.311022
12.110000	25.311022
12.120000	25.311022
12.130000	25.311022
12.140000	25.311022
12.150000	25.311022
12.160000	25.311022
12.170000	25.311022
12.180000	25.311022
12.190000	25.311022
12.200000	25.311022
12.210000	25.311022
12.220000	25.311022
12.230000	25.311022
12.240000	25.311022
12.250000	25.311022
12.260000	25.311022
12.270000	25.311022
12.280000	25.311022
12.290000	25.311022
12.300000	25.311022
12.310000	25.311022
12.320000	25.311022
12.330000	25.311022
12.340000	25.311022
12.350000	25.311022
12.360000	25.311022
12.370000	25.311022
12.380000	25.311022
12.390000	25.311022
12.400000	25.311022
12.410000	25.311022
12.420000	25.311022
12.430000	25.311022
12.440000	25.311022
12.450000	25.311022
12.460000	25.311022
12.470000	25.311022
12.480000	25.311022
12.490000	25.311022
12.500000	25.309737
12.510000	25.309737
12.520000	25.309737
12.530000	25.309737
12.540000	25.309737
12.550000	25.309737
12.560000	25.309737
12.570000	25.309737
12.580000	25.309737
12.590000	25.309737
12.600000	25.309737
12.610000	25.309737
12.620000	25.309737
12.630000	25.309737
12.640000	25.309737
12.650000	25.309737
12.660000	25.309737
12.670000	25.309737
12.680000	25.309737
12.690000	25.309737
12.700000	25.309737
12.710000	25.309737
12.720000	25.309737
12.730000	25.309737
12.740000	25.309737
12.750000	25.309737
12.760000	25.309737
12.770000	25.309737
12.780000	25.309737
12.790000	25.309737
12.800000	25.309737
12.810000	25.309737
12.820000	25.309737
12.830000	25.309737
12.840000	25.309737
12.850000	25.309737
12.860000	25.309737
12.870000	25.309737
12.880000	25.309737
12.890000	25.309737
12.900000	25.309737
12.910000	25.309737
12.920000	25.309737
12.930000	25.309737
12.940000	25.309737
12.950000	25.309737
12.960000	25.309737
12.970000	25.309737
12.980000	25.309737
12.990000	25.309737
13.000000	25.308417
13.010000	25.308417
13.020000	25.308417
13.030000	25.308417
13.040000	25.308417
13.050000	25.308417
13.060000	25.308417
13.070000	25.308417
13.080000	25.308417
13.090000	25.308417
13.100000	25.308417
13.110000	25.308417
13.120000	25.308417
13.130000	25.308417
13.140000	25.308417
13.150000	25.308417
13.160000	25.308417
13.170000	25.308417
13.180000	25.308417
13.190000	25.308417
13.200000	25.308417
13.210000	25.308417
13.220000	25.308417
13.230000	25.308417
13.240000	25.308417
13.250000	25.308417
13.260000	25.308417
13.270000	25.308417
13.280000	25.308417
13.290000	25.308417
13.300000	25.308417
13.310000	25.308417
13.320000	25.308417
13.330000	25.308417
13.340000	25.308417
13.350000	25.308417
13.360000	25.308417
13.370000	25.308417
13.380000	25.308417
13.390000	25.308417
13.400000	25.308417
13.410000	25.308417
13.420000	25.308417
13.430000	25.308417
13.440000	25.308417
13.450000	25.308417
13.460000	25.308417
13.470000	25.308417
13.480000	25.308417
13.490000	25.308417
13.500000	25.306137
13.510000	25.306137
13.520000	25.306137
13.530000	25.306137
13.540000	25.306137
13.550000	25.306137
13.560000	25.306137
13.570000	25.306137
13.580000	25.306137
13.590000	25.306137
13.600000	25.306137
13.610000	25.306137
13.620000	25.306137
13.630000	25.306137
13.640000	25.306137
13.650000	25.306137
13.660000	25.306137
13.670000	25.306137
13.680000	25.306137
13.690000	25.306137
13.700000	25.306137
13.710000	25.306137
13.720000	25.306137
13.730000	25.306137
13.740000	25.306137
13.750000	25.306137
13.760000	25.306137
13.770000	25.306137
13.780000	25.306137
13.790000	25.306137
13.800000	25.306137
13.810000	25.306137
13.820000	25.306137
13.830000	25.306137
13.840000	25.306137
13.850000	25.306137
13.860000	25.306137
13.870000	25.306137
13.880000	25.306137
13.890000	25.306137
13.900000	25.306137
13.910000	25.306137
13.920000	25.306137
13.930000	25.306137
13.940000	25.306137
13.950000	25.306137
13.960000	25.306137
13.970000	25.306137
13.980000	25.306137
13.990000	25.306137
14.000000	25.303899
14.010000	25.303899
14.020000	25.303899
14.030000	25.303899
14.040000	25.303899
14.050000	25.303899
14.060000	25.303899
14.070000	25.303899
14.080000	25.303899
14.090000	25.303899
14.100000	25.303899
14.110000	25.303899
14.120000	25.303899
14.130000	25.303899
14.140000	25.303899
14.150000	25.303899
14.160000	25.303899
14.170000	25.303899
14.180000	25.303899
14.190000	25.303899
14.200000	25.303899
14.210000	25.303899
14.220000	25.303899
14.230000	25.303899
14.240000	25.303899
14.250000	25.303899
14.260000	25.303899
14.270000	25.303899
14.280000	25.303899
14.290000	25.303899
14.300000	25.303899
14.310000	25.303899
14.320000	25.303899
14.330000	25.303899
14.340000	25.303899
14.350000	25.303899
14.360000	25.303899
14.370000	25.303899
14.380000	25.303899
14.390000	25.303899
14.400000	25.303899
14.410000	25.303899
14.420000	25.303899
14.430000	25.303899
14.440000	25.303899
14.450000	25.303899
14.460000	25.303899
14.470000	25.303899
14.480000	25.303899
14.490000	25.303899
14.500000	25.301002
14.510000	25.301002
14.520000	25.301002
14.530000	25.301002
14.540000	25.301002
14.550000	25.301002
14.560000	25.301002
14.570000	25.301002
14.580000	25.301002
14.590000	25.301002
14.600000	25.301002
14.610000	25.301002
14.620000	25.301002
14.630000	25.301002
14.640000	25.301002
14.650000	25.301002
14.660000	25.301002
14.670000	25.301002
14.680000	25.301002
14.690000	25.301002
14.700000	25.301002
14.710000	25.301002
14.720000	25.301002
14.730000	25.301002
14.740000	25.301002
14.750000	25.301002
14.760000	25.301002
14.770000	25.301002
14.780000	25.301002
14.790000	25.301002
14.800000	25.301002
14.810000	25.301002
14.820000	25.301002
14.830000	25.301002
14.840000	25.301002
14.850000	25.301002
14.860000	25.301002
14.870000	25.301002
14.880000	25.301002
14.890000	25.301002
14.900000	25.301002
14.910000	25.301002
14.920000	25.301002
14.930000	25.301002
14.940000	25.301002
14.950000	25.301002
14.960000	25.301002
14.970000	25.301002
14.980000	25.301002
14.990000	25.301002
15.000000	25.297650
15.010000	25.297650
15.020000	25.297650
15.030000	25.297650
15.040000	25.297650
15.050000	25.297650
15.060000	25.297650
15.070000	25.297650
15.080000	25.297650
15.090000	25.297650
15.100000	25.297650
15.110000	25.297650
15.120000	25.297650
15.130000	25.297650
15.140000	25.297650
15.150000	25.297650
15.160000	25.297650
15.170000	25.297650
15.180000	25.297650
15.190000	25.297650
15.200000	25.297650
15.210000	25.297650
15.220000	25.297650
15.230000	25.297650
15.240000	25.297650
15.250000	25.297650
15.260000	25.297650
15.270000	25.297650
15.280000	25.297650
15.290000	25.297650
15.300000	25.297650
15.310000	25.297650
15.320000	25.297650
15.330000	25.297650
15.340000	25.297650
15.350000	25.297650
15.360000	25.297650
15.370000	25.297650
15.380000	25.297650
15.390000	25.297650
15.400000	25.297650
15.410000	25.297650
15.420000	25.297650
15.430000	25.297650
15.440000	25.297650
15.450000	25.297650
15.460000	25.297650
15.470000	25.297650
15.480000	25.297650
15.490000	25.297650
15.500000	25.294100
15.510000	25.294100
15.520000	25.294100
15.530000	25.294100
15.540000	25.294100
15.550000	25.294100
15.560000	25.294100
15.570000	25.294100
15.580000	25.294100
15.590000	25.294100
15.600000	25.294100
15.610000	25.294100
15.620000	25.294100
15.630000	25.294100
15.640000	25.294100
15.650000	25.294100
15.660000	25.294100
15.670000	25.294100
15.680000	25.294100
15.690000	25.294100
15.700000	25.294100
15.710000	25.294100
15.720000	25.294100
15.730000	25.294100
15.740000	25.294100
15.750000	25.294100
15.760000	25.294100
15.770000	25.294100
15.780000	25.294100
15.790000	25.294100
15.800000	25.294100
15.810000	25.294100
15.820000	25.294100
15.830000	25.294100
15.840000	25.294100
15.850000	25.294100
15.860000	25.294100
15.870000	25.294100
15.880000	25.294100
15.890000	25.294100
15.900000	25.294100
15.910000	25.294100
15.920000	25.294100
15.930000	25.294100
15.940000	25.294100
15.950000	25.294100
15.960000	25.294100
15.970000	25.294100
15.980000	25.294100
15.990000	25.294100
16.000000	25.290036
16.010000	25.290036
16.020000	25.290036
16.030000	25.290036
16.040000	25.290036
16.050000	25.290036
16.060000	25.290036
16.070000	25.290036
16.080000	25.290036
16.090000	25.290036
16.100000	25.290036
16.110000	25.290036
16.120000	25.290036
16.130000	25.290036
16.140000	25.290036
16.150000	25.290036
16.160000	25.290036
16.170000	25.290036
16.180000	25.290036
16.190000	25.290036
16.200000	25.290036
16.210000	25.290036
16.220000	25.290036
16.230000	25.290036
16.240000	25.290036
16.250000	25.290036
16.260000	25.290036
16.270000	25.290036
16.280000	25.290036
16.290000	25.290036
16.300000	25.290036
16.310000	25.290036
16.320000	25.290036
16.330000	25.290036
16.340000	25.290036
16.350000	25.290036
16.360000	25.290036
16.370000	25.290036
16.380000	25.290036
16.390000	25.290036
16.400000	25.290036
16.410000	25.290036
16.420000	25.290036
16.430000	25.290036
16.440000	25.290036
16.450000	25.290036
16.460000	25.290036
16.470000	25.290036
16.480000	25.290036
16.490000	25.290036
16.500000	25.286074
16.510000	25.286074
16.520000	25.286074
16.530000	25.286074
16.540000	25.286074
16.550000	25.286074
16.560000	25.286074
16.570000	25.286074
16.580000	25.286074
16.590000	25.286074
16.600000	25.286074
16.610000	25.286074
16.620000	25.286074
16.630000	25.286074
16.640000	25.286074
16.650000	25.286074
16.660000	25.286074
16.670000	25.286074
16.680000	25.286074
16.690000	25.286074
16.700000	25.286074
16.710000	25.286074
16.720000	25.286074
16.730000	25.286074
16.740000	25.286074
16.750000	25.286074
16.760000	25.286074
16.770000	25.286074
16.780000	25.286074
16.790000	25.286074
16.800000	25.286074
16.810000	25.286074
16.820000	25.286074
16.830000	25.286074
16.840000	25.286074
16.850000	25.286074
16.860000	25.286074
16.870000	25.286074
16.880000	25.286074
16.890000	25.286074
16.900000	25.286074
16.910000	25.286074
16.920000	25.286074
16.930000	25.286074
16.940000	25.286074
16.950000	25.286074
16.960000	25.286074
16.970000	25.286074
16.980000	25.286074
16.990000	25.286074
17.000000	25.281743
17.010000	25.281743
17.020000	25.281743
17.030000	25.281743
17.040000	25.281743
17.050000	25.281743
17.060000	25.281743
17.070000	25.281743
17.080000	25.281743
17.090000	25.281743
17.100000	25.281743
17.110000	25.281743
17.120000	25.281743
17.130000	25.281743
17.140000	25.281743
17.150000	25.281743
17.160000	25.281743
17.170000	25.281743
17.180000	25.281743
17.190000	25.281743
17.200000	25.281743
17.210000	25.281743
17.220000	25.281743
17.230000	25.281743
17.240000	25.281743
17.250000	25.281743
17.260000	25.281743
17.270000	25.281743
17.280000	25.281743
17.290000	25.281743
17.300000	25.281743
17.310000	25.281743
17.320000	25.281743
17.330000	25.281743
17.340000	25.281743
17.350000	25.281743
17.360000	25.281743
17.370000	25.281743
17.380000	25.281743
17.390000	25.281743
17.400000	25.281743
17.410000	25.281743
17.420000	25.281743
17.430000	25.281743
17.440000	25.281743
17.450000	25.281743
17.460000	25.281743
17.470000	25.281743
17.480000	25.281743
17.490000	25.281743
17.500000	25.276992
17.510000	25.276992
17.520000	25.276992
17.530000	25.276992
17.540000	25.276992
17.550000	25.276992
17.560000	25.276992
17.570000	25.276992
17.580000	25.276992
17.590000	25.276992
17.600000	25.276992
17.610000	25.276992
17.620000	25.276992
17.630000	25.276992
17.640000	25.276992
17.650000	25.276992
17.660000	25.276992
17.670000	25.276992
17.680000	25.276992
17.690000	25.276992
