LabVIEW Measurement	
Writer_Version	2
Reader_Version	2
Separator	Tab
Decimal_Separator	.
Multi_Headings	No
X_Columns	One
Time_Pref	Absolute
Operator	biomech-dyno
Date	2023/05/24
Time	17:17:03.6544158999996145439
***End_of_Header***	
	
Channels	1	
Samples	10	
Date	2023/05/24	
Time	17:19:17.2133967999998429011	
X_Dimension	Time	
X0	0.0000000000000000E+0	
Delta_X	0.010000	
***End_of_Header***		
X_Value	Untitled	Comment
0.000000	24.711964
0.010000	24.711964
0.020000	24.711964
0.030000	24.711964
0.040000	24.711964
0.050000	24.711964
0.060000	24.711964
0.070000	24.711964
0.080000	24.711964
0.090000	24.711964
0.100000	24.711964
0.110000	24.711964
0.120000	24.711964
0.130000	24.711964
0.140000	24.711964
0.150000	24.711964
0.160000	24.711964
0.170000	24.711964
0.180000	24.711964
0.190000	24.711964
0.200000	24.711964
0.210000	24.711964
0.220000	24.711964
0.230000	24.711964
0.240000	24.711964
0.250000	24.711964
0.260000	24.711964
0.270000	24.711964
0.280000	24.711964
0.290000	24.711964
0.300000	24.711964
0.310000	24.711964
0.320000	24.711964
0.330000	24.711964
0.340000	24.711964
0.350000	24.711964
0.360000	24.711964
0.370000	24.711964
0.380000	24.711964
0.390000	24.711964
0.400000	24.711964
0.410000	24.711964
0.420000	24.711964
0.430000	24.711964
0.440000	24.711964
0.450000	24.711964
0.460000	24.711964
0.470000	24.711964
0.480000	24.711964
0.490000	24.711964
0.500000	24.721075
0.510000	24.721075
0.520000	24.721075
0.530000	24.721075
0.540000	24.721075
0.550000	24.721075
0.560000	24.721075
0.570000	24.721075
0.580000	24.721075
0.590000	24.721075
0.600000	24.721075
0.610000	24.721075
0.620000	24.721075
0.630000	24.721075
0.640000	24.721075
0.650000	24.721075
0.660000	24.721075
0.670000	24.721075
0.680000	24.721075
0.690000	24.721075
0.700000	24.721075
0.710000	24.721075
0.720000	24.721075
0.730000	24.721075
0.740000	24.721075
0.750000	24.721075
0.760000	24.721075
0.770000	24.721075
0.780000	24.721075
0.790000	24.721075
0.800000	24.721075
0.810000	24.721075
0.820000	24.721075
0.830000	24.721075
0.840000	24.721075
0.850000	24.721075
0.860000	24.721075
0.870000	24.721075
0.880000	24.721075
0.890000	24.721075
0.900000	24.721075
0.910000	24.721075
0.920000	24.721075
0.930000	24.721075
0.940000	24.721075
0.950000	24.721075
0.960000	24.721075
0.970000	24.721075
0.980000	24.721075
0.990000	24.721075
1.000000	24.759801
1.010000	24.759801
1.020000	24.759801
1.030000	24.759801
1.040000	24.759801
1.050000	24.759801
1.060000	24.759801
1.070000	24.759801
1.080000	24.759801
1.090000	24.759801
1.100000	24.759801
1.110000	24.759801
1.120000	24.759801
1.130000	24.759801
1.140000	24.759801
1.150000	24.759801
1.160000	24.759801
1.170000	24.759801
1.180000	24.759801
1.190000	24.759801
1.200000	24.759801
1.210000	24.759801
1.220000	24.759801
1.230000	24.759801
1.240000	24.759801
1.250000	24.759801
1.260000	24.759801
1.270000	24.759801
1.280000	24.759801
1.290000	24.759801
1.300000	24.759801
1.310000	24.759801
1.320000	24.759801
1.330000	24.759801
1.340000	24.759801
1.350000	24.759801
1.360000	24.759801
1.370000	24.759801
1.380000	24.759801
1.390000	24.759801
1.400000	24.759801
1.410000	24.759801
1.420000	24.759801
1.430000	24.759801
1.440000	24.759801
1.450000	24.759801
1.460000	24.759801
1.470000	24.759801
1.480000	24.759801
1.490000	24.759801
1.500000	24.842179
1.510000	24.842179
1.520000	24.842179
1.530000	24.842179
1.540000	24.842179
1.550000	24.842179
1.560000	24.842179
1.570000	24.842179
1.580000	24.842179
1.590000	24.842179
1.600000	24.842179
1.610000	24.842179
1.620000	24.842179
1.630000	24.842179
1.640000	24.842179
1.650000	24.842179
1.660000	24.842179
1.670000	24.842179
1.680000	24.842179
1.690000	24.842179
1.700000	24.842179
1.710000	24.842179
1.720000	24.842179
1.730000	24.842179
1.740000	24.842179
1.750000	24.842179
1.760000	24.842179
1.770000	24.842179
1.780000	24.842179
1.790000	24.842179
1.800000	24.842179
1.810000	24.842179
1.820000	24.842179
1.830000	24.842179
1.840000	24.842179
1.850000	24.842179
1.860000	24.842179
1.870000	24.842179
1.880000	24.842179
1.890000	24.842179
1.900000	24.842179
1.910000	24.842179
1.920000	24.842179
1.930000	24.842179
1.940000	24.842179
1.950000	24.842179
1.960000	24.842179
1.970000	24.842179
1.980000	24.842179
1.990000	24.842179
2.000000	24.961139
2.010000	24.961139
2.020000	24.961139
2.030000	24.961139
2.040000	24.961139
2.050000	24.961139
2.060000	24.961139
2.070000	24.961139
2.080000	24.961139
2.090000	24.961139
2.100000	24.961139
2.110000	24.961139
2.120000	24.961139
2.130000	24.961139
2.140000	24.961139
2.150000	24.961139
2.160000	24.961139
2.170000	24.961139
2.180000	24.961139
2.190000	24.961139
2.200000	24.961139
2.210000	24.961139
2.220000	24.961139
2.230000	24.961139
2.240000	24.961139
2.250000	24.961139
2.260000	24.961139
2.270000	24.961139
2.280000	24.961139
2.290000	24.961139
2.300000	24.961139
2.310000	24.961139
2.320000	24.961139
2.330000	24.961139
2.340000	24.961139
2.350000	24.961139
2.360000	24.961139
2.370000	24.961139
2.380000	24.961139
2.390000	24.961139
2.400000	24.961139
2.410000	24.961139
2.420000	24.961139
2.430000	24.961139
2.440000	24.961139
2.450000	24.961139
2.460000	24.961139
2.470000	24.961139
2.480000	24.961139
2.490000	24.961139
2.500000	25.108707
2.510000	25.108707
2.520000	25.108707
2.530000	25.108707
2.540000	25.108707
2.550000	25.108707
2.560000	25.108707
2.570000	25.108707
2.580000	25.108707
2.590000	25.108707
2.600000	25.108707
2.610000	25.108707
2.620000	25.108707
2.630000	25.108707
2.640000	25.108707
2.650000	25.108707
2.660000	25.108707
2.670000	25.108707
2.680000	25.108707
2.690000	25.108707
2.700000	25.108707
2.710000	25.108707
2.720000	25.108707
2.730000	25.108707
2.740000	25.108707
2.750000	25.108707
2.760000	25.108707
2.770000	25.108707
2.780000	25.108707
2.790000	25.108707
2.800000	25.108707
2.810000	25.108707
2.820000	25.108707
2.830000	25.108707
2.840000	25.108707
2.850000	25.108707
2.860000	25.108707
2.870000	25.108707
2.880000	25.108707
2.890000	25.108707
2.900000	25.108707
2.910000	25.108707
2.920000	25.108707
2.930000	25.108707
2.940000	25.108707
2.950000	25.108707
2.960000	25.108707
2.970000	25.108707
2.980000	25.108707
2.990000	25.108707
3.000000	25.274375
3.010000	25.274375
3.020000	25.274375
3.030000	25.274375
3.040000	25.274375
3.050000	25.274375
3.060000	25.274375
3.070000	25.274375
3.080000	25.274375
3.090000	25.274375
3.100000	25.274375
3.110000	25.274375
3.120000	25.274375
3.130000	25.274375
3.140000	25.274375
3.150000	25.274375
3.160000	25.274375
3.170000	25.274375
3.180000	25.274375
3.190000	25.274375
3.200000	25.274375
3.210000	25.274375
3.220000	25.274375
3.230000	25.274375
3.240000	25.274375
3.250000	25.274375
3.260000	25.274375
3.270000	25.274375
3.280000	25.274375
3.290000	25.274375
3.300000	25.274375
3.310000	25.274375
3.320000	25.274375
3.330000	25.274375
3.340000	25.274375
3.350000	25.274375
3.360000	25.274375
3.370000	25.274375
3.380000	25.274375
3.390000	25.274375
3.400000	25.274375
3.410000	25.274375
3.420000	25.274375
3.430000	25.274375
3.440000	25.274375
3.450000	25.274375
3.460000	25.274375
3.470000	25.274375
3.480000	25.274375
3.490000	25.274375
3.500000	25.428871
3.510000	25.428871
3.520000	25.428871
3.530000	25.428871
3.540000	25.428871
3.550000	25.428871
3.560000	25.428871
3.570000	25.428871
3.580000	25.428871
3.590000	25.428871
3.600000	25.428871
3.610000	25.428871
3.620000	25.428871
3.630000	25.428871
3.640000	25.428871
3.650000	25.428871
3.660000	25.428871
3.670000	25.428871
3.680000	25.428871
3.690000	25.428871
3.700000	25.428871
3.710000	25.428871
3.720000	25.428871
3.730000	25.428871
3.740000	25.428871
3.750000	25.428871
3.760000	25.428871
3.770000	25.428871
3.780000	25.428871
3.790000	25.428871
3.800000	25.428871
3.810000	25.428871
3.820000	25.428871
3.830000	25.428871
3.840000	25.428871
3.850000	25.428871
3.860000	25.428871
3.870000	25.428871
3.880000	25.428871
3.890000	25.428871
3.900000	25.428871
3.910000	25.428871
3.920000	25.428871
3.930000	25.428871
3.940000	25.428871
3.950000	25.428871
3.960000	25.428871
3.970000	25.428871
3.980000	25.428871
3.990000	25.428871
4.000000	25.544594
4.010000	25.544594
4.020000	25.544594
4.030000	25.544594
4.040000	25.544594
4.050000	25.544594
4.060000	25.544594
4.070000	25.544594
4.080000	25.544594
4.090000	25.544594
4.100000	25.544594
4.110000	25.544594
4.120000	25.544594
4.130000	25.544594
4.140000	25.544594
4.150000	25.544594
4.160000	25.544594
4.170000	25.544594
4.180000	25.544594
4.190000	25.544594
4.200000	25.544594
4.210000	25.544594
4.220000	25.544594
4.230000	25.544594
4.240000	25.544594
4.250000	25.544594
4.260000	25.544594
4.270000	25.544594
4.280000	25.544594
4.290000	25.544594
4.300000	25.544594
4.310000	25.544594
4.320000	25.544594
4.330000	25.544594
4.340000	25.544594
4.350000	25.544594
4.360000	25.544594
4.370000	25.544594
4.380000	25.544594
4.390000	25.544594
4.400000	25.544594
4.410000	25.544594
4.420000	25.544594
4.430000	25.544594
4.440000	25.544594
4.450000	25.544594
4.460000	25.544594
4.470000	25.544594
4.480000	25.544594
4.490000	25.544594
4.500000	25.629483
4.510000	25.629483
4.520000	25.629483
4.530000	25.629483
4.540000	25.629483
4.550000	25.629483
4.560000	25.629483
4.570000	25.629483
4.580000	25.629483
4.590000	25.629483
4.600000	25.629483
4.610000	25.629483
4.620000	25.629483
4.630000	25.629483
4.640000	25.629483
4.650000	25.629483
4.660000	25.629483
4.670000	25.629483
4.680000	25.629483
4.690000	25.629483
4.700000	25.629483
4.710000	25.629483
4.720000	25.629483
4.730000	25.629483
4.740000	25.629483
4.750000	25.629483
4.760000	25.629483
4.770000	25.629483
4.780000	25.629483
4.790000	25.629483
4.800000	25.629483
4.810000	25.629483
4.820000	25.629483
4.830000	25.629483
4.840000	25.629483
4.850000	25.629483
4.860000	25.629483
4.870000	25.629483
4.880000	25.629483
4.890000	25.629483
4.900000	25.629483
4.910000	25.629483
4.920000	25.629483
4.930000	25.629483
4.940000	25.629483
4.950000	25.629483
4.960000	25.629483
4.970000	25.629483
4.980000	25.629483
4.990000	25.629483
5.000000	25.692655
5.010000	25.692655
5.020000	25.692655
5.030000	25.692655
5.040000	25.692655
5.050000	25.692655
5.060000	25.692655
5.070000	25.692655
5.080000	25.692655
5.090000	25.692655
5.100000	25.692655
5.110000	25.692655
5.120000	25.692655
5.130000	25.692655
5.140000	25.692655
5.150000	25.692655
5.160000	25.692655
5.170000	25.692655
5.180000	25.692655
5.190000	25.692655
5.200000	25.692655
5.210000	25.692655
5.220000	25.692655
5.230000	25.692655
5.240000	25.692655
5.250000	25.692655
5.260000	25.692655
5.270000	25.692655
5.280000	25.692655
5.290000	25.692655
5.300000	25.692655
5.310000	25.692655
5.320000	25.692655
5.330000	25.692655
5.340000	25.692655
5.350000	25.692655
5.360000	25.692655
5.370000	25.692655
5.380000	25.692655
5.390000	25.692655
5.400000	25.692655
5.410000	25.692655
5.420000	25.692655
5.430000	25.692655
5.440000	25.692655
5.450000	25.692655
5.460000	25.692655
5.470000	25.692655
5.480000	25.692655
5.490000	25.692655
5.500000	25.735815
5.510000	25.735815
5.520000	25.735815
5.530000	25.735815
5.540000	25.735815
5.550000	25.735815
5.560000	25.735815
5.570000	25.735815
5.580000	25.735815
5.590000	25.735815
5.600000	25.735815
5.610000	25.735815
5.620000	25.735815
5.630000	25.735815
5.640000	25.735815
5.650000	25.735815
5.660000	25.735815
5.670000	25.735815
5.680000	25.735815
5.690000	25.735815
5.700000	25.735815
5.710000	25.735815
5.720000	25.735815
5.730000	25.735815
5.740000	25.735815
5.750000	25.735815
5.760000	25.735815
5.770000	25.735815
5.780000	25.735815
5.790000	25.735815
5.800000	25.735815
5.810000	25.735815
5.820000	25.735815
5.830000	25.735815
5.840000	25.735815
5.850000	25.735815
5.860000	25.735815
5.870000	25.735815
5.880000	25.735815
5.890000	25.735815
5.900000	25.735815
5.910000	25.735815
5.920000	25.735815
5.930000	25.735815
5.940000	25.735815
5.950000	25.735815
5.960000	25.735815
5.970000	25.735815
5.980000	25.735815
5.990000	25.735815
6.000000	25.766183
6.010000	25.766183
6.020000	25.766183
6.030000	25.766183
6.040000	25.766183
6.050000	25.766183
6.060000	25.766183
6.070000	25.766183
6.080000	25.766183
6.090000	25.766183
6.100000	25.766183
6.110000	25.766183
6.120000	25.766183
6.130000	25.766183
6.140000	25.766183
6.150000	25.766183
6.160000	25.766183
6.170000	25.766183
6.180000	25.766183
6.190000	25.766183
6.200000	25.766183
6.210000	25.766183
6.220000	25.766183
6.230000	25.766183
6.240000	25.766183
6.250000	25.766183
6.260000	25.766183
6.270000	25.766183
6.280000	25.766183
6.290000	25.766183
6.300000	25.766183
6.310000	25.766183
6.320000	25.766183
6.330000	25.766183
6.340000	25.766183
6.350000	25.766183
6.360000	25.766183
6.370000	25.766183
6.380000	25.766183
6.390000	25.766183
6.400000	25.766183
6.410000	25.766183
6.420000	25.766183
6.430000	25.766183
6.440000	25.766183
6.450000	25.766183
6.460000	25.766183
6.470000	25.766183
6.480000	25.766183
6.490000	25.766183
6.500000	25.786408
6.510000	25.786408
6.520000	25.786408
6.530000	25.786408
6.540000	25.786408
6.550000	25.786408
6.560000	25.786408
6.570000	25.786408
6.580000	25.786408
6.590000	25.786408
6.600000	25.786408
6.610000	25.786408
6.620000	25.786408
6.630000	25.786408
6.640000	25.786408
6.650000	25.786408
6.660000	25.786408
6.670000	25.786408
6.680000	25.786408
6.690000	25.786408
6.700000	25.786408
6.710000	25.786408
6.720000	25.786408
6.730000	25.786408
6.740000	25.786408
6.750000	25.786408
6.760000	25.786408
6.770000	25.786408
6.780000	25.786408
6.790000	25.786408
6.800000	25.786408
6.810000	25.786408
6.820000	25.786408
6.830000	25.786408
6.840000	25.786408
6.850000	25.786408
6.860000	25.786408
6.870000	25.786408
6.880000	25.786408
6.890000	25.786408
6.900000	25.786408
6.910000	25.786408
6.920000	25.786408
6.930000	25.786408
6.940000	25.786408
6.950000	25.786408
6.960000	25.786408
6.970000	25.786408
6.980000	25.786408
6.990000	25.786408
7.000000	25.799147
7.010000	25.799147
7.020000	25.799147
7.030000	25.799147
7.040000	25.799147
7.050000	25.799147
7.060000	25.799147
7.070000	25.799147
7.080000	25.799147
7.090000	25.799147
7.100000	25.799147
7.110000	25.799147
7.120000	25.799147
7.130000	25.799147
7.140000	25.799147
7.150000	25.799147
7.160000	25.799147
7.170000	25.799147
7.180000	25.799147
7.190000	25.799147
7.200000	25.799147
7.210000	25.799147
7.220000	25.799147
7.230000	25.799147
7.240000	25.799147
7.250000	25.799147
7.260000	25.799147
7.270000	25.799147
7.280000	25.799147
7.290000	25.799147
7.300000	25.799147
7.310000	25.799147
7.320000	25.799147
7.330000	25.799147
7.340000	25.799147
7.350000	25.799147
7.360000	25.799147
7.370000	25.799147
7.380000	25.799147
7.390000	25.799147
7.400000	25.799147
7.410000	25.799147
7.420000	25.799147
7.430000	25.799147
7.440000	25.799147
7.450000	25.799147
7.460000	25.799147
7.470000	25.799147
7.480000	25.799147
7.490000	25.799147
7.500000	25.804901
7.510000	25.804901
7.520000	25.804901
7.530000	25.804901
7.540000	25.804901
7.550000	25.804901
7.560000	25.804901
7.570000	25.804901
7.580000	25.804901
7.590000	25.804901
7.600000	25.804901
7.610000	25.804901
7.620000	25.804901
7.630000	25.804901
7.640000	25.804901
7.650000	25.804901
7.660000	25.804901
7.670000	25.804901
7.680000	25.804901
7.690000	25.804901
7.700000	25.804901
7.710000	25.804901
7.720000	25.804901
7.730000	25.804901
7.740000	25.804901
7.750000	25.804901
7.760000	25.804901
7.770000	25.804901
7.780000	25.804901
7.790000	25.804901
7.800000	25.804901
7.810000	25.804901
7.820000	25.804901
7.830000	25.804901
7.840000	25.804901
7.850000	25.804901
7.860000	25.804901
7.870000	25.804901
7.880000	25.804901
7.890000	25.804901
7.900000	25.804901
7.910000	25.804901
7.920000	25.804901
7.930000	25.804901
7.940000	25.804901
7.950000	25.804901
7.960000	25.804901
7.970000	25.804901
7.980000	25.804901
7.990000	25.804901
8.000000	25.804129
8.010000	25.804129
8.020000	25.804129
8.030000	25.804129
8.040000	25.804129
8.050000	25.804129
8.060000	25.804129
8.070000	25.804129
8.080000	25.804129
8.090000	25.804129
8.100000	25.804129
8.110000	25.804129
8.120000	25.804129
8.130000	25.804129
8.140000	25.804129
8.150000	25.804129
8.160000	25.804129
8.170000	25.804129
8.180000	25.804129
8.190000	25.804129
8.200000	25.804129
8.210000	25.804129
8.220000	25.804129
8.230000	25.804129
8.240000	25.804129
8.250000	25.804129
8.260000	25.804129
8.270000	25.804129
8.280000	25.804129
8.290000	25.804129
8.300000	25.804129
8.310000	25.804129
8.320000	25.804129
8.330000	25.804129
8.340000	25.804129
8.350000	25.804129
8.360000	25.804129
8.370000	25.804129
8.380000	25.804129
8.390000	25.804129
8.400000	25.804129
8.410000	25.804129
8.420000	25.804129
8.430000	25.804129
8.440000	25.804129
8.450000	25.804129
8.460000	25.804129
8.470000	25.804129
8.480000	25.804129
8.490000	25.804129
8.500000	25.799699
8.510000	25.799699
8.520000	25.799699
8.530000	25.799699
8.540000	25.799699
8.550000	25.799699
8.560000	25.799699
8.570000	25.799699
8.580000	25.799699
8.590000	25.799699
8.600000	25.799699
8.610000	25.799699
8.620000	25.799699
8.630000	25.799699
8.640000	25.799699
8.650000	25.799699
8.660000	25.799699
8.670000	25.799699
8.680000	25.799699
8.690000	25.799699
8.700000	25.799699
8.710000	25.799699
8.720000	25.799699
8.730000	25.799699
8.740000	25.799699
8.750000	25.799699
8.760000	25.799699
8.770000	25.799699
8.780000	25.799699
8.790000	25.799699
8.800000	25.799699
8.810000	25.799699
8.820000	25.799699
8.830000	25.799699
8.840000	25.799699
8.850000	25.799699
8.860000	25.799699
8.870000	25.799699
8.880000	25.799699
8.890000	25.799699
8.900000	25.799699
8.910000	25.799699
8.920000	25.799699
8.930000	25.799699
8.940000	25.799699
8.950000	25.799699
8.960000	25.799699
8.970000	25.799699
8.980000	25.799699
8.990000	25.799699
9.000000	25.793020
9.010000	25.793020
9.020000	25.793020
9.030000	25.793020
9.040000	25.793020
9.050000	25.793020
9.060000	25.793020
9.070000	25.793020
9.080000	25.793020
9.090000	25.793020
9.100000	25.793020
9.110000	25.793020
9.120000	25.793020
9.130000	25.793020
9.140000	25.793020
9.150000	25.793020
9.160000	25.793020
9.170000	25.793020
9.180000	25.793020
9.190000	25.793020
9.200000	25.793020
9.210000	25.793020
9.220000	25.793020
9.230000	25.793020
9.240000	25.793020
9.250000	25.793020
9.260000	25.793020
9.270000	25.793020
9.280000	25.793020
9.290000	25.793020
9.300000	25.793020
9.310000	25.793020
9.320000	25.793020
9.330000	25.793020
9.340000	25.793020
9.350000	25.793020
9.360000	25.793020
9.370000	25.793020
9.380000	25.793020
9.390000	25.793020
9.400000	25.793020
9.410000	25.793020
9.420000	25.793020
9.430000	25.793020
9.440000	25.793020
9.450000	25.793020
9.460000	25.793020
9.470000	25.793020
9.480000	25.793020
9.490000	25.793020
9.500000	25.783173
9.510000	25.783173
9.520000	25.783173
9.530000	25.783173
9.540000	25.783173
9.550000	25.783173
9.560000	25.783173
9.570000	25.783173
9.580000	25.783173
9.590000	25.783173
9.600000	25.783173
9.610000	25.783173
9.620000	25.783173
9.630000	25.783173
9.640000	25.783173
9.650000	25.783173
9.660000	25.783173
9.670000	25.783173
9.680000	25.783173
9.690000	25.783173
9.700000	25.783173
9.710000	25.783173
9.720000	25.783173
9.730000	25.783173
9.740000	25.783173
9.750000	25.783173
9.760000	25.783173
9.770000	25.783173
9.780000	25.783173
9.790000	25.783173
9.800000	25.783173
9.810000	25.783173
9.820000	25.783173
9.830000	25.783173
9.840000	25.783173
9.850000	25.783173
9.860000	25.783173
9.870000	25.783173
9.880000	25.783173
9.890000	25.783173
9.900000	25.783173
9.910000	25.783173
9.920000	25.783173
9.930000	25.783173
9.940000	25.783173
9.950000	25.783173
9.960000	25.783173
9.970000	25.783173
9.980000	25.783173
9.990000	25.783173
10.000000	25.772484
10.010000	25.772484
10.020000	25.772484
10.030000	25.772484
10.040000	25.772484
10.050000	25.772484
10.060000	25.772484
10.070000	25.772484
10.080000	25.772484
10.090000	25.772484
10.100000	25.772484
10.110000	25.772484
10.120000	25.772484
10.130000	25.772484
10.140000	25.772484
10.150000	25.772484
10.160000	25.772484
10.170000	25.772484
10.180000	25.772484
10.190000	25.772484
10.200000	25.772484
10.210000	25.772484
10.220000	25.772484
10.230000	25.772484
10.240000	25.772484
10.250000	25.772484
10.260000	25.772484
10.270000	25.772484
10.280000	25.772484
10.290000	25.772484
10.300000	25.772484
10.310000	25.772484
10.320000	25.772484
10.330000	25.772484
10.340000	25.772484
10.350000	25.772484
10.360000	25.772484
10.370000	25.772484
10.380000	25.772484
10.390000	25.772484
10.400000	25.772484
10.410000	25.772484
10.420000	25.772484
10.430000	25.772484
10.440000	25.772484
10.450000	25.772484
10.460000	25.772484
10.470000	25.772484
10.480000	25.772484
10.490000	25.772484
10.500000	25.760340
10.510000	25.760340
10.520000	25.760340
10.530000	25.760340
10.540000	25.760340
10.550000	25.760340
10.560000	25.760340
10.570000	25.760340
10.580000	25.760340
10.590000	25.760340
10.600000	25.760340
10.610000	25.760340
10.620000	25.760340
10.630000	25.760340
10.640000	25.760340
10.650000	25.760340
10.660000	25.760340
10.670000	25.760340
10.680000	25.760340
10.690000	25.760340
10.700000	25.760340
10.710000	25.760340
10.720000	25.760340
10.730000	25.760340
10.740000	25.760340
10.750000	25.760340
10.760000	25.760340
10.770000	25.760340
10.780000	25.760340
10.790000	25.760340
10.800000	25.760340
10.810000	25.760340
10.820000	25.760340
10.830000	25.760340
10.840000	25.760340
10.850000	25.760340
10.860000	25.760340
10.870000	25.760340
10.880000	25.760340
10.890000	25.760340
10.900000	25.760340
10.910000	25.760340
10.920000	25.760340
10.930000	25.760340
10.940000	25.760340
10.950000	25.760340
10.960000	25.760340
10.970000	25.760340
10.980000	25.760340
10.990000	25.760340
11.000000	25.746571
11.010000	25.746571
11.020000	25.746571
11.030000	25.746571
11.040000	25.746571
11.050000	25.746571
11.060000	25.746571
11.070000	25.746571
11.080000	25.746571
11.090000	25.746571
11.100000	25.746571
11.110000	25.746571
11.120000	25.746571
11.130000	25.746571
11.140000	25.746571
11.150000	25.746571
11.160000	25.746571
11.170000	25.746571
11.180000	25.746571
11.190000	25.746571
11.200000	25.746571
11.210000	25.746571
11.220000	25.746571
11.230000	25.746571
11.240000	25.746571
11.250000	25.746571
11.260000	25.746571
11.270000	25.746571
11.280000	25.746571
11.290000	25.746571
11.300000	25.746571
11.310000	25.746571
11.320000	25.746571
11.330000	25.746571
11.340000	25.746571
11.350000	25.746571
11.360000	25.746571
11.370000	25.746571
11.380000	25.746571
11.390000	25.746571
11.400000	25.746571
11.410000	25.746571
11.420000	25.746571
11.430000	25.746571
11.440000	25.746571
11.450000	25.746571
11.460000	25.746571
11.470000	25.746571
11.480000	25.746571
11.490000	25.746571
11.500000	25.732263
11.510000	25.732263
11.520000	25.732263
11.530000	25.732263
11.540000	25.732263
11.550000	25.732263
11.560000	25.732263
11.570000	25.732263
11.580000	25.732263
11.590000	25.732263
11.600000	25.732263
11.610000	25.732263
11.620000	25.732263
11.630000	25.732263
11.640000	25.732263
11.650000	25.732263
11.660000	25.732263
11.670000	25.732263
11.680000	25.732263
11.690000	25.732263
11.700000	25.732263
11.710000	25.732263
11.720000	25.732263
11.730000	25.732263
11.740000	25.732263
11.750000	25.732263
11.760000	25.732263
11.770000	25.732263
11.780000	25.732263
11.790000	25.732263
11.800000	25.732263
11.810000	25.732263
11.820000	25.732263
11.830000	25.732263
11.840000	25.732263
11.850000	25.732263
11.860000	25.732263
11.870000	25.732263
11.880000	25.732263
11.890000	25.732263
11.900000	25.732263
11.910000	25.732263
11.920000	25.732263
11.930000	25.732263
11.940000	25.732263
11.950000	25.732263
11.960000	25.732263
11.970000	25.732263
11.980000	25.732263
11.990000	25.732263
12.000000	25.717593
12.010000	25.717593
12.020000	25.717593
12.030000	25.717593
12.040000	25.717593
12.050000	25.717593
12.060000	25.717593
12.070000	25.717593
12.080000	25.717593
12.090000	25.717593
12.100000	25.717593
12.110000	25.717593
12.120000	25.717593
12.130000	25.717593
12.140000	25.717593
12.150000	25.717593
12.160000	25.717593
12.170000	25.717593
12.180000	25.717593
12.190000	25.717593
12.200000	25.717593
12.210000	25.717593
12.220000	25.717593
12.230000	25.717593
12.240000	25.717593
12.250000	25.717593
12.260000	25.717593
12.270000	25.717593
12.280000	25.717593
12.290000	25.717593
12.300000	25.717593
12.310000	25.717593
12.320000	25.717593
12.330000	25.717593
12.340000	25.717593
12.350000	25.717593
12.360000	25.717593
12.370000	25.717593
12.380000	25.717593
12.390000	25.717593
12.400000	25.717593
12.410000	25.717593
12.420000	25.717593
12.430000	25.717593
12.440000	25.717593
12.450000	25.717593
12.460000	25.717593
12.470000	25.717593
12.480000	25.717593
12.490000	25.717593
12.500000	25.700861
12.510000	25.700861
12.520000	25.700861
12.530000	25.700861
12.540000	25.700861
12.550000	25.700861
12.560000	25.700861
12.570000	25.700861
12.580000	25.700861
12.590000	25.700861
12.600000	25.700861
12.610000	25.700861
12.620000	25.700861
12.630000	25.700861
12.640000	25.700861
12.650000	25.700861
12.660000	25.700861
12.670000	25.700861
12.680000	25.700861
12.690000	25.700861
12.700000	25.700861
12.710000	25.700861
12.720000	25.700861
12.730000	25.700861
12.740000	25.700861
12.750000	25.700861
12.760000	25.700861
12.770000	25.700861
12.780000	25.700861
12.790000	25.700861
12.800000	25.700861
12.810000	25.700861
12.820000	25.700861
12.830000	25.700861
12.840000	25.700861
12.850000	25.700861
12.860000	25.700861
12.870000	25.700861
12.880000	25.700861
12.890000	25.700861
12.900000	25.700861
12.910000	25.700861
12.920000	25.700861
12.930000	25.700861
12.940000	25.700861
12.950000	25.700861
12.960000	25.700861
12.970000	25.700861
12.980000	25.700861
12.990000	25.700861
13.000000	25.684923
13.010000	25.684923
13.020000	25.684923
13.030000	25.684923
13.040000	25.684923
13.050000	25.684923
13.060000	25.684923
13.070000	25.684923
13.080000	25.684923
13.090000	25.684923
13.100000	25.684923
13.110000	25.684923
13.120000	25.684923
13.130000	25.684923
13.140000	25.684923
13.150000	25.684923
13.160000	25.684923
13.170000	25.684923
13.180000	25.684923
13.190000	25.684923
13.200000	25.684923
13.210000	25.684923
13.220000	25.684923
13.230000	25.684923
13.240000	25.684923
13.250000	25.684923
13.260000	25.684923
13.270000	25.684923
13.280000	25.684923
13.290000	25.684923
13.300000	25.684923
13.310000	25.684923
13.320000	25.684923
13.330000	25.684923
13.340000	25.684923
13.350000	25.684923
13.360000	25.684923
13.370000	25.684923
13.380000	25.684923
13.390000	25.684923
13.400000	25.684923
13.410000	25.684923
13.420000	25.684923
13.430000	25.684923
13.440000	25.684923
13.450000	25.684923
13.460000	25.684923
13.470000	25.684923
13.480000	25.684923
13.490000	25.684923
13.500000	25.669014
13.510000	25.669014
13.520000	25.669014
13.530000	25.669014
13.540000	25.669014
13.550000	25.669014
13.560000	25.669014
13.570000	25.669014
13.580000	25.669014
13.590000	25.669014
13.600000	25.669014
13.610000	25.669014
13.620000	25.669014
13.630000	25.669014
13.640000	25.669014
13.650000	25.669014
13.660000	25.669014
13.670000	25.669014
13.680000	25.669014
13.690000	25.669014
13.700000	25.669014
13.710000	25.669014
13.720000	25.669014
13.730000	25.669014
13.740000	25.669014
13.750000	25.669014
13.760000	25.669014
13.770000	25.669014
13.780000	25.669014
13.790000	25.669014
13.800000	25.669014
13.810000	25.669014
13.820000	25.669014
13.830000	25.669014
13.840000	25.669014
13.850000	25.669014
13.860000	25.669014
13.870000	25.669014
13.880000	25.669014
13.890000	25.669014
13.900000	25.669014
13.910000	25.669014
13.920000	25.669014
13.930000	25.669014
13.940000	25.669014
13.950000	25.669014
13.960000	25.669014
13.970000	25.669014
13.980000	25.669014
13.990000	25.669014
14.000000	25.652904
14.010000	25.652904
14.020000	25.652904
14.030000	25.652904
14.040000	25.652904
14.050000	25.652904
14.060000	25.652904
14.070000	25.652904
14.080000	25.652904
14.090000	25.652904
14.100000	25.652904
14.110000	25.652904
14.120000	25.652904
14.130000	25.652904
14.140000	25.652904
14.150000	25.652904
14.160000	25.652904
14.170000	25.652904
14.180000	25.652904
14.190000	25.652904
14.200000	25.652904
14.210000	25.652904
14.220000	25.652904
14.230000	25.652904
14.240000	25.652904
14.250000	25.652904
14.260000	25.652904
14.270000	25.652904
14.280000	25.652904
14.290000	25.652904
14.300000	25.652904
14.310000	25.652904
14.320000	25.652904
14.330000	25.652904
14.340000	25.652904
14.350000	25.652904
14.360000	25.652904
14.370000	25.652904
14.380000	25.652904
14.390000	25.652904
14.400000	25.652904
14.410000	25.652904
14.420000	25.652904
14.430000	25.652904
14.440000	25.652904
14.450000	25.652904
14.460000	25.652904
14.470000	25.652904
14.480000	25.652904
14.490000	25.652904
14.500000	25.636466
14.510000	25.636466
14.520000	25.636466
14.530000	25.636466
14.540000	25.636466
14.550000	25.636466
14.560000	25.636466
14.570000	25.636466
14.580000	25.636466
14.590000	25.636466
14.600000	25.636466
14.610000	25.636466
14.620000	25.636466
14.630000	25.636466
14.640000	25.636466
14.650000	25.636466
14.660000	25.636466
14.670000	25.636466
14.680000	25.636466
14.690000	25.636466
14.700000	25.636466
14.710000	25.636466
14.720000	25.636466
14.730000	25.636466
14.740000	25.636466
14.750000	25.636466
14.760000	25.636466
14.770000	25.636466
14.780000	25.636466
14.790000	25.636466
14.800000	25.636466
14.810000	25.636466
14.820000	25.636466
14.830000	25.636466
14.840000	25.636466
14.850000	25.636466
14.860000	25.636466
14.870000	25.636466
14.880000	25.636466
14.890000	25.636466
14.900000	25.636466
14.910000	25.636466
14.920000	25.636466
14.930000	25.636466
14.940000	25.636466
14.950000	25.636466
14.960000	25.636466
14.970000	25.636466
14.980000	25.636466
14.990000	25.636466
15.000000	25.620456
15.010000	25.620456
15.020000	25.620456
15.030000	25.620456
15.040000	25.620456
15.050000	25.620456
15.060000	25.620456
15.070000	25.620456
15.080000	25.620456
15.090000	25.620456
15.100000	25.620456
15.110000	25.620456
15.120000	25.620456
15.130000	25.620456
15.140000	25.620456
15.150000	25.620456
15.160000	25.620456
15.170000	25.620456
15.180000	25.620456
15.190000	25.620456
15.200000	25.620456
15.210000	25.620456
15.220000	25.620456
15.230000	25.620456
15.240000	25.620456
15.250000	25.620456
15.260000	25.620456
15.270000	25.620456
15.280000	25.620456
15.290000	25.620456
15.300000	25.620456
15.310000	25.620456
15.320000	25.620456
15.330000	25.620456
15.340000	25.620456
15.350000	25.620456
15.360000	25.620456
15.370000	25.620456
15.380000	25.620456
15.390000	25.620456
15.400000	25.620456
15.410000	25.620456
15.420000	25.620456
15.430000	25.620456
15.440000	25.620456
15.450000	25.620456
15.460000	25.620456
15.470000	25.620456
15.480000	25.620456
15.490000	25.620456
15.500000	25.604398
15.510000	25.604398
15.520000	25.604398
15.530000	25.604398
15.540000	25.604398
15.550000	25.604398
15.560000	25.604398
15.570000	25.604398
15.580000	25.604398
15.590000	25.604398
15.600000	25.604398
15.610000	25.604398
15.620000	25.604398
15.630000	25.604398
15.640000	25.604398
15.650000	25.604398
15.660000	25.604398
15.670000	25.604398
15.680000	25.604398
15.690000	25.604398
15.700000	25.604398
15.710000	25.604398
15.720000	25.604398
15.730000	25.604398
15.740000	25.604398
15.750000	25.604398
15.760000	25.604398
15.770000	25.604398
15.780000	25.604398
15.790000	25.604398
15.800000	25.604398
15.810000	25.604398
15.820000	25.604398
15.830000	25.604398
15.840000	25.604398
15.850000	25.604398
15.860000	25.604398
15.870000	25.604398
15.880000	25.604398
15.890000	25.604398
15.900000	25.604398
15.910000	25.604398
15.920000	25.604398
15.930000	25.604398
15.940000	25.604398
15.950000	25.604398
15.960000	25.604398
15.970000	25.604398
15.980000	25.604398
15.990000	25.604398
16.000000	25.588906
16.010000	25.588906
16.020000	25.588906
16.030000	25.588906
16.040000	25.588906
16.050000	25.588906
16.060000	25.588906
16.070000	25.588906
16.080000	25.588906
16.090000	25.588906
16.100000	25.588906
16.110000	25.588906
16.120000	25.588906
16.130000	25.588906
16.140000	25.588906
16.150000	25.588906
16.160000	25.588906
16.170000	25.588906
16.180000	25.588906
16.190000	25.588906
16.200000	25.588906
16.210000	25.588906
16.220000	25.588906
16.230000	25.588906
16.240000	25.588906
16.250000	25.588906
16.260000	25.588906
16.270000	25.588906
16.280000	25.588906
16.290000	25.588906
16.300000	25.588906
16.310000	25.588906
16.320000	25.588906
16.330000	25.588906
16.340000	25.588906
16.350000	25.588906
16.360000	25.588906
16.370000	25.588906
16.380000	25.588906
16.390000	25.588906
16.400000	25.588906
16.410000	25.588906
16.420000	25.588906
16.430000	25.588906
16.440000	25.588906
16.450000	25.588906
16.460000	25.588906
16.470000	25.588906
16.480000	25.588906
16.490000	25.588906
16.500000	25.573197
16.510000	25.573197
16.520000	25.573197
16.530000	25.573197
16.540000	25.573197
16.550000	25.573197
16.560000	25.573197
16.570000	25.573197
16.580000	25.573197
16.590000	25.573197
16.600000	25.573197
16.610000	25.573197
16.620000	25.573197
16.630000	25.573197
16.640000	25.573197
16.650000	25.573197
16.660000	25.573197
16.670000	25.573197
16.680000	25.573197
16.690000	25.573197
16.700000	25.573197
16.710000	25.573197
16.720000	25.573197
16.730000	25.573197
16.740000	25.573197
16.750000	25.573197
16.760000	25.573197
16.770000	25.573197
16.780000	25.573197
16.790000	25.573197
16.800000	25.573197
16.810000	25.573197
16.820000	25.573197
16.830000	25.573197
16.840000	25.573197
16.850000	25.573197
16.860000	25.573197
16.870000	25.573197
16.880000	25.573197
16.890000	25.573197
16.900000	25.573197
16.910000	25.573197
16.920000	25.573197
16.930000	25.573197
16.940000	25.573197
16.950000	25.573197
16.960000	25.573197
16.970000	25.573197
16.980000	25.573197
16.990000	25.573197
17.000000	25.557414
17.010000	25.557414
17.020000	25.557414
17.030000	25.557414
17.040000	25.557414
17.050000	25.557414
17.060000	25.557414
17.070000	25.557414
17.080000	25.557414
17.090000	25.557414
17.100000	25.557414
17.110000	25.557414
17.120000	25.557414
17.130000	25.557414
17.140000	25.557414
17.150000	25.557414
17.160000	25.557414
17.170000	25.557414
17.180000	25.557414
17.190000	25.557414
17.200000	25.557414
17.210000	25.557414
17.220000	25.557414
17.230000	25.557414
17.240000	25.557414
17.250000	25.557414
17.260000	25.557414
17.270000	25.557414
17.280000	25.557414
17.290000	25.557414
17.300000	25.557414
17.310000	25.557414
17.320000	25.557414
17.330000	25.557414
17.340000	25.557414
17.350000	25.557414
17.360000	25.557414
17.370000	25.557414
17.380000	25.557414
17.390000	25.557414
17.400000	25.557414
17.410000	25.557414
17.420000	25.557414
17.430000	25.557414
17.440000	25.557414
17.450000	25.557414
17.460000	25.557414
17.470000	25.557414
17.480000	25.557414
17.490000	25.557414
17.500000	25.541847
17.510000	25.541847
17.520000	25.541847
17.530000	25.541847
17.540000	25.541847
17.550000	25.541847
17.560000	25.541847
17.570000	25.541847
17.580000	25.541847
17.590000	25.541847
17.600000	25.541847
17.610000	25.541847
17.620000	25.541847
17.630000	25.541847
17.640000	25.541847
17.650000	25.541847
17.660000	25.541847
17.670000	25.541847
17.680000	25.541847
17.690000	25.541847
