LabVIEW Measurement	
Writer_Version	2
Reader_Version	2
Separator	Tab
Decimal_Separator	.
Multi_Headings	No
X_Columns	One
Time_Pref	Absolute
Operator	biomech-dyno
Date	2023/05/24
Time	17:17:03.6544158999996145439
***End_of_Header***	
	
Channels	1	
Samples	10	
Date	2023/05/24	
Time	17:24:03.3545194999997698285	
X_Dimension	Time	
X0	0.0000000000000000E+0	
Delta_X	0.010000	
***End_of_Header***		
X_Value	Untitled	Comment
0.000000	24.947470
0.010000	24.947470
0.020000	24.947470
0.030000	24.947470
0.040000	24.947470
0.050000	24.947470
0.060000	24.947470
0.070000	24.947470
0.080000	24.947470
0.090000	24.947470
0.100000	24.947470
0.110000	24.947470
0.120000	24.947470
0.130000	24.947470
0.140000	24.947470
0.150000	24.947470
0.160000	24.947470
0.170000	24.947470
0.180000	24.947470
0.190000	24.947470
0.200000	24.947470
0.210000	24.947470
0.220000	24.947470
0.230000	24.947470
0.240000	24.947470
0.250000	24.947470
0.260000	24.947470
0.270000	24.947470
0.280000	24.947470
0.290000	24.947470
0.300000	24.947470
0.310000	24.947470
0.320000	24.947470
0.330000	24.947470
0.340000	24.947470
0.350000	24.947470
0.360000	24.947470
0.370000	24.947470
0.380000	24.947470
0.390000	24.947470
0.400000	24.947470
0.410000	24.947470
0.420000	24.947470
0.430000	24.947470
0.440000	24.947470
0.450000	24.947470
0.460000	24.947470
0.470000	24.947470
0.480000	24.947470
0.490000	24.947470
0.500000	24.991967
0.510000	24.991967
0.520000	24.991967
0.530000	24.991967
0.540000	24.991967
0.550000	24.991967
0.560000	24.991967
0.570000	24.991967
0.580000	24.991967
0.590000	24.991967
0.600000	24.991967
0.610000	24.991967
0.620000	24.991967
0.630000	24.991967
0.640000	24.991967
0.650000	24.991967
0.660000	24.991967
0.670000	24.991967
0.680000	24.991967
0.690000	24.991967
0.700000	24.991967
0.710000	24.991967
0.720000	24.991967
0.730000	24.991967
0.740000	24.991967
0.750000	24.991967
0.760000	24.991967
0.770000	24.991967
0.780000	24.991967
0.790000	24.991967
0.800000	24.991967
0.810000	24.991967
0.820000	24.991967
0.830000	24.991967
0.840000	24.991967
0.850000	24.991967
0.860000	24.991967
0.870000	24.991967
0.880000	24.991967
0.890000	24.991967
0.900000	24.991967
0.910000	24.991967
0.920000	24.991967
0.930000	24.991967
0.940000	24.991967
0.950000	24.991967
0.960000	24.991967
0.970000	24.991967
0.980000	24.991967
0.990000	24.991967
1.000000	25.410484
1.010000	25.410484
1.020000	25.410484
1.030000	25.410484
1.040000	25.410484
1.050000	25.410484
1.060000	25.410484
1.070000	25.410484
1.080000	25.410484
1.090000	25.410484
1.100000	25.410484
1.110000	25.410484
1.120000	25.410484
1.130000	25.410484
1.140000	25.410484
1.150000	25.410484
1.160000	25.410484
1.170000	25.410484
1.180000	25.410484
1.190000	25.410484
1.200000	25.410484
1.210000	25.410484
1.220000	25.410484
1.230000	25.410484
1.240000	25.410484
1.250000	25.410484
1.260000	25.410484
1.270000	25.410484
1.280000	25.410484
1.290000	25.410484
1.300000	25.410484
1.310000	25.410484
1.320000	25.410484
1.330000	25.410484
1.340000	25.410484
1.350000	25.410484
1.360000	25.410484
1.370000	25.410484
1.380000	25.410484
1.390000	25.410484
1.400000	25.410484
1.410000	25.410484
1.420000	25.410484
1.430000	25.410484
1.440000	25.410484
1.450000	25.410484
1.460000	25.410484
1.470000	25.410484
1.480000	25.410484
1.490000	25.410484
1.500000	26.386076
1.510000	26.386076
1.520000	26.386076
1.530000	26.386076
1.540000	26.386076
1.550000	26.386076
1.560000	26.386076
1.570000	26.386076
1.580000	26.386076
1.590000	26.386076
1.600000	26.386076
1.610000	26.386076
1.620000	26.386076
1.630000	26.386076
1.640000	26.386076
1.650000	26.386076
1.660000	26.386076
1.670000	26.386076
1.680000	26.386076
1.690000	26.386076
1.700000	26.386076
1.710000	26.386076
1.720000	26.386076
1.730000	26.386076
1.740000	26.386076
1.750000	26.386076
1.760000	26.386076
1.770000	26.386076
1.780000	26.386076
1.790000	26.386076
1.800000	26.386076
1.810000	26.386076
1.820000	26.386076
1.830000	26.386076
1.840000	26.386076
1.850000	26.386076
1.860000	26.386076
1.870000	26.386076
1.880000	26.386076
1.890000	26.386076
1.900000	26.386076
1.910000	26.386076
1.920000	26.386076
1.930000	26.386076
1.940000	26.386076
1.950000	26.386076
1.960000	26.386076
1.970000	26.386076
1.980000	26.386076
1.990000	26.386076
2.000000	27.818861
2.010000	27.818861
2.020000	27.818861
2.030000	27.818861
2.040000	27.818861
2.050000	27.818861
2.060000	27.818861
2.070000	27.818861
2.080000	27.818861
2.090000	27.818861
2.100000	27.818861
2.110000	27.818861
2.120000	27.818861
2.130000	27.818861
2.140000	27.818861
2.150000	27.818861
2.160000	27.818861
2.170000	27.818861
2.180000	27.818861
2.190000	27.818861
2.200000	27.818861
2.210000	27.818861
2.220000	27.818861
2.230000	27.818861
2.240000	27.818861
2.250000	27.818861
2.260000	27.818861
2.270000	27.818861
2.280000	27.818861
2.290000	27.818861
2.300000	27.818861
2.310000	27.818861
2.320000	27.818861
2.330000	27.818861
2.340000	27.818861
2.350000	27.818861
2.360000	27.818861
2.370000	27.818861
2.380000	27.818861
2.390000	27.818861
2.400000	27.818861
2.410000	27.818861
2.420000	27.818861
2.430000	27.818861
2.440000	27.818861
2.450000	27.818861
2.460000	27.818861
2.470000	27.818861
2.480000	27.818861
2.490000	27.818861
2.500000	29.596170
2.510000	29.596170
2.520000	29.596170
2.530000	29.596170
2.540000	29.596170
2.550000	29.596170
2.560000	29.596170
2.570000	29.596170
2.580000	29.596170
2.590000	29.596170
2.600000	29.596170
2.610000	29.596170
2.620000	29.596170
2.630000	29.596170
2.640000	29.596170
2.650000	29.596170
2.660000	29.596170
2.670000	29.596170
2.680000	29.596170
2.690000	29.596170
2.700000	29.596170
2.710000	29.596170
2.720000	29.596170
2.730000	29.596170
2.740000	29.596170
2.750000	29.596170
2.760000	29.596170
2.770000	29.596170
2.780000	29.596170
2.790000	29.596170
2.800000	29.596170
2.810000	29.596170
2.820000	29.596170
2.830000	29.596170
2.840000	29.596170
2.850000	29.596170
2.860000	29.596170
2.870000	29.596170
2.880000	29.596170
2.890000	29.596170
2.900000	29.596170
2.910000	29.596170
2.920000	29.596170
2.930000	29.596170
2.940000	29.596170
2.950000	29.596170
2.960000	29.596170
2.970000	29.596170
2.980000	29.596170
2.990000	29.596170
3.000000	31.603401
3.010000	31.603401
3.020000	31.603401
3.030000	31.603401
3.040000	31.603401
3.050000	31.603401
3.060000	31.603401
3.070000	31.603401
3.080000	31.603401
3.090000	31.603401
3.100000	31.603401
3.110000	31.603401
3.120000	31.603401
3.130000	31.603401
3.140000	31.603401
3.150000	31.603401
3.160000	31.603401
3.170000	31.603401
3.180000	31.603401
3.190000	31.603401
3.200000	31.603401
3.210000	31.603401
3.220000	31.603401
3.230000	31.603401
3.240000	31.603401
3.250000	31.603401
3.260000	31.603401
3.270000	31.603401
3.280000	31.603401
3.290000	31.603401
3.300000	31.603401
3.310000	31.603401
3.320000	31.603401
3.330000	31.603401
3.340000	31.603401
3.350000	31.603401
3.360000	31.603401
3.370000	31.603401
3.380000	31.603401
3.390000	31.603401
3.400000	31.603401
3.410000	31.603401
3.420000	31.603401
3.430000	31.603401
3.440000	31.603401
3.450000	31.603401
3.460000	31.603401
3.470000	31.603401
3.480000	31.603401
3.490000	31.603401
3.500000	33.445295
3.510000	33.445295
3.520000	33.445295
3.530000	33.445295
3.540000	33.445295
3.550000	33.445295
3.560000	33.445295
3.570000	33.445295
3.580000	33.445295
3.590000	33.445295
3.600000	33.445295
3.610000	33.445295
3.620000	33.445295
3.630000	33.445295
3.640000	33.445295
3.650000	33.445295
3.660000	33.445295
3.670000	33.445295
3.680000	33.445295
3.690000	33.445295
3.700000	33.445295
3.710000	33.445295
3.720000	33.445295
3.730000	33.445295
3.740000	33.445295
3.750000	33.445295
3.760000	33.445295
3.770000	33.445295
3.780000	33.445295
3.790000	33.445295
3.800000	33.445295
3.810000	33.445295
3.820000	33.445295
3.830000	33.445295
3.840000	33.445295
3.850000	33.445295
3.860000	33.445295
3.870000	33.445295
3.880000	33.445295
3.890000	33.445295
3.900000	33.445295
3.910000	33.445295
3.920000	33.445295
3.930000	33.445295
3.940000	33.445295
3.950000	33.445295
3.960000	33.445295
3.970000	33.445295
3.980000	33.445295
3.990000	33.445295
4.000000	34.844745
4.010000	34.844745
4.020000	34.844745
4.030000	34.844745
4.040000	34.844745
4.050000	34.844745
4.060000	34.844745
4.070000	34.844745
4.080000	34.844745
4.090000	34.844745
4.100000	34.844745
4.110000	34.844745
4.120000	34.844745
4.130000	34.844745
4.140000	34.844745
4.150000	34.844745
4.160000	34.844745
4.170000	34.844745
4.180000	34.844745
4.190000	34.844745
4.200000	34.844745
4.210000	34.844745
4.220000	34.844745
4.230000	34.844745
4.240000	34.844745
4.250000	34.844745
4.260000	34.844745
4.270000	34.844745
4.280000	34.844745
4.290000	34.844745
4.300000	34.844745
4.310000	34.844745
4.320000	34.844745
4.330000	34.844745
4.340000	34.844745
4.350000	34.844745
4.360000	34.844745
4.370000	34.844745
4.380000	34.844745
4.390000	34.844745
4.400000	34.844745
4.410000	34.844745
4.420000	34.844745
4.430000	34.844745
4.440000	34.844745
4.450000	34.844745
4.460000	34.844745
4.470000	34.844745
4.480000	34.844745
4.490000	34.844745
4.500000	35.863495
4.510000	35.863495
4.520000	35.863495
4.530000	35.863495
4.540000	35.863495
4.550000	35.863495
4.560000	35.863495
4.570000	35.863495
4.580000	35.863495
4.590000	35.863495
4.600000	35.863495
4.610000	35.863495
4.620000	35.863495
4.630000	35.863495
4.640000	35.863495
4.650000	35.863495
4.660000	35.863495
4.670000	35.863495
4.680000	35.863495
4.690000	35.863495
4.700000	35.863495
4.710000	35.863495
4.720000	35.863495
4.730000	35.863495
4.740000	35.863495
4.750000	35.863495
4.760000	35.863495
4.770000	35.863495
4.780000	35.863495
4.790000	35.863495
4.800000	35.863495
4.810000	35.863495
4.820000	35.863495
4.830000	35.863495
4.840000	35.863495
4.850000	35.863495
4.860000	35.863495
4.870000	35.863495
4.880000	35.863495
4.890000	35.863495
4.900000	35.863495
4.910000	35.863495
4.920000	35.863495
4.930000	35.863495
4.940000	35.863495
4.950000	35.863495
4.960000	35.863495
4.970000	35.863495
4.980000	35.863495
4.990000	35.863495
5.000000	36.577301
5.010000	36.577301
5.020000	36.577301
5.030000	36.577301
5.040000	36.577301
5.050000	36.577301
5.060000	36.577301
5.070000	36.577301
5.080000	36.577301
5.090000	36.577301
5.100000	36.577301
5.110000	36.577301
5.120000	36.577301
5.130000	36.577301
5.140000	36.577301
5.150000	36.577301
5.160000	36.577301
5.170000	36.577301
5.180000	36.577301
5.190000	36.577301
5.200000	36.577301
5.210000	36.577301
5.220000	36.577301
5.230000	36.577301
5.240000	36.577301
5.250000	36.577301
5.260000	36.577301
5.270000	36.577301
5.280000	36.577301
5.290000	36.577301
5.300000	36.577301
5.310000	36.577301
5.320000	36.577301
5.330000	36.577301
5.340000	36.577301
5.350000	36.577301
5.360000	36.577301
5.370000	36.577301
5.380000	36.577301
5.390000	36.577301
5.400000	36.577301
5.410000	36.577301
5.420000	36.577301
5.430000	36.577301
5.440000	36.577301
5.450000	36.577301
5.460000	36.577301
5.470000	36.577301
5.480000	36.577301
5.490000	36.577301
5.500000	37.065811
5.510000	37.065811
5.520000	37.065811
5.530000	37.065811
5.540000	37.065811
5.550000	37.065811
5.560000	37.065811
5.570000	37.065811
5.580000	37.065811
5.590000	37.065811
5.600000	37.065811
5.610000	37.065811
5.620000	37.065811
5.630000	37.065811
5.640000	37.065811
5.650000	37.065811
5.660000	37.065811
5.670000	37.065811
5.680000	37.065811
5.690000	37.065811
5.700000	37.065811
5.710000	37.065811
5.720000	37.065811
5.730000	37.065811
5.740000	37.065811
5.750000	37.065811
5.760000	37.065811
5.770000	37.065811
5.780000	37.065811
5.790000	37.065811
5.800000	37.065811
5.810000	37.065811
5.820000	37.065811
5.830000	37.065811
5.840000	37.065811
5.850000	37.065811
5.860000	37.065811
5.870000	37.065811
5.880000	37.065811
5.890000	37.065811
5.900000	37.065811
5.910000	37.065811
5.920000	37.065811
5.930000	37.065811
5.940000	37.065811
5.950000	37.065811
5.960000	37.065811
5.970000	37.065811
5.980000	37.065811
5.990000	37.065811
6.000000	37.368017
6.010000	37.368017
6.020000	37.368017
6.030000	37.368017
6.040000	37.368017
6.050000	37.368017
6.060000	37.368017
6.070000	37.368017
6.080000	37.368017
6.090000	37.368017
6.100000	37.368017
6.110000	37.368017
6.120000	37.368017
6.130000	37.368017
6.140000	37.368017
6.150000	37.368017
6.160000	37.368017
6.170000	37.368017
6.180000	37.368017
6.190000	37.368017
6.200000	37.368017
6.210000	37.368017
6.220000	37.368017
6.230000	37.368017
6.240000	37.368017
6.250000	37.368017
6.260000	37.368017
6.270000	37.368017
6.280000	37.368017
6.290000	37.368017
6.300000	37.368017
6.310000	37.368017
6.320000	37.368017
6.330000	37.368017
6.340000	37.368017
6.350000	37.368017
6.360000	37.368017
6.370000	37.368017
6.380000	37.368017
6.390000	37.368017
6.400000	37.368017
6.410000	37.368017
6.420000	37.368017
6.430000	37.368017
6.440000	37.368017
6.450000	37.368017
6.460000	37.368017
6.470000	37.368017
6.480000	37.368017
6.490000	37.368017
6.500000	37.529777
6.510000	37.529777
6.520000	37.529777
6.530000	37.529777
6.540000	37.529777
6.550000	37.529777
6.560000	37.529777
6.570000	37.529777
6.580000	37.529777
6.590000	37.529777
6.600000	37.529777
6.610000	37.529777
6.620000	37.529777
6.630000	37.529777
6.640000	37.529777
6.650000	37.529777
6.660000	37.529777
6.670000	37.529777
6.680000	37.529777
6.690000	37.529777
6.700000	37.529777
6.710000	37.529777
6.720000	37.529777
6.730000	37.529777
6.740000	37.529777
6.750000	37.529777
6.760000	37.529777
6.770000	37.529777
6.780000	37.529777
6.790000	37.529777
6.800000	37.529777
6.810000	37.529777
6.820000	37.529777
6.830000	37.529777
6.840000	37.529777
6.850000	37.529777
6.860000	37.529777
6.870000	37.529777
6.880000	37.529777
6.890000	37.529777
6.900000	37.529777
6.910000	37.529777
6.920000	37.529777
6.930000	37.529777
6.940000	37.529777
6.950000	37.529777
6.960000	37.529777
6.970000	37.529777
6.980000	37.529777
6.990000	37.529777
7.000000	37.592426
7.010000	37.592426
7.020000	37.592426
7.030000	37.592426
7.040000	37.592426
7.050000	37.592426
7.060000	37.592426
7.070000	37.592426
7.080000	37.592426
7.090000	37.592426
7.100000	37.592426
7.110000	37.592426
7.120000	37.592426
7.130000	37.592426
7.140000	37.592426
7.150000	37.592426
7.160000	37.592426
7.170000	37.592426
7.180000	37.592426
7.190000	37.592426
7.200000	37.592426
7.210000	37.592426
7.220000	37.592426
7.230000	37.592426
7.240000	37.592426
7.250000	37.592426
7.260000	37.592426
7.270000	37.592426
7.280000	37.592426
7.290000	37.592426
7.300000	37.592426
7.310000	37.592426
7.320000	37.592426
7.330000	37.592426
7.340000	37.592426
7.350000	37.592426
7.360000	37.592426
7.370000	37.592426
7.380000	37.592426
7.390000	37.592426
7.400000	37.592426
7.410000	37.592426
7.420000	37.592426
7.430000	37.592426
7.440000	37.592426
7.450000	37.592426
7.460000	37.592426
7.470000	37.592426
7.480000	37.592426
7.490000	37.592426
7.500000	37.578168
7.510000	37.578168
7.520000	37.578168
7.530000	37.578168
7.540000	37.578168
7.550000	37.578168
7.560000	37.578168
7.570000	37.578168
7.580000	37.578168
7.590000	37.578168
7.600000	37.578168
7.610000	37.578168
7.620000	37.578168
7.630000	37.578168
7.640000	37.578168
7.650000	37.578168
7.660000	37.578168
7.670000	37.578168
7.680000	37.578168
7.690000	37.578168
7.700000	37.578168
7.710000	37.578168
7.720000	37.578168
7.730000	37.578168
7.740000	37.578168
7.750000	37.578168
7.760000	37.578168
7.770000	37.578168
7.780000	37.578168
7.790000	37.578168
7.800000	37.578168
7.810000	37.578168
7.820000	37.578168
7.830000	37.578168
7.840000	37.578168
7.850000	37.578168
7.860000	37.578168
7.870000	37.578168
7.880000	37.578168
7.890000	37.578168
7.900000	37.578168
7.910000	37.578168
7.920000	37.578168
7.930000	37.578168
7.940000	37.578168
7.950000	37.578168
7.960000	37.578168
7.970000	37.578168
7.980000	37.578168
7.990000	37.578168
8.000000	37.504466
8.010000	37.504466
8.020000	37.504466
8.030000	37.504466
8.040000	37.504466
8.050000	37.504466
8.060000	37.504466
8.070000	37.504466
8.080000	37.504466
8.090000	37.504466
8.100000	37.504466
8.110000	37.504466
8.120000	37.504466
8.130000	37.504466
8.140000	37.504466
8.150000	37.504466
8.160000	37.504466
8.170000	37.504466
8.180000	37.504466
8.190000	37.504466
8.200000	37.504466
8.210000	37.504466
8.220000	37.504466
8.230000	37.504466
8.240000	37.504466
8.250000	37.504466
8.260000	37.504466
8.270000	37.504466
8.280000	37.504466
8.290000	37.504466
8.300000	37.504466
8.310000	37.504466
8.320000	37.504466
8.330000	37.504466
8.340000	37.504466
8.350000	37.504466
8.360000	37.504466
8.370000	37.504466
8.380000	37.504466
8.390000	37.504466
8.400000	37.504466
8.410000	37.504466
8.420000	37.504466
8.430000	37.504466
8.440000	37.504466
8.450000	37.504466
8.460000	37.504466
8.470000	37.504466
8.480000	37.504466
8.490000	37.504466
8.500000	37.387095
8.510000	37.387095
8.520000	37.387095
8.530000	37.387095
8.540000	37.387095
8.550000	37.387095
8.560000	37.387095
8.570000	37.387095
8.580000	37.387095
8.590000	37.387095
8.600000	37.387095
8.610000	37.387095
8.620000	37.387095
8.630000	37.387095
8.640000	37.387095
8.650000	37.387095
8.660000	37.387095
8.670000	37.387095
8.680000	37.387095
8.690000	37.387095
8.700000	37.387095
8.710000	37.387095
8.720000	37.387095
8.730000	37.387095
8.740000	37.387095
8.750000	37.387095
8.760000	37.387095
8.770000	37.387095
8.780000	37.387095
8.790000	37.387095
8.800000	37.387095
8.810000	37.387095
8.820000	37.387095
8.830000	37.387095
8.840000	37.387095
8.850000	37.387095
8.860000	37.387095
8.870000	37.387095
8.880000	37.387095
8.890000	37.387095
8.900000	37.387095
8.910000	37.387095
8.920000	37.387095
8.930000	37.387095
8.940000	37.387095
8.950000	37.387095
8.960000	37.387095
8.970000	37.387095
8.980000	37.387095
8.990000	37.387095
9.000000	37.235338
9.010000	37.235338
9.020000	37.235338
9.030000	37.235338
9.040000	37.235338
9.050000	37.235338
9.060000	37.235338
9.070000	37.235338
9.080000	37.235338
9.090000	37.235338
9.100000	37.235338
9.110000	37.235338
9.120000	37.235338
9.130000	37.235338
9.140000	37.235338
9.150000	37.235338
9.160000	37.235338
9.170000	37.235338
9.180000	37.235338
9.190000	37.235338
9.200000	37.235338
9.210000	37.235338
9.220000	37.235338
9.230000	37.235338
9.240000	37.235338
9.250000	37.235338
9.260000	37.235338
9.270000	37.235338
9.280000	37.235338
9.290000	37.235338
9.300000	37.235338
9.310000	37.235338
9.320000	37.235338
9.330000	37.235338
9.340000	37.235338
9.350000	37.235338
9.360000	37.235338
9.370000	37.235338
9.380000	37.235338
9.390000	37.235338
9.400000	37.235338
9.410000	37.235338
9.420000	37.235338
9.430000	37.235338
9.440000	37.235338
9.450000	37.235338
9.460000	37.235338
9.470000	37.235338
9.480000	37.235338
9.490000	37.235338
9.500000	37.059275
9.510000	37.059275
9.520000	37.059275
9.530000	37.059275
9.540000	37.059275
9.550000	37.059275
9.560000	37.059275
9.570000	37.059275
9.580000	37.059275
9.590000	37.059275
9.600000	37.059275
9.610000	37.059275
9.620000	37.059275
9.630000	37.059275
9.640000	37.059275
9.650000	37.059275
9.660000	37.059275
9.670000	37.059275
9.680000	37.059275
9.690000	37.059275
9.700000	37.059275
9.710000	37.059275
9.720000	37.059275
9.730000	37.059275
9.740000	37.059275
9.750000	37.059275
9.760000	37.059275
9.770000	37.059275
9.780000	37.059275
9.790000	37.059275
9.800000	37.059275
9.810000	37.059275
9.820000	37.059275
9.830000	37.059275
9.840000	37.059275
9.850000	37.059275
9.860000	37.059275
9.870000	37.059275
9.880000	37.059275
9.890000	37.059275
9.900000	37.059275
9.910000	37.059275
9.920000	37.059275
9.930000	37.059275
9.940000	37.059275
9.950000	37.059275
9.960000	37.059275
9.970000	37.059275
9.980000	37.059275
9.990000	37.059275
10.000000	36.865670
10.010000	36.865670
10.020000	36.865670
10.030000	36.865670
10.040000	36.865670
10.050000	36.865670
10.060000	36.865670
10.070000	36.865670
10.080000	36.865670
10.090000	36.865670
10.100000	36.865670
10.110000	36.865670
10.120000	36.865670
10.130000	36.865670
10.140000	36.865670
10.150000	36.865670
10.160000	36.865670
10.170000	36.865670
10.180000	36.865670
10.190000	36.865670
10.200000	36.865670
10.210000	36.865670
10.220000	36.865670
10.230000	36.865670
10.240000	36.865670
10.250000	36.865670
10.260000	36.865670
10.270000	36.865670
10.280000	36.865670
10.290000	36.865670
10.300000	36.865670
10.310000	36.865670
10.320000	36.865670
10.330000	36.865670
10.340000	36.865670
10.350000	36.865670
10.360000	36.865670
10.370000	36.865670
10.380000	36.865670
10.390000	36.865670
10.400000	36.865670
10.410000	36.865670
10.420000	36.865670
10.430000	36.865670
10.440000	36.865670
10.450000	36.865670
10.460000	36.865670
10.470000	36.865670
10.480000	36.865670
10.490000	36.865670
10.500000	36.657757
10.510000	36.657757
10.520000	36.657757
10.530000	36.657757
10.540000	36.657757
10.550000	36.657757
10.560000	36.657757
10.570000	36.657757
10.580000	36.657757
10.590000	36.657757
10.600000	36.657757
10.610000	36.657757
10.620000	36.657757
10.630000	36.657757
10.640000	36.657757
10.650000	36.657757
10.660000	36.657757
10.670000	36.657757
10.680000	36.657757
10.690000	36.657757
10.700000	36.657757
10.710000	36.657757
10.720000	36.657757
10.730000	36.657757
10.740000	36.657757
10.750000	36.657757
10.760000	36.657757
10.770000	36.657757
10.780000	36.657757
10.790000	36.657757
10.800000	36.657757
10.810000	36.657757
10.820000	36.657757
10.830000	36.657757
10.840000	36.657757
10.850000	36.657757
10.860000	36.657757
10.870000	36.657757
10.880000	36.657757
10.890000	36.657757
10.900000	36.657757
10.910000	36.657757
10.920000	36.657757
10.930000	36.657757
10.940000	36.657757
10.950000	36.657757
10.960000	36.657757
10.970000	36.657757
10.980000	36.657757
10.990000	36.657757
11.000000	36.441710
11.010000	36.441710
11.020000	36.441710
11.030000	36.441710
11.040000	36.441710
11.050000	36.441710
11.060000	36.441710
11.070000	36.441710
11.080000	36.441710
11.090000	36.441710
11.100000	36.441710
11.110000	36.441710
11.120000	36.441710
11.130000	36.441710
11.140000	36.441710
11.150000	36.441710
11.160000	36.441710
11.170000	36.441710
11.180000	36.441710
11.190000	36.441710
11.200000	36.441710
11.210000	36.441710
11.220000	36.441710
11.230000	36.441710
11.240000	36.441710
11.250000	36.441710
11.260000	36.441710
11.270000	36.441710
11.280000	36.441710
11.290000	36.441710
11.300000	36.441710
11.310000	36.441710
11.320000	36.441710
11.330000	36.441710
11.340000	36.441710
11.350000	36.441710
11.360000	36.441710
11.370000	36.441710
11.380000	36.441710
11.390000	36.441710
11.400000	36.441710
11.410000	36.441710
11.420000	36.441710
11.430000	36.441710
11.440000	36.441710
11.450000	36.441710
11.460000	36.441710
11.470000	36.441710
11.480000	36.441710
11.490000	36.441710
11.500000	36.220447
11.510000	36.220447
11.520000	36.220447
11.530000	36.220447
11.540000	36.220447
11.550000	36.220447
11.560000	36.220447
11.570000	36.220447
11.580000	36.220447
11.590000	36.220447
11.600000	36.220447
11.610000	36.220447
11.620000	36.220447
11.630000	36.220447
11.640000	36.220447
11.650000	36.220447
11.660000	36.220447
11.670000	36.220447
11.680000	36.220447
11.690000	36.220447
11.700000	36.220447
11.710000	36.220447
11.720000	36.220447
11.730000	36.220447
11.740000	36.220447
11.750000	36.220447
11.760000	36.220447
11.770000	36.220447
11.780000	36.220447
11.790000	36.220447
11.800000	36.220447
11.810000	36.220447
11.820000	36.220447
11.830000	36.220447
11.840000	36.220447
11.850000	36.220447
11.860000	36.220447
11.870000	36.220447
11.880000	36.220447
11.890000	36.220447
11.900000	36.220447
11.910000	36.220447
11.920000	36.220447
11.930000	36.220447
11.940000	36.220447
11.950000	36.220447
11.960000	36.220447
11.970000	36.220447
11.980000	36.220447
11.990000	36.220447
12.000000	35.997522
12.010000	35.997522
12.020000	35.997522
12.030000	35.997522
12.040000	35.997522
12.050000	35.997522
12.060000	35.997522
12.070000	35.997522
12.080000	35.997522
12.090000	35.997522
12.100000	35.997522
12.110000	35.997522
12.120000	35.997522
12.130000	35.997522
12.140000	35.997522
12.150000	35.997522
12.160000	35.997522
12.170000	35.997522
12.180000	35.997522
12.190000	35.997522
12.200000	35.997522
12.210000	35.997522
12.220000	35.997522
12.230000	35.997522
12.240000	35.997522
12.250000	35.997522
12.260000	35.997522
12.270000	35.997522
12.280000	35.997522
12.290000	35.997522
12.300000	35.997522
12.310000	35.997522
12.320000	35.997522
12.330000	35.997522
12.340000	35.997522
12.350000	35.997522
12.360000	35.997522
12.370000	35.997522
12.380000	35.997522
12.390000	35.997522
12.400000	35.997522
12.410000	35.997522
12.420000	35.997522
12.430000	35.997522
12.440000	35.997522
12.450000	35.997522
12.460000	35.997522
12.470000	35.997522
12.480000	35.997522
12.490000	35.997522
12.500000	35.771695
12.510000	35.771695
12.520000	35.771695
12.530000	35.771695
12.540000	35.771695
12.550000	35.771695
12.560000	35.771695
12.570000	35.771695
12.580000	35.771695
12.590000	35.771695
12.600000	35.771695
12.610000	35.771695
12.620000	35.771695
12.630000	35.771695
12.640000	35.771695
12.650000	35.771695
12.660000	35.771695
12.670000	35.771695
12.680000	35.771695
12.690000	35.771695
12.700000	35.771695
12.710000	35.771695
12.720000	35.771695
12.730000	35.771695
12.740000	35.771695
12.750000	35.771695
12.760000	35.771695
12.770000	35.771695
12.780000	35.771695
12.790000	35.771695
12.800000	35.771695
12.810000	35.771695
12.820000	35.771695
12.830000	35.771695
12.840000	35.771695
12.850000	35.771695
12.860000	35.771695
12.870000	35.771695
12.880000	35.771695
12.890000	35.771695
12.900000	35.771695
12.910000	35.771695
12.920000	35.771695
12.930000	35.771695
12.940000	35.771695
12.950000	35.771695
12.960000	35.771695
12.970000	35.771695
12.980000	35.771695
12.990000	35.771695
13.000000	35.549022
13.010000	35.549022
13.020000	35.549022
13.030000	35.549022
13.040000	35.549022
13.050000	35.549022
13.060000	35.549022
13.070000	35.549022
13.080000	35.549022
13.090000	35.549022
13.100000	35.549022
13.110000	35.549022
13.120000	35.549022
13.130000	35.549022
13.140000	35.549022
13.150000	35.549022
13.160000	35.549022
13.170000	35.549022
13.180000	35.549022
13.190000	35.549022
13.200000	35.549022
13.210000	35.549022
13.220000	35.549022
13.230000	35.549022
13.240000	35.549022
13.250000	35.549022
13.260000	35.549022
13.270000	35.549022
13.280000	35.549022
13.290000	35.549022
13.300000	35.549022
13.310000	35.549022
13.320000	35.549022
13.330000	35.549022
13.340000	35.549022
13.350000	35.549022
13.360000	35.549022
13.370000	35.549022
13.380000	35.549022
13.390000	35.549022
13.400000	35.549022
13.410000	35.549022
13.420000	35.549022
13.430000	35.549022
13.440000	35.549022
13.450000	35.549022
13.460000	35.549022
13.470000	35.549022
13.480000	35.549022
13.490000	35.549022
13.500000	35.327600
13.510000	35.327600
13.520000	35.327600
13.530000	35.327600
13.540000	35.327600
13.550000	35.327600
13.560000	35.327600
13.570000	35.327600
13.580000	35.327600
13.590000	35.327600
13.600000	35.327600
13.610000	35.327600
13.620000	35.327600
13.630000	35.327600
13.640000	35.327600
13.650000	35.327600
13.660000	35.327600
13.670000	35.327600
13.680000	35.327600
13.690000	35.327600
13.700000	35.327600
13.710000	35.327600
13.720000	35.327600
13.730000	35.327600
13.740000	35.327600
13.750000	35.327600
13.760000	35.327600
13.770000	35.327600
13.780000	35.327600
13.790000	35.327600
13.800000	35.327600
13.810000	35.327600
13.820000	35.327600
13.830000	35.327600
13.840000	35.327600
13.850000	35.327600
13.860000	35.327600
13.870000	35.327600
13.880000	35.327600
13.890000	35.327600
13.900000	35.327600
13.910000	35.327600
13.920000	35.327600
13.930000	35.327600
13.940000	35.327600
13.950000	35.327600
13.960000	35.327600
13.970000	35.327600
13.980000	35.327600
13.990000	35.327600
14.000000	35.106374
14.010000	35.106374
14.020000	35.106374
14.030000	35.106374
14.040000	35.106374
14.050000	35.106374
14.060000	35.106374
14.070000	35.106374
14.080000	35.106374
14.090000	35.106374
14.100000	35.106374
14.110000	35.106374
14.120000	35.106374
14.130000	35.106374
14.140000	35.106374
14.150000	35.106374
14.160000	35.106374
14.170000	35.106374
14.180000	35.106374
14.190000	35.106374
14.200000	35.106374
14.210000	35.106374
14.220000	35.106374
14.230000	35.106374
14.240000	35.106374
14.250000	35.106374
14.260000	35.106374
14.270000	35.106374
14.280000	35.106374
14.290000	35.106374
14.300000	35.106374
14.310000	35.106374
14.320000	35.106374
14.330000	35.106374
14.340000	35.106374
14.350000	35.106374
14.360000	35.106374
14.370000	35.106374
14.380000	35.106374
14.390000	35.106374
14.400000	35.106374
14.410000	35.106374
14.420000	35.106374
14.430000	35.106374
14.440000	35.106374
14.450000	35.106374
14.460000	35.106374
14.470000	35.106374
14.480000	35.106374
14.490000	35.106374
14.500000	34.891177
14.510000	34.891177
14.520000	34.891177
14.530000	34.891177
14.540000	34.891177
14.550000	34.891177
14.560000	34.891177
14.570000	34.891177
14.580000	34.891177
14.590000	34.891177
14.600000	34.891177
14.610000	34.891177
14.620000	34.891177
14.630000	34.891177
14.640000	34.891177
14.650000	34.891177
14.660000	34.891177
14.670000	34.891177
14.680000	34.891177
14.690000	34.891177
14.700000	34.891177
14.710000	34.891177
14.720000	34.891177
14.730000	34.891177
14.740000	34.891177
14.750000	34.891177
14.760000	34.891177
14.770000	34.891177
14.780000	34.891177
14.790000	34.891177
14.800000	34.891177
14.810000	34.891177
14.820000	34.891177
14.830000	34.891177
14.840000	34.891177
14.850000	34.891177
14.860000	34.891177
14.870000	34.891177
14.880000	34.891177
14.890000	34.891177
14.900000	34.891177
14.910000	34.891177
14.920000	34.891177
14.930000	34.891177
14.940000	34.891177
14.950000	34.891177
14.960000	34.891177
14.970000	34.891177
14.980000	34.891177
14.990000	34.891177
15.000000	34.684366
15.010000	34.684366
15.020000	34.684366
15.030000	34.684366
15.040000	34.684366
15.050000	34.684366
15.060000	34.684366
15.070000	34.684366
15.080000	34.684366
15.090000	34.684366
15.100000	34.684366
15.110000	34.684366
15.120000	34.684366
15.130000	34.684366
15.140000	34.684366
15.150000	34.684366
15.160000	34.684366
15.170000	34.684366
15.180000	34.684366
15.190000	34.684366
15.200000	34.684366
15.210000	34.684366
15.220000	34.684366
15.230000	34.684366
15.240000	34.684366
15.250000	34.684366
15.260000	34.684366
15.270000	34.684366
15.280000	34.684366
15.290000	34.684366
15.300000	34.684366
15.310000	34.684366
15.320000	34.684366
15.330000	34.684366
15.340000	34.684366
15.350000	34.684366
15.360000	34.684366
15.370000	34.684366
15.380000	34.684366
15.390000	34.684366
15.400000	34.684366
15.410000	34.684366
15.420000	34.684366
15.430000	34.684366
15.440000	34.684366
15.450000	34.684366
15.460000	34.684366
15.470000	34.684366
15.480000	34.684366
15.490000	34.684366
15.500000	34.482280
15.510000	34.482280
15.520000	34.482280
15.530000	34.482280
15.540000	34.482280
15.550000	34.482280
15.560000	34.482280
15.570000	34.482280
15.580000	34.482280
15.590000	34.482280
15.600000	34.482280
15.610000	34.482280
15.620000	34.482280
15.630000	34.482280
15.640000	34.482280
15.650000	34.482280
15.660000	34.482280
15.670000	34.482280
15.680000	34.482280
15.690000	34.482280
15.700000	34.482280
15.710000	34.482280
15.720000	34.482280
15.730000	34.482280
15.740000	34.482280
15.750000	34.482280
15.760000	34.482280
15.770000	34.482280
15.780000	34.482280
15.790000	34.482280
15.800000	34.482280
15.810000	34.482280
15.820000	34.482280
15.830000	34.482280
15.840000	34.482280
15.850000	34.482280
15.860000	34.482280
15.870000	34.482280
15.880000	34.482280
15.890000	34.482280
15.900000	34.482280
15.910000	34.482280
15.920000	34.482280
15.930000	34.482280
15.940000	34.482280
15.950000	34.482280
15.960000	34.482280
15.970000	34.482280
15.980000	34.482280
15.990000	34.482280
16.000000	34.285337
16.010000	34.285337
16.020000	34.285337
16.030000	34.285337
16.040000	34.285337
16.050000	34.285337
16.060000	34.285337
16.070000	34.285337
16.080000	34.285337
16.090000	34.285337
16.100000	34.285337
16.110000	34.285337
16.120000	34.285337
16.130000	34.285337
16.140000	34.285337
16.150000	34.285337
16.160000	34.285337
16.170000	34.285337
16.180000	34.285337
16.190000	34.285337
16.200000	34.285337
16.210000	34.285337
16.220000	34.285337
16.230000	34.285337
16.240000	34.285337
16.250000	34.285337
16.260000	34.285337
16.270000	34.285337
16.280000	34.285337
16.290000	34.285337
16.300000	34.285337
16.310000	34.285337
16.320000	34.285337
16.330000	34.285337
16.340000	34.285337
16.350000	34.285337
16.360000	34.285337
16.370000	34.285337
16.380000	34.285337
16.390000	34.285337
16.400000	34.285337
16.410000	34.285337
16.420000	34.285337
16.430000	34.285337
16.440000	34.285337
16.450000	34.285337
16.460000	34.285337
16.470000	34.285337
16.480000	34.285337
16.490000	34.285337
16.500000	34.093970
16.510000	34.093970
16.520000	34.093970
16.530000	34.093970
16.540000	34.093970
16.550000	34.093970
16.560000	34.093970
16.570000	34.093970
16.580000	34.093970
16.590000	34.093970
16.600000	34.093970
16.610000	34.093970
16.620000	34.093970
16.630000	34.093970
16.640000	34.093970
16.650000	34.093970
16.660000	34.093970
16.670000	34.093970
16.680000	34.093970
16.690000	34.093970
16.700000	34.093970
16.710000	34.093970
16.720000	34.093970
16.730000	34.093970
16.740000	34.093970
16.750000	34.093970
16.760000	34.093970
16.770000	34.093970
16.780000	34.093970
16.790000	34.093970
16.800000	34.093970
16.810000	34.093970
16.820000	34.093970
16.830000	34.093970
16.840000	34.093970
16.850000	34.093970
16.860000	34.093970
16.870000	34.093970
16.880000	34.093970
16.890000	34.093970
16.900000	34.093970
16.910000	34.093970
16.920000	34.093970
16.930000	34.093970
16.940000	34.093970
16.950000	34.093970
16.960000	34.093970
16.970000	34.093970
16.980000	34.093970
16.990000	34.093970
17.000000	33.908509
17.010000	33.908509
17.020000	33.908509
17.030000	33.908509
17.040000	33.908509
17.050000	33.908509
17.060000	33.908509
17.070000	33.908509
17.080000	33.908509
17.090000	33.908509
17.100000	33.908509
17.110000	33.908509
17.120000	33.908509
17.130000	33.908509
17.140000	33.908509
17.150000	33.908509
17.160000	33.908509
17.170000	33.908509
17.180000	33.908509
17.190000	33.908509
17.200000	33.908509
17.210000	33.908509
17.220000	33.908509
17.230000	33.908509
17.240000	33.908509
17.250000	33.908509
17.260000	33.908509
17.270000	33.908509
17.280000	33.908509
17.290000	33.908509
17.300000	33.908509
17.310000	33.908509
17.320000	33.908509
17.330000	33.908509
17.340000	33.908509
17.350000	33.908509
17.360000	33.908509
17.370000	33.908509
17.380000	33.908509
17.390000	33.908509
17.400000	33.908509
17.410000	33.908509
17.420000	33.908509
17.430000	33.908509
17.440000	33.908509
17.450000	33.908509
17.460000	33.908509
17.470000	33.908509
17.480000	33.908509
17.490000	33.908509
17.500000	33.726780
17.510000	33.726780
17.520000	33.726780
17.530000	33.726780
17.540000	33.726780
17.550000	33.726780
17.560000	33.726780
17.570000	33.726780
17.580000	33.726780
17.590000	33.726780
17.600000	33.726780
17.610000	33.726780
17.620000	33.726780
17.630000	33.726780
17.640000	33.726780
17.650000	33.726780
17.660000	33.726780
17.670000	33.726780
17.680000	33.726780
17.690000	33.726780
