LabVIEW Measurement	
Writer_Version	2
Reader_Version	2
Separator	Tab
Decimal_Separator	.
Multi_Headings	No
X_Columns	One
Time_Pref	Absolute
Operator	biomech-dyno
Date	2023/05/24
Time	17:17:03.6544158999996145439
***End_of_Header***	
	
Channels	1	
Samples	10	
Date	2023/05/24	
Time	17:17:37.0578323999999234514	
X_Dimension	Time	
X0	0.0000000000000000E+0	
Delta_X	0.010000	
***End_of_Header***		
X_Value	Untitled	Comment
0.000000	24.389659
0.010000	24.389659
0.020000	24.389659
0.030000	24.389659
0.040000	24.389659
0.050000	24.389659
0.060000	24.389659
0.070000	24.389659
0.080000	24.389659
0.090000	24.389659
0.100000	24.389659
0.110000	24.389659
0.120000	24.389659
0.130000	24.389659
0.140000	24.389659
0.150000	24.389659
0.160000	24.389659
0.170000	24.389659
0.180000	24.389659
0.190000	24.389659
0.200000	24.389659
0.210000	24.389659
0.220000	24.389659
0.230000	24.389659
0.240000	24.389659
0.250000	24.389659
0.260000	24.389659
0.270000	24.389659
0.280000	24.389659
0.290000	24.389659
0.300000	24.389659
0.310000	24.389659
0.320000	24.389659
0.330000	24.389659
0.340000	24.389659
0.350000	24.389659
0.360000	24.389659
0.370000	24.389659
0.380000	24.389659
0.390000	24.389659
0.400000	24.389659
0.410000	24.389659
0.420000	24.389659
0.430000	24.389659
0.440000	24.389659
0.450000	24.389659
0.460000	24.389659
0.470000	24.389659
0.480000	24.389659
0.490000	24.389659
0.500000	24.400780
0.510000	24.400780
0.520000	24.400780
0.530000	24.400780
0.540000	24.400780
0.550000	24.400780
0.560000	24.400780
0.570000	24.400780
0.580000	24.400780
0.590000	24.400780
0.600000	24.400780
0.610000	24.400780
0.620000	24.400780
0.630000	24.400780
0.640000	24.400780
0.650000	24.400780
0.660000	24.400780
0.670000	24.400780
0.680000	24.400780
0.690000	24.400780
0.700000	24.400780
0.710000	24.400780
0.720000	24.400780
0.730000	24.400780
0.740000	24.400780
0.750000	24.400780
0.760000	24.400780
0.770000	24.400780
0.780000	24.400780
0.790000	24.400780
0.800000	24.400780
0.810000	24.400780
0.820000	24.400780
0.830000	24.400780
0.840000	24.400780
0.850000	24.400780
0.860000	24.400780
0.870000	24.400780
0.880000	24.400780
0.890000	24.400780
0.900000	24.400780
0.910000	24.400780
0.920000	24.400780
0.930000	24.400780
0.940000	24.400780
0.950000	24.400780
0.960000	24.400780
0.970000	24.400780
0.980000	24.400780
0.990000	24.400780
1.000000	24.413270
1.010000	24.413270
1.020000	24.413270
1.030000	24.413270
1.040000	24.413270
1.050000	24.413270
1.060000	24.413270
1.070000	24.413270
1.080000	24.413270
1.090000	24.413270
1.100000	24.413270
1.110000	24.413270
1.120000	24.413270
1.130000	24.413270
1.140000	24.413270
1.150000	24.413270
1.160000	24.413270
1.170000	24.413270
1.180000	24.413270
1.190000	24.413270
1.200000	24.413270
1.210000	24.413270
1.220000	24.413270
1.230000	24.413270
1.240000	24.413270
1.250000	24.413270
1.260000	24.413270
1.270000	24.413270
1.280000	24.413270
1.290000	24.413270
1.300000	24.413270
1.310000	24.413270
1.320000	24.413270
1.330000	24.413270
1.340000	24.413270
1.350000	24.413270
1.360000	24.413270
1.370000	24.413270
1.380000	24.413270
1.390000	24.413270
1.400000	24.413270
1.410000	24.413270
1.420000	24.413270
1.430000	24.413270
1.440000	24.413270
1.450000	24.413270
1.460000	24.413270
1.470000	24.413270
1.480000	24.413270
1.490000	24.413270
1.500000	24.428019
1.510000	24.428019
1.520000	24.428019
1.530000	24.428019
1.540000	24.428019
1.550000	24.428019
1.560000	24.428019
1.570000	24.428019
1.580000	24.428019
1.590000	24.428019
1.600000	24.428019
1.610000	24.428019
1.620000	24.428019
1.630000	24.428019
1.640000	24.428019
1.650000	24.428019
1.660000	24.428019
1.670000	24.428019
1.680000	24.428019
1.690000	24.428019
1.700000	24.428019
1.710000	24.428019
1.720000	24.428019
1.730000	24.428019
1.740000	24.428019
1.750000	24.428019
1.760000	24.428019
1.770000	24.428019
1.780000	24.428019
1.790000	24.428019
1.800000	24.428019
1.810000	24.428019
1.820000	24.428019
1.830000	24.428019
1.840000	24.428019
1.850000	24.428019
1.860000	24.428019
1.870000	24.428019
1.880000	24.428019
1.890000	24.428019
1.900000	24.428019
1.910000	24.428019
1.920000	24.428019
1.930000	24.428019
1.940000	24.428019
1.950000	24.428019
1.960000	24.428019
1.970000	24.428019
1.980000	24.428019
1.990000	24.428019
2.000000	24.445476
2.010000	24.445476
2.020000	24.445476
2.030000	24.445476
2.040000	24.445476
2.050000	24.445476
2.060000	24.445476
2.070000	24.445476
2.080000	24.445476
2.090000	24.445476
2.100000	24.445476
2.110000	24.445476
2.120000	24.445476
2.130000	24.445476
2.140000	24.445476
2.150000	24.445476
2.160000	24.445476
2.170000	24.445476
2.180000	24.445476
2.190000	24.445476
2.200000	24.445476
2.210000	24.445476
2.220000	24.445476
2.230000	24.445476
2.240000	24.445476
2.250000	24.445476
2.260000	24.445476
2.270000	24.445476
2.280000	24.445476
2.290000	24.445476
2.300000	24.445476
2.310000	24.445476
2.320000	24.445476
2.330000	24.445476
2.340000	24.445476
2.350000	24.445476
2.360000	24.445476
2.370000	24.445476
2.380000	24.445476
2.390000	24.445476
2.400000	24.445476
2.410000	24.445476
2.420000	24.445476
2.430000	24.445476
2.440000	24.445476
2.450000	24.445476
2.460000	24.445476
2.470000	24.445476
2.480000	24.445476
2.490000	24.445476
2.500000	24.466810
2.510000	24.466810
2.520000	24.466810
2.530000	24.466810
2.540000	24.466810
2.550000	24.466810
2.560000	24.466810
2.570000	24.466810
2.580000	24.466810
2.590000	24.466810
2.600000	24.466810
2.610000	24.466810
2.620000	24.466810
2.630000	24.466810
2.640000	24.466810
2.650000	24.466810
2.660000	24.466810
2.670000	24.466810
2.680000	24.466810
2.690000	24.466810
2.700000	24.466810
2.710000	24.466810
2.720000	24.466810
2.730000	24.466810
2.740000	24.466810
2.750000	24.466810
2.760000	24.466810
2.770000	24.466810
2.780000	24.466810
2.790000	24.466810
2.800000	24.466810
2.810000	24.466810
2.820000	24.466810
2.830000	24.466810
2.840000	24.466810
2.850000	24.466810
2.860000	24.466810
2.870000	24.466810
2.880000	24.466810
2.890000	24.466810
2.900000	24.466810
2.910000	24.466810
2.920000	24.466810
2.930000	24.466810
2.940000	24.466810
2.950000	24.466810
2.960000	24.466810
2.970000	24.466810
2.980000	24.466810
2.990000	24.466810
3.000000	24.489738
3.010000	24.489738
3.020000	24.489738
3.030000	24.489738
3.040000	24.489738
3.050000	24.489738
3.060000	24.489738
3.070000	24.489738
3.080000	24.489738
3.090000	24.489738
3.100000	24.489738
3.110000	24.489738
3.120000	24.489738
3.130000	24.489738
3.140000	24.489738
3.150000	24.489738
3.160000	24.489738
3.170000	24.489738
3.180000	24.489738
3.190000	24.489738
3.200000	24.489738
3.210000	24.489738
3.220000	24.489738
3.230000	24.489738
3.240000	24.489738
3.250000	24.489738
3.260000	24.489738
3.270000	24.489738
3.280000	24.489738
3.290000	24.489738
3.300000	24.489738
3.310000	24.489738
3.320000	24.489738
3.330000	24.489738
3.340000	24.489738
3.350000	24.489738
3.360000	24.489738
3.370000	24.489738
3.380000	24.489738
3.390000	24.489738
3.400000	24.489738
3.410000	24.489738
3.420000	24.489738
3.430000	24.489738
3.440000	24.489738
3.450000	24.489738
3.460000	24.489738
3.470000	24.489738
3.480000	24.489738
3.490000	24.489738
3.500000	24.511879
3.510000	24.511879
3.520000	24.511879
3.530000	24.511879
3.540000	24.511879
3.550000	24.511879
3.560000	24.511879
3.570000	24.511879
3.580000	24.511879
3.590000	24.511879
3.600000	24.511879
3.610000	24.511879
3.620000	24.511879
3.630000	24.511879
3.640000	24.511879
3.650000	24.511879
3.660000	24.511879
3.670000	24.511879
3.680000	24.511879
3.690000	24.511879
3.700000	24.511879
3.710000	24.511879
3.720000	24.511879
3.730000	24.511879
3.740000	24.511879
3.750000	24.511879
3.760000	24.511879
3.770000	24.511879
3.780000	24.511879
3.790000	24.511879
3.800000	24.511879
3.810000	24.511879
3.820000	24.511879
3.830000	24.511879
3.840000	24.511879
3.850000	24.511879
3.860000	24.511879
3.870000	24.511879
3.880000	24.511879
3.890000	24.511879
3.900000	24.511879
3.910000	24.511879
3.920000	24.511879
3.930000	24.511879
3.940000	24.511879
3.950000	24.511879
3.960000	24.511879
3.970000	24.511879
3.980000	24.511879
3.990000	24.511879
4.000000	24.530264
4.010000	24.530264
4.020000	24.530264
4.030000	24.530264
4.040000	24.530264
4.050000	24.530264
4.060000	24.530264
4.070000	24.530264
4.080000	24.530264
4.090000	24.530264
4.100000	24.530264
4.110000	24.530264
4.120000	24.530264
4.130000	24.530264
4.140000	24.530264
4.150000	24.530264
4.160000	24.530264
4.170000	24.530264
4.180000	24.530264
4.190000	24.530264
4.200000	24.530264
4.210000	24.530264
4.220000	24.530264
4.230000	24.530264
4.240000	24.530264
4.250000	24.530264
4.260000	24.530264
4.270000	24.530264
4.280000	24.530264
4.290000	24.530264
4.300000	24.530264
4.310000	24.530264
4.320000	24.530264
4.330000	24.530264
4.340000	24.530264
4.350000	24.530264
4.360000	24.530264
4.370000	24.530264
4.380000	24.530264
4.390000	24.530264
4.400000	24.530264
4.410000	24.530264
4.420000	24.530264
4.430000	24.530264
4.440000	24.530264
4.450000	24.530264
4.460000	24.530264
4.470000	24.530264
4.480000	24.530264
4.490000	24.530264
4.500000	24.547415
4.510000	24.547415
4.520000	24.547415
4.530000	24.547415
4.540000	24.547415
4.550000	24.547415
4.560000	24.547415
4.570000	24.547415
4.580000	24.547415
4.590000	24.547415
4.600000	24.547415
4.610000	24.547415
4.620000	24.547415
4.630000	24.547415
4.640000	24.547415
4.650000	24.547415
4.660000	24.547415
4.670000	24.547415
4.680000	24.547415
4.690000	24.547415
4.700000	24.547415
4.710000	24.547415
4.720000	24.547415
4.730000	24.547415
4.740000	24.547415
4.750000	24.547415
4.760000	24.547415
4.770000	24.547415
4.780000	24.547415
4.790000	24.547415
4.800000	24.547415
4.810000	24.547415
4.820000	24.547415
4.830000	24.547415
4.840000	24.547415
4.850000	24.547415
4.860000	24.547415
4.870000	24.547415
4.880000	24.547415
4.890000	24.547415
4.900000	24.547415
4.910000	24.547415
4.920000	24.547415
4.930000	24.547415
4.940000	24.547415
4.950000	24.547415
4.960000	24.547415
4.970000	24.547415
4.980000	24.547415
4.990000	24.547415
5.000000	24.563209
5.010000	24.563209
5.020000	24.563209
5.030000	24.563209
5.040000	24.563209
5.050000	24.563209
5.060000	24.563209
5.070000	24.563209
5.080000	24.563209
5.090000	24.563209
5.100000	24.563209
5.110000	24.563209
5.120000	24.563209
5.130000	24.563209
5.140000	24.563209
5.150000	24.563209
5.160000	24.563209
5.170000	24.563209
5.180000	24.563209
5.190000	24.563209
5.200000	24.563209
5.210000	24.563209
5.220000	24.563209
5.230000	24.563209
5.240000	24.563209
5.250000	24.563209
5.260000	24.563209
5.270000	24.563209
5.280000	24.563209
5.290000	24.563209
5.300000	24.563209
5.310000	24.563209
5.320000	24.563209
5.330000	24.563209
5.340000	24.563209
5.350000	24.563209
5.360000	24.563209
5.370000	24.563209
5.380000	24.563209
5.390000	24.563209
5.400000	24.563209
5.410000	24.563209
5.420000	24.563209
5.430000	24.563209
5.440000	24.563209
5.450000	24.563209
5.460000	24.563209
5.470000	24.563209
5.480000	24.563209
5.490000	24.563209
5.500000	24.578224
5.510000	24.578224
5.520000	24.578224
5.530000	24.578224
5.540000	24.578224
5.550000	24.578224
5.560000	24.578224
5.570000	24.578224
5.580000	24.578224
5.590000	24.578224
5.600000	24.578224
5.610000	24.578224
5.620000	24.578224
5.630000	24.578224
5.640000	24.578224
5.650000	24.578224
5.660000	24.578224
5.670000	24.578224
5.680000	24.578224
5.690000	24.578224
5.700000	24.578224
5.710000	24.578224
5.720000	24.578224
5.730000	24.578224
5.740000	24.578224
5.750000	24.578224
5.760000	24.578224
5.770000	24.578224
5.780000	24.578224
5.790000	24.578224
5.800000	24.578224
5.810000	24.578224
5.820000	24.578224
5.830000	24.578224
5.840000	24.578224
5.850000	24.578224
5.860000	24.578224
5.870000	24.578224
5.880000	24.578224
5.890000	24.578224
5.900000	24.578224
5.910000	24.578224
5.920000	24.578224
5.930000	24.578224
5.940000	24.578224
5.950000	24.578224
5.960000	24.578224
5.970000	24.578224
5.980000	24.578224
5.990000	24.578224
6.000000	24.590702
6.010000	24.590702
6.020000	24.590702
6.030000	24.590702
6.040000	24.590702
6.050000	24.590702
6.060000	24.590702
6.070000	24.590702
6.080000	24.590702
6.090000	24.590702
6.100000	24.590702
6.110000	24.590702
6.120000	24.590702
6.130000	24.590702
6.140000	24.590702
6.150000	24.590702
6.160000	24.590702
6.170000	24.590702
6.180000	24.590702
6.190000	24.590702
6.200000	24.590702
6.210000	24.590702
6.220000	24.590702
6.230000	24.590702
6.240000	24.590702
6.250000	24.590702
6.260000	24.590702
6.270000	24.590702
6.280000	24.590702
6.290000	24.590702
6.300000	24.590702
6.310000	24.590702
6.320000	24.590702
6.330000	24.590702
6.340000	24.590702
6.350000	24.590702
6.360000	24.590702
6.370000	24.590702
6.380000	24.590702
6.390000	24.590702
6.400000	24.590702
6.410000	24.590702
6.420000	24.590702
6.430000	24.590702
6.440000	24.590702
6.450000	24.590702
6.460000	24.590702
6.470000	24.590702
6.480000	24.590702
6.490000	24.590702
6.500000	24.602142
6.510000	24.602142
6.520000	24.602142
6.530000	24.602142
6.540000	24.602142
6.550000	24.602142
6.560000	24.602142
6.570000	24.602142
6.580000	24.602142
6.590000	24.602142
6.600000	24.602142
6.610000	24.602142
6.620000	24.602142
6.630000	24.602142
6.640000	24.602142
6.650000	24.602142
6.660000	24.602142
6.670000	24.602142
6.680000	24.602142
6.690000	24.602142
6.700000	24.602142
6.710000	24.602142
6.720000	24.602142
6.730000	24.602142
6.740000	24.602142
6.750000	24.602142
6.760000	24.602142
6.770000	24.602142
6.780000	24.602142
6.790000	24.602142
6.800000	24.602142
6.810000	24.602142
6.820000	24.602142
6.830000	24.602142
6.840000	24.602142
6.850000	24.602142
6.860000	24.602142
6.870000	24.602142
6.880000	24.602142
6.890000	24.602142
6.900000	24.602142
6.910000	24.602142
6.920000	24.602142
6.930000	24.602142
6.940000	24.602142
6.950000	24.602142
6.960000	24.602142
6.970000	24.602142
6.980000	24.602142
6.990000	24.602142
7.000000	24.612970
7.010000	24.612970
7.020000	24.612970
7.030000	24.612970
7.040000	24.612970
7.050000	24.612970
7.060000	24.612970
7.070000	24.612970
7.080000	24.612970
7.090000	24.612970
7.100000	24.612970
7.110000	24.612970
7.120000	24.612970
7.130000	24.612970
7.140000	24.612970
7.150000	24.612970
7.160000	24.612970
7.170000	24.612970
7.180000	24.612970
7.190000	24.612970
7.200000	24.612970
7.210000	24.612970
7.220000	24.612970
7.230000	24.612970
7.240000	24.612970
7.250000	24.612970
7.260000	24.612970
7.270000	24.612970
7.280000	24.612970
7.290000	24.612970
7.300000	24.612970
7.310000	24.612970
7.320000	24.612970
7.330000	24.612970
7.340000	24.612970
7.350000	24.612970
7.360000	24.612970
7.370000	24.612970
7.380000	24.612970
7.390000	24.612970
7.400000	24.612970
7.410000	24.612970
7.420000	24.612970
7.430000	24.612970
7.440000	24.612970
7.450000	24.612970
7.460000	24.612970
7.470000	24.612970
7.480000	24.612970
7.490000	24.612970
7.500000	24.622249
7.510000	24.622249
7.520000	24.622249
7.530000	24.622249
7.540000	24.622249
7.550000	24.622249
7.560000	24.622249
7.570000	24.622249
7.580000	24.622249
7.590000	24.622249
7.600000	24.622249
7.610000	24.622249
7.620000	24.622249
7.630000	24.622249
7.640000	24.622249
7.650000	24.622249
7.660000	24.622249
7.670000	24.622249
7.680000	24.622249
7.690000	24.622249
7.700000	24.622249
7.710000	24.622249
7.720000	24.622249
7.730000	24.622249
7.740000	24.622249
7.750000	24.622249
7.760000	24.622249
7.770000	24.622249
7.780000	24.622249
7.790000	24.622249
7.800000	24.622249
7.810000	24.622249
7.820000	24.622249
7.830000	24.622249
7.840000	24.622249
7.850000	24.622249
7.860000	24.622249
7.870000	24.622249
7.880000	24.622249
7.890000	24.622249
7.900000	24.622249
7.910000	24.622249
7.920000	24.622249
7.930000	24.622249
7.940000	24.622249
7.950000	24.622249
7.960000	24.622249
7.970000	24.622249
7.980000	24.622249
7.990000	24.622249
8.000000	24.630221
8.010000	24.630221
8.020000	24.630221
8.030000	24.630221
8.040000	24.630221
8.050000	24.630221
8.060000	24.630221
8.070000	24.630221
8.080000	24.630221
8.090000	24.630221
8.100000	24.630221
8.110000	24.630221
8.120000	24.630221
8.130000	24.630221
8.140000	24.630221
8.150000	24.630221
8.160000	24.630221
8.170000	24.630221
8.180000	24.630221
8.190000	24.630221
8.200000	24.630221
8.210000	24.630221
8.220000	24.630221
8.230000	24.630221
8.240000	24.630221
8.250000	24.630221
8.260000	24.630221
8.270000	24.630221
8.280000	24.630221
8.290000	24.630221
8.300000	24.630221
8.310000	24.630221
8.320000	24.630221
8.330000	24.630221
8.340000	24.630221
8.350000	24.630221
8.360000	24.630221
8.370000	24.630221
8.380000	24.630221
8.390000	24.630221
8.400000	24.630221
8.410000	24.630221
8.420000	24.630221
8.430000	24.630221
8.440000	24.630221
8.450000	24.630221
8.460000	24.630221
8.470000	24.630221
8.480000	24.630221
8.490000	24.630221
8.500000	24.636854
8.510000	24.636854
8.520000	24.636854
8.530000	24.636854
8.540000	24.636854
8.550000	24.636854
8.560000	24.636854
8.570000	24.636854
8.580000	24.636854
8.590000	24.636854
8.600000	24.636854
8.610000	24.636854
8.620000	24.636854
8.630000	24.636854
8.640000	24.636854
8.650000	24.636854
8.660000	24.636854
8.670000	24.636854
8.680000	24.636854
8.690000	24.636854
8.700000	24.636854
8.710000	24.636854
8.720000	24.636854
8.730000	24.636854
8.740000	24.636854
8.750000	24.636854
8.760000	24.636854
8.770000	24.636854
8.780000	24.636854
8.790000	24.636854
8.800000	24.636854
8.810000	24.636854
8.820000	24.636854
8.830000	24.636854
8.840000	24.636854
8.850000	24.636854
8.860000	24.636854
8.870000	24.636854
8.880000	24.636854
8.890000	24.636854
8.900000	24.636854
8.910000	24.636854
8.920000	24.636854
8.930000	24.636854
8.940000	24.636854
8.950000	24.636854
8.960000	24.636854
8.970000	24.636854
8.980000	24.636854
8.990000	24.636854
9.000000	24.643033
9.010000	24.643033
9.020000	24.643033
9.030000	24.643033
9.040000	24.643033
9.050000	24.643033
9.060000	24.643033
9.070000	24.643033
9.080000	24.643033
9.090000	24.643033
9.100000	24.643033
9.110000	24.643033
9.120000	24.643033
9.130000	24.643033
9.140000	24.643033
9.150000	24.643033
9.160000	24.643033
9.170000	24.643033
9.180000	24.643033
9.190000	24.643033
9.200000	24.643033
9.210000	24.643033
9.220000	24.643033
9.230000	24.643033
9.240000	24.643033
9.250000	24.643033
9.260000	24.643033
9.270000	24.643033
9.280000	24.643033
9.290000	24.643033
9.300000	24.643033
9.310000	24.643033
9.320000	24.643033
9.330000	24.643033
9.340000	24.643033
9.350000	24.643033
9.360000	24.643033
9.370000	24.643033
9.380000	24.643033
9.390000	24.643033
9.400000	24.643033
9.410000	24.643033
9.420000	24.643033
9.430000	24.643033
9.440000	24.643033
9.450000	24.643033
9.460000	24.643033
9.470000	24.643033
9.480000	24.643033
9.490000	24.643033
9.500000	24.648569
9.510000	24.648569
9.520000	24.648569
9.530000	24.648569
9.540000	24.648569
9.550000	24.648569
9.560000	24.648569
9.570000	24.648569
9.580000	24.648569
9.590000	24.648569
9.600000	24.648569
9.610000	24.648569
9.620000	24.648569
9.630000	24.648569
9.640000	24.648569
9.650000	24.648569
9.660000	24.648569
9.670000	24.648569
9.680000	24.648569
9.690000	24.648569
9.700000	24.648569
9.710000	24.648569
9.720000	24.648569
9.730000	24.648569
9.740000	24.648569
9.750000	24.648569
9.760000	24.648569
9.770000	24.648569
9.780000	24.648569
9.790000	24.648569
9.800000	24.648569
9.810000	24.648569
9.820000	24.648569
9.830000	24.648569
9.840000	24.648569
9.850000	24.648569
9.860000	24.648569
9.870000	24.648569
9.880000	24.648569
9.890000	24.648569
9.900000	24.648569
9.910000	24.648569
9.920000	24.648569
9.930000	24.648569
9.940000	24.648569
9.950000	24.648569
9.960000	24.648569
9.970000	24.648569
9.980000	24.648569
9.990000	24.648569
10.000000	24.653835
10.010000	24.653835
10.020000	24.653835
10.030000	24.653835
10.040000	24.653835
10.050000	24.653835
10.060000	24.653835
10.070000	24.653835
10.080000	24.653835
10.090000	24.653835
10.100000	24.653835
10.110000	24.653835
10.120000	24.653835
10.130000	24.653835
10.140000	24.653835
10.150000	24.653835
10.160000	24.653835
10.170000	24.653835
10.180000	24.653835
10.190000	24.653835
10.200000	24.653835
10.210000	24.653835
10.220000	24.653835
10.230000	24.653835
10.240000	24.653835
10.250000	24.653835
10.260000	24.653835
10.270000	24.653835
10.280000	24.653835
10.290000	24.653835
10.300000	24.653835
10.310000	24.653835
10.320000	24.653835
10.330000	24.653835
10.340000	24.653835
10.350000	24.653835
10.360000	24.653835
10.370000	24.653835
10.380000	24.653835
10.390000	24.653835
10.400000	24.653835
10.410000	24.653835
10.420000	24.653835
10.430000	24.653835
10.440000	24.653835
10.450000	24.653835
10.460000	24.653835
10.470000	24.653835
10.480000	24.653835
10.490000	24.653835
10.500000	24.657745
10.510000	24.657745
10.520000	24.657745
10.530000	24.657745
10.540000	24.657745
10.550000	24.657745
10.560000	24.657745
10.570000	24.657745
10.580000	24.657745
10.590000	24.657745
10.600000	24.657745
10.610000	24.657745
10.620000	24.657745
10.630000	24.657745
10.640000	24.657745
10.650000	24.657745
10.660000	24.657745
10.670000	24.657745
10.680000	24.657745
10.690000	24.657745
10.700000	24.657745
10.710000	24.657745
10.720000	24.657745
10.730000	24.657745
10.740000	24.657745
10.750000	24.657745
10.760000	24.657745
10.770000	24.657745
10.780000	24.657745
10.790000	24.657745
10.800000	24.657745
10.810000	24.657745
10.820000	24.657745
10.830000	24.657745
10.840000	24.657745
10.850000	24.657745
10.860000	24.657745
10.870000	24.657745
10.880000	24.657745
10.890000	24.657745
10.900000	24.657745
10.910000	24.657745
10.920000	24.657745
10.930000	24.657745
10.940000	24.657745
10.950000	24.657745
10.960000	24.657745
10.970000	24.657745
10.980000	24.657745
10.990000	24.657745
11.000000	24.661168
11.010000	24.661168
11.020000	24.661168
11.030000	24.661168
11.040000	24.661168
11.050000	24.661168
11.060000	24.661168
11.070000	24.661168
11.080000	24.661168
11.090000	24.661168
11.100000	24.661168
11.110000	24.661168
11.120000	24.661168
11.130000	24.661168
11.140000	24.661168
11.150000	24.661168
11.160000	24.661168
11.170000	24.661168
11.180000	24.661168
11.190000	24.661168
11.200000	24.661168
11.210000	24.661168
11.220000	24.661168
11.230000	24.661168
11.240000	24.661168
11.250000	24.661168
11.260000	24.661168
11.270000	24.661168
11.280000	24.661168
11.290000	24.661168
11.300000	24.661168
11.310000	24.661168
11.320000	24.661168
11.330000	24.661168
11.340000	24.661168
11.350000	24.661168
11.360000	24.661168
11.370000	24.661168
11.380000	24.661168
11.390000	24.661168
11.400000	24.661168
11.410000	24.661168
11.420000	24.661168
11.430000	24.661168
11.440000	24.661168
11.450000	24.661168
11.460000	24.661168
11.470000	24.661168
11.480000	24.661168
11.490000	24.661168
11.500000	24.664156
11.510000	24.664156
11.520000	24.664156
11.530000	24.664156
11.540000	24.664156
11.550000	24.664156
11.560000	24.664156
11.570000	24.664156
11.580000	24.664156
11.590000	24.664156
11.600000	24.664156
11.610000	24.664156
11.620000	24.664156
11.630000	24.664156
11.640000	24.664156
11.650000	24.664156
11.660000	24.664156
11.670000	24.664156
11.680000	24.664156
11.690000	24.664156
11.700000	24.664156
11.710000	24.664156
11.720000	24.664156
11.730000	24.664156
11.740000	24.664156
11.750000	24.664156
11.760000	24.664156
11.770000	24.664156
11.780000	24.664156
11.790000	24.664156
11.800000	24.664156
11.810000	24.664156
11.820000	24.664156
11.830000	24.664156
11.840000	24.664156
11.850000	24.664156
11.860000	24.664156
11.870000	24.664156
11.880000	24.664156
11.890000	24.664156
11.900000	24.664156
11.910000	24.664156
11.920000	24.664156
11.930000	24.664156
11.940000	24.664156
11.950000	24.664156
11.960000	24.664156
11.970000	24.664156
11.980000	24.664156
11.990000	24.664156
12.000000	24.666528
12.010000	24.666528
12.020000	24.666528
12.030000	24.666528
12.040000	24.666528
12.050000	24.666528
12.060000	24.666528
12.070000	24.666528
12.080000	24.666528
12.090000	24.666528
12.100000	24.666528
12.110000	24.666528
12.120000	24.666528
12.130000	24.666528
12.140000	24.666528
12.150000	24.666528
12.160000	24.666528
12.170000	24.666528
12.180000	24.666528
12.190000	24.666528
12.200000	24.666528
12.210000	24.666528
12.220000	24.666528
12.230000	24.666528
12.240000	24.666528
12.250000	24.666528
12.260000	24.666528
12.270000	24.666528
12.280000	24.666528
12.290000	24.666528
12.300000	24.666528
12.310000	24.666528
12.320000	24.666528
12.330000	24.666528
12.340000	24.666528
12.350000	24.666528
12.360000	24.666528
12.370000	24.666528
12.380000	24.666528
12.390000	24.666528
12.400000	24.666528
12.410000	24.666528
12.420000	24.666528
12.430000	24.666528
12.440000	24.666528
12.450000	24.666528
12.460000	24.666528
12.470000	24.666528
12.480000	24.666528
12.490000	24.666528
12.500000	24.668239
12.510000	24.668239
12.520000	24.668239
12.530000	24.668239
12.540000	24.668239
12.550000	24.668239
12.560000	24.668239
12.570000	24.668239
12.580000	24.668239
12.590000	24.668239
12.600000	24.668239
12.610000	24.668239
12.620000	24.668239
12.630000	24.668239
12.640000	24.668239
12.650000	24.668239
12.660000	24.668239
12.670000	24.668239
12.680000	24.668239
12.690000	24.668239
12.700000	24.668239
12.710000	24.668239
12.720000	24.668239
12.730000	24.668239
12.740000	24.668239
12.750000	24.668239
12.760000	24.668239
12.770000	24.668239
12.780000	24.668239
12.790000	24.668239
12.800000	24.668239
12.810000	24.668239
12.820000	24.668239
12.830000	24.668239
12.840000	24.668239
12.850000	24.668239
12.860000	24.668239
12.870000	24.668239
12.880000	24.668239
12.890000	24.668239
12.900000	24.668239
12.910000	24.668239
12.920000	24.668239
12.930000	24.668239
12.940000	24.668239
12.950000	24.668239
12.960000	24.668239
12.970000	24.668239
12.980000	24.668239
12.990000	24.668239
13.000000	24.669942
13.010000	24.669942
13.020000	24.669942
13.030000	24.669942
13.040000	24.669942
13.050000	24.669942
13.060000	24.669942
13.070000	24.669942
13.080000	24.669942
13.090000	24.669942
13.100000	24.669942
13.110000	24.669942
13.120000	24.669942
13.130000	24.669942
13.140000	24.669942
13.150000	24.669942
13.160000	24.669942
13.170000	24.669942
13.180000	24.669942
13.190000	24.669942
13.200000	24.669942
13.210000	24.669942
13.220000	24.669942
13.230000	24.669942
13.240000	24.669942
13.250000	24.669942
13.260000	24.669942
13.270000	24.669942
13.280000	24.669942
13.290000	24.669942
13.300000	24.669942
13.310000	24.669942
13.320000	24.669942
13.330000	24.669942
13.340000	24.669942
13.350000	24.669942
13.360000	24.669942
13.370000	24.669942
13.380000	24.669942
13.390000	24.669942
13.400000	24.669942
13.410000	24.669942
13.420000	24.669942
13.430000	24.669942
13.440000	24.669942
13.450000	24.669942
13.460000	24.669942
13.470000	24.669942
13.480000	24.669942
13.490000	24.669942
13.500000	24.670254
13.510000	24.670254
13.520000	24.670254
13.530000	24.670254
13.540000	24.670254
13.550000	24.670254
13.560000	24.670254
13.570000	24.670254
13.580000	24.670254
13.590000	24.670254
13.600000	24.670254
13.610000	24.670254
13.620000	24.670254
13.630000	24.670254
13.640000	24.670254
13.650000	24.670254
13.660000	24.670254
13.670000	24.670254
13.680000	24.670254
13.690000	24.670254
13.700000	24.670254
13.710000	24.670254
13.720000	24.670254
13.730000	24.670254
13.740000	24.670254
13.750000	24.670254
13.760000	24.670254
13.770000	24.670254
13.780000	24.670254
13.790000	24.670254
13.800000	24.670254
13.810000	24.670254
13.820000	24.670254
13.830000	24.670254
13.840000	24.670254
13.850000	24.670254
13.860000	24.670254
13.870000	24.670254
13.880000	24.670254
13.890000	24.670254
13.900000	24.670254
13.910000	24.670254
13.920000	24.670254
13.930000	24.670254
13.940000	24.670254
13.950000	24.670254
13.960000	24.670254
13.970000	24.670254
13.980000	24.670254
13.990000	24.670254
14.000000	24.670532
14.010000	24.670532
14.020000	24.670532
14.030000	24.670532
14.040000	24.670532
14.050000	24.670532
14.060000	24.670532
14.070000	24.670532
14.080000	24.670532
14.090000	24.670532
14.100000	24.670532
14.110000	24.670532
14.120000	24.670532
14.130000	24.670532
14.140000	24.670532
14.150000	24.670532
14.160000	24.670532
14.170000	24.670532
14.180000	24.670532
14.190000	24.670532
14.200000	24.670532
14.210000	24.670532
14.220000	24.670532
14.230000	24.670532
14.240000	24.670532
14.250000	24.670532
14.260000	24.670532
14.270000	24.670532
14.280000	24.670532
14.290000	24.670532
14.300000	24.670532
14.310000	24.670532
14.320000	24.670532
14.330000	24.670532
14.340000	24.670532
14.350000	24.670532
14.360000	24.670532
14.370000	24.670532
14.380000	24.670532
14.390000	24.670532
14.400000	24.670532
14.410000	24.670532
14.420000	24.670532
14.430000	24.670532
14.440000	24.670532
14.450000	24.670532
14.460000	24.670532
14.470000	24.670532
14.480000	24.670532
14.490000	24.670532
14.500000	24.670767
14.510000	24.670767
14.520000	24.670767
14.530000	24.670767
14.540000	24.670767
14.550000	24.670767
14.560000	24.670767
14.570000	24.670767
14.580000	24.670767
14.590000	24.670767
14.600000	24.670767
14.610000	24.670767
14.620000	24.670767
14.630000	24.670767
14.640000	24.670767
14.650000	24.670767
14.660000	24.670767
14.670000	24.670767
14.680000	24.670767
14.690000	24.670767
14.700000	24.670767
14.710000	24.670767
14.720000	24.670767
14.730000	24.670767
14.740000	24.670767
14.750000	24.670767
14.760000	24.670767
14.770000	24.670767
14.780000	24.670767
14.790000	24.670767
14.800000	24.670767
14.810000	24.670767
14.820000	24.670767
14.830000	24.670767
14.840000	24.670767
14.850000	24.670767
14.860000	24.670767
14.870000	24.670767
14.880000	24.670767
14.890000	24.670767
14.900000	24.670767
14.910000	24.670767
14.920000	24.670767
14.930000	24.670767
14.940000	24.670767
14.950000	24.670767
14.960000	24.670767
14.970000	24.670767
14.980000	24.670767
14.990000	24.670767
15.000000	24.671001
15.010000	24.671001
15.020000	24.671001
15.030000	24.671001
15.040000	24.671001
15.050000	24.671001
15.060000	24.671001
15.070000	24.671001
15.080000	24.671001
15.090000	24.671001
15.100000	24.671001
15.110000	24.671001
15.120000	24.671001
15.130000	24.671001
15.140000	24.671001
15.150000	24.671001
15.160000	24.671001
15.170000	24.671001
15.180000	24.671001
15.190000	24.671001
15.200000	24.671001
15.210000	24.671001
15.220000	24.671001
15.230000	24.671001
15.240000	24.671001
15.250000	24.671001
15.260000	24.671001
15.270000	24.671001
15.280000	24.671001
15.290000	24.671001
15.300000	24.671001
15.310000	24.671001
15.320000	24.671001
15.330000	24.671001
15.340000	24.671001
15.350000	24.671001
15.360000	24.671001
15.370000	24.671001
15.380000	24.671001
15.390000	24.671001
15.400000	24.671001
15.410000	24.671001
15.420000	24.671001
15.430000	24.671001
15.440000	24.671001
15.450000	24.671001
15.460000	24.671001
15.470000	24.671001
15.480000	24.671001
15.490000	24.671001
15.500000	24.671210
15.510000	24.671210
15.520000	24.671210
15.530000	24.671210
15.540000	24.671210
15.550000	24.671210
15.560000	24.671210
15.570000	24.671210
15.580000	24.671210
15.590000	24.671210
15.600000	24.671210
15.610000	24.671210
15.620000	24.671210
15.630000	24.671210
15.640000	24.671210
15.650000	24.671210
15.660000	24.671210
15.670000	24.671210
15.680000	24.671210
15.690000	24.671210
15.700000	24.671210
15.710000	24.671210
15.720000	24.671210
15.730000	24.671210
15.740000	24.671210
15.750000	24.671210
15.760000	24.671210
15.770000	24.671210
15.780000	24.671210
15.790000	24.671210
15.800000	24.671210
15.810000	24.671210
15.820000	24.671210
15.830000	24.671210
15.840000	24.671210
15.850000	24.671210
15.860000	24.671210
15.870000	24.671210
15.880000	24.671210
15.890000	24.671210
15.900000	24.671210
15.910000	24.671210
15.920000	24.671210
15.930000	24.671210
15.940000	24.671210
15.950000	24.671210
15.960000	24.671210
15.970000	24.671210
15.980000	24.671210
15.990000	24.671210
16.000000	24.670350
16.010000	24.670350
16.020000	24.670350
16.030000	24.670350
16.040000	24.670350
16.050000	24.670350
16.060000	24.670350
16.070000	24.670350
16.080000	24.670350
16.090000	24.670350
16.100000	24.670350
16.110000	24.670350
16.120000	24.670350
16.130000	24.670350
16.140000	24.670350
16.150000	24.670350
16.160000	24.670350
16.170000	24.670350
16.180000	24.670350
16.190000	24.670350
16.200000	24.670350
16.210000	24.670350
16.220000	24.670350
16.230000	24.670350
16.240000	24.670350
16.250000	24.670350
16.260000	24.670350
16.270000	24.670350
16.280000	24.670350
16.290000	24.670350
16.300000	24.670350
16.310000	24.670350
16.320000	24.670350
16.330000	24.670350
16.340000	24.670350
16.350000	24.670350
16.360000	24.670350
16.370000	24.670350
16.380000	24.670350
16.390000	24.670350
16.400000	24.670350
16.410000	24.670350
16.420000	24.670350
16.430000	24.670350
16.440000	24.670350
16.450000	24.670350
16.460000	24.670350
16.470000	24.670350
16.480000	24.670350
16.490000	24.670350
16.500000	24.669924
16.510000	24.669924
16.520000	24.669924
16.530000	24.669924
16.540000	24.669924
16.550000	24.669924
16.560000	24.669924
16.570000	24.669924
16.580000	24.669924
16.590000	24.669924
16.600000	24.669924
16.610000	24.669924
16.620000	24.669924
16.630000	24.669924
16.640000	24.669924
16.650000	24.669924
16.660000	24.669924
16.670000	24.669924
16.680000	24.669924
16.690000	24.669924
16.700000	24.669924
16.710000	24.669924
16.720000	24.669924
16.730000	24.669924
16.740000	24.669924
16.750000	24.669924
16.760000	24.669924
16.770000	24.669924
16.780000	24.669924
16.790000	24.669924
16.800000	24.669924
16.810000	24.669924
16.820000	24.669924
16.830000	24.669924
16.840000	24.669924
16.850000	24.669924
16.860000	24.669924
16.870000	24.669924
16.880000	24.669924
16.890000	24.669924
16.900000	24.669924
16.910000	24.669924
16.920000	24.669924
16.930000	24.669924
16.940000	24.669924
16.950000	24.669924
16.960000	24.669924
16.970000	24.669924
16.980000	24.669924
16.990000	24.669924
17.000000	24.669056
17.010000	24.669056
17.020000	24.669056
17.030000	24.669056
17.040000	24.669056
17.050000	24.669056
17.060000	24.669056
17.070000	24.669056
17.080000	24.669056
17.090000	24.669056
17.100000	24.669056
17.110000	24.669056
17.120000	24.669056
17.130000	24.669056
17.140000	24.669056
17.150000	24.669056
17.160000	24.669056
17.170000	24.669056
17.180000	24.669056
17.190000	24.669056
17.200000	24.669056
17.210000	24.669056
17.220000	24.669056
17.230000	24.669056
17.240000	24.669056
17.250000	24.669056
17.260000	24.669056
17.270000	24.669056
17.280000	24.669056
17.290000	24.669056
17.300000	24.669056
17.310000	24.669056
17.320000	24.669056
17.330000	24.669056
17.340000	24.669056
17.350000	24.669056
17.360000	24.669056
17.370000	24.669056
17.380000	24.669056
17.390000	24.669056
17.400000	24.669056
17.410000	24.669056
17.420000	24.669056
17.430000	24.669056
17.440000	24.669056
17.450000	24.669056
17.460000	24.669056
17.470000	24.669056
17.480000	24.669056
17.490000	24.669056
17.500000	24.667510
17.510000	24.667510
17.520000	24.667510
17.530000	24.667510
17.540000	24.667510
17.550000	24.667510
17.560000	24.667510
17.570000	24.667510
17.580000	24.667510
17.590000	24.667510
17.600000	24.667510
17.610000	24.667510
17.620000	24.667510
17.630000	24.667510
17.640000	24.667510
17.650000	24.667510
17.660000	24.667510
17.670000	24.667510
17.680000	24.667510
17.690000	24.667510
