LabVIEW Measurement	
Writer_Version	2
Reader_Version	2
Separator	Tab
Decimal_Separator	.
Multi_Headings	No
X_Columns	One
Time_Pref	Absolute
Operator	biomech-dyno
Date	2023/05/23
Time	16:26:31.1792034999998606061
***End_of_Header***	
	
Channels	1	
Samples	10	
Date	2023/05/23	
Time	17:31:21.2104448999998444295	
X_Dimension	Time	
X0	0.0000000000000000E+0	
Delta_X	0.010000	
***End_of_Header***		
X_Value	Untitled	Comment
0.000000	24.639652
0.010000	24.639652
0.020000	24.639652
0.030000	24.639652
0.040000	24.639652
0.050000	24.639652
0.060000	24.639652
0.070000	24.639652
0.080000	24.639652
0.090000	24.639652
0.100000	24.639652
0.110000	24.639652
0.120000	24.639652
0.130000	24.639652
0.140000	24.639652
0.150000	24.639652
0.160000	24.639652
0.170000	24.639652
0.180000	24.639652
0.190000	24.639652
0.200000	24.639652
0.210000	24.639652
0.220000	24.639652
0.230000	24.639652
0.240000	24.639652
0.250000	24.639652
0.260000	24.639652
0.270000	24.639652
0.280000	24.639652
0.290000	24.639652
0.300000	24.639652
0.310000	24.639652
0.320000	24.639652
0.330000	24.639652
0.340000	24.639652
0.350000	24.639652
0.360000	24.639652
0.370000	24.639652
0.380000	24.639652
0.390000	24.639652
0.400000	24.639652
0.410000	24.639652
0.420000	24.639652
0.430000	24.639652
0.440000	24.639652
0.450000	24.639652
0.460000	24.639652
0.470000	24.639652
0.480000	24.639652
0.490000	24.639652
0.500000	24.645119
0.510000	24.645119
0.520000	24.645119
0.530000	24.645119
0.540000	24.645119
0.550000	24.645119
0.560000	24.645119
0.570000	24.645119
0.580000	24.645119
0.590000	24.645119
0.600000	24.645119
0.610000	24.645119
0.620000	24.645119
0.630000	24.645119
0.640000	24.645119
0.650000	24.645119
0.660000	24.645119
0.670000	24.645119
0.680000	24.645119
0.690000	24.645119
0.700000	24.645119
0.710000	24.645119
0.720000	24.645119
0.730000	24.645119
0.740000	24.645119
0.750000	24.645119
0.760000	24.645119
0.770000	24.645119
0.780000	24.645119
0.790000	24.645119
0.800000	24.645119
0.810000	24.645119
0.820000	24.645119
0.830000	24.645119
0.840000	24.645119
0.850000	24.645119
0.860000	24.645119
0.870000	24.645119
0.880000	24.645119
0.890000	24.645119
0.900000	24.645119
0.910000	24.645119
0.920000	24.645119
0.930000	24.645119
0.940000	24.645119
0.950000	24.645119
0.960000	24.645119
0.970000	24.645119
0.980000	24.645119
0.990000	24.645119
1.000000	24.652584
1.010000	24.652584
1.020000	24.652584
1.030000	24.652584
1.040000	24.652584
1.050000	24.652584
1.060000	24.652584
1.070000	24.652584
1.080000	24.652584
1.090000	24.652584
1.100000	24.652584
1.110000	24.652584
1.120000	24.652584
1.130000	24.652584
1.140000	24.652584
1.150000	24.652584
1.160000	24.652584
1.170000	24.652584
1.180000	24.652584
1.190000	24.652584
1.200000	24.652584
1.210000	24.652584
1.220000	24.652584
1.230000	24.652584
1.240000	24.652584
1.250000	24.652584
1.260000	24.652584
1.270000	24.652584
1.280000	24.652584
1.290000	24.652584
1.300000	24.652584
1.310000	24.652584
1.320000	24.652584
1.330000	24.652584
1.340000	24.652584
1.350000	24.652584
1.360000	24.652584
1.370000	24.652584
1.380000	24.652584
1.390000	24.652584
1.400000	24.652584
1.410000	24.652584
1.420000	24.652584
1.430000	24.652584
1.440000	24.652584
1.450000	24.652584
1.460000	24.652584
1.470000	24.652584
1.480000	24.652584
1.490000	24.652584
1.500000	24.666267
1.510000	24.666267
1.520000	24.666267
1.530000	24.666267
1.540000	24.666267
1.550000	24.666267
1.560000	24.666267
1.570000	24.666267
1.580000	24.666267
1.590000	24.666267
1.600000	24.666267
1.610000	24.666267
1.620000	24.666267
1.630000	24.666267
1.640000	24.666267
1.650000	24.666267
1.660000	24.666267
1.670000	24.666267
1.680000	24.666267
1.690000	24.666267
1.700000	24.666267
1.710000	24.666267
1.720000	24.666267
1.730000	24.666267
1.740000	24.666267
1.750000	24.666267
1.760000	24.666267
1.770000	24.666267
1.780000	24.666267
1.790000	24.666267
1.800000	24.666267
1.810000	24.666267
1.820000	24.666267
1.830000	24.666267
1.840000	24.666267
1.850000	24.666267
1.860000	24.666267
1.870000	24.666267
1.880000	24.666267
1.890000	24.666267
1.900000	24.666267
1.910000	24.666267
1.920000	24.666267
1.930000	24.666267
1.940000	24.666267
1.950000	24.666267
1.960000	24.666267
1.970000	24.666267
1.980000	24.666267
1.990000	24.666267
2.000000	24.685062
2.010000	24.685062
2.020000	24.685062
2.030000	24.685062
2.040000	24.685062
2.050000	24.685062
2.060000	24.685062
2.070000	24.685062
2.080000	24.685062
2.090000	24.685062
2.100000	24.685062
2.110000	24.685062
2.120000	24.685062
2.130000	24.685062
2.140000	24.685062
2.150000	24.685062
2.160000	24.685062
2.170000	24.685062
2.180000	24.685062
2.190000	24.685062
2.200000	24.685062
2.210000	24.685062
2.220000	24.685062
2.230000	24.685062
2.240000	24.685062
2.250000	24.685062
2.260000	24.685062
2.270000	24.685062
2.280000	24.685062
2.290000	24.685062
2.300000	24.685062
2.310000	24.685062
2.320000	24.685062
2.330000	24.685062
2.340000	24.685062
2.350000	24.685062
2.360000	24.685062
2.370000	24.685062
2.380000	24.685062
2.390000	24.685062
2.400000	24.685062
2.410000	24.685062
2.420000	24.685062
2.430000	24.685062
2.440000	24.685062
2.450000	24.685062
2.460000	24.685062
2.470000	24.685062
2.480000	24.685062
2.490000	24.685062
2.500000	24.706418
2.510000	24.706418
2.520000	24.706418
2.530000	24.706418
2.540000	24.706418
2.550000	24.706418
2.560000	24.706418
2.570000	24.706418
2.580000	24.706418
2.590000	24.706418
2.600000	24.706418
2.610000	24.706418
2.620000	24.706418
2.630000	24.706418
2.640000	24.706418
2.650000	24.706418
2.660000	24.706418
2.670000	24.706418
2.680000	24.706418
2.690000	24.706418
2.700000	24.706418
2.710000	24.706418
2.720000	24.706418
2.730000	24.706418
2.740000	24.706418
2.750000	24.706418
2.760000	24.706418
2.770000	24.706418
2.780000	24.706418
2.790000	24.706418
2.800000	24.706418
2.810000	24.706418
2.820000	24.706418
2.830000	24.706418
2.840000	24.706418
2.850000	24.706418
2.860000	24.706418
2.870000	24.706418
2.880000	24.706418
2.890000	24.706418
2.900000	24.706418
2.910000	24.706418
2.920000	24.706418
2.930000	24.706418
2.940000	24.706418
2.950000	24.706418
2.960000	24.706418
2.970000	24.706418
2.980000	24.706418
2.990000	24.706418
3.000000	24.729465
3.010000	24.729465
3.020000	24.729465
3.030000	24.729465
3.040000	24.729465
3.050000	24.729465
3.060000	24.729465
3.070000	24.729465
3.080000	24.729465
3.090000	24.729465
3.100000	24.729465
3.110000	24.729465
3.120000	24.729465
3.130000	24.729465
3.140000	24.729465
3.150000	24.729465
3.160000	24.729465
3.170000	24.729465
3.180000	24.729465
3.190000	24.729465
3.200000	24.729465
3.210000	24.729465
3.220000	24.729465
3.230000	24.729465
3.240000	24.729465
3.250000	24.729465
3.260000	24.729465
3.270000	24.729465
3.280000	24.729465
3.290000	24.729465
3.300000	24.729465
3.310000	24.729465
3.320000	24.729465
3.330000	24.729465
3.340000	24.729465
3.350000	24.729465
3.360000	24.729465
3.370000	24.729465
3.380000	24.729465
3.390000	24.729465
3.400000	24.729465
3.410000	24.729465
3.420000	24.729465
3.430000	24.729465
3.440000	24.729465
3.450000	24.729465
3.460000	24.729465
3.470000	24.729465
3.480000	24.729465
3.490000	24.729465
3.500000	24.752822
3.510000	24.752822
3.520000	24.752822
3.530000	24.752822
3.540000	24.752822
3.550000	24.752822
3.560000	24.752822
3.570000	24.752822
3.580000	24.752822
3.590000	24.752822
3.600000	24.752822
3.610000	24.752822
3.620000	24.752822
3.630000	24.752822
3.640000	24.752822
3.650000	24.752822
3.660000	24.752822
3.670000	24.752822
3.680000	24.752822
3.690000	24.752822
3.700000	24.752822
3.710000	24.752822
3.720000	24.752822
3.730000	24.752822
3.740000	24.752822
3.750000	24.752822
3.760000	24.752822
3.770000	24.752822
3.780000	24.752822
3.790000	24.752822
3.800000	24.752822
3.810000	24.752822
3.820000	24.752822
3.830000	24.752822
3.840000	24.752822
3.850000	24.752822
3.860000	24.752822
3.870000	24.752822
3.880000	24.752822
3.890000	24.752822
3.900000	24.752822
3.910000	24.752822
3.920000	24.752822
3.930000	24.752822
3.940000	24.752822
3.950000	24.752822
3.960000	24.752822
3.970000	24.752822
3.980000	24.752822
3.990000	24.752822
4.000000	24.773298
4.010000	24.773298
4.020000	24.773298
4.030000	24.773298
4.040000	24.773298
4.050000	24.773298
4.060000	24.773298
4.070000	24.773298
4.080000	24.773298
4.090000	24.773298
4.100000	24.773298
4.110000	24.773298
4.120000	24.773298
4.130000	24.773298
4.140000	24.773298
4.150000	24.773298
4.160000	24.773298
4.170000	24.773298
4.180000	24.773298
4.190000	24.773298
4.200000	24.773298
4.210000	24.773298
4.220000	24.773298
4.230000	24.773298
4.240000	24.773298
4.250000	24.773298
4.260000	24.773298
4.270000	24.773298
4.280000	24.773298
4.290000	24.773298
4.300000	24.773298
4.310000	24.773298
4.320000	24.773298
4.330000	24.773298
4.340000	24.773298
4.350000	24.773298
4.360000	24.773298
4.370000	24.773298
4.380000	24.773298
4.390000	24.773298
4.400000	24.773298
4.410000	24.773298
4.420000	24.773298
4.430000	24.773298
4.440000	24.773298
4.450000	24.773298
4.460000	24.773298
4.470000	24.773298
4.480000	24.773298
4.490000	24.773298
4.500000	24.789130
4.510000	24.789130
4.520000	24.789130
4.530000	24.789130
4.540000	24.789130
4.550000	24.789130
4.560000	24.789130
4.570000	24.789130
4.580000	24.789130
4.590000	24.789130
4.600000	24.789130
4.610000	24.789130
4.620000	24.789130
4.630000	24.789130
4.640000	24.789130
4.650000	24.789130
4.660000	24.789130
4.670000	24.789130
4.680000	24.789130
4.690000	24.789130
4.700000	24.789130
4.710000	24.789130
4.720000	24.789130
4.730000	24.789130
4.740000	24.789130
4.750000	24.789130
4.760000	24.789130
4.770000	24.789130
4.780000	24.789130
4.790000	24.789130
4.800000	24.789130
4.810000	24.789130
4.820000	24.789130
4.830000	24.789130
4.840000	24.789130
4.850000	24.789130
4.860000	24.789130
4.870000	24.789130
4.880000	24.789130
4.890000	24.789130
4.900000	24.789130
4.910000	24.789130
4.920000	24.789130
4.930000	24.789130
4.940000	24.789130
4.950000	24.789130
4.960000	24.789130
4.970000	24.789130
4.980000	24.789130
4.990000	24.789130
5.000000	24.800159
5.010000	24.800159
5.020000	24.800159
5.030000	24.800159
5.040000	24.800159
5.050000	24.800159
5.060000	24.800159
5.070000	24.800159
5.080000	24.800159
5.090000	24.800159
5.100000	24.800159
5.110000	24.800159
5.120000	24.800159
5.130000	24.800159
5.140000	24.800159
5.150000	24.800159
5.160000	24.800159
5.170000	24.800159
5.180000	24.800159
5.190000	24.800159
5.200000	24.800159
5.210000	24.800159
5.220000	24.800159
5.230000	24.800159
5.240000	24.800159
5.250000	24.800159
5.260000	24.800159
5.270000	24.800159
5.280000	24.800159
5.290000	24.800159
5.300000	24.800159
5.310000	24.800159
5.320000	24.800159
5.330000	24.800159
5.340000	24.800159
5.350000	24.800159
5.360000	24.800159
5.370000	24.800159
5.380000	24.800159
5.390000	24.800159
5.400000	24.800159
5.410000	24.800159
5.420000	24.800159
5.430000	24.800159
5.440000	24.800159
5.450000	24.800159
5.460000	24.800159
5.470000	24.800159
5.480000	24.800159
5.490000	24.800159
5.500000	24.807877
5.510000	24.807877
5.520000	24.807877
5.530000	24.807877
5.540000	24.807877
5.550000	24.807877
5.560000	24.807877
5.570000	24.807877
5.580000	24.807877
5.590000	24.807877
5.600000	24.807877
5.610000	24.807877
5.620000	24.807877
5.630000	24.807877
5.640000	24.807877
5.650000	24.807877
5.660000	24.807877
5.670000	24.807877
5.680000	24.807877
5.690000	24.807877
5.700000	24.807877
5.710000	24.807877
5.720000	24.807877
5.730000	24.807877
5.740000	24.807877
5.750000	24.807877
5.760000	24.807877
5.770000	24.807877
5.780000	24.807877
5.790000	24.807877
5.800000	24.807877
5.810000	24.807877
5.820000	24.807877
5.830000	24.807877
5.840000	24.807877
5.850000	24.807877
5.860000	24.807877
5.870000	24.807877
5.880000	24.807877
5.890000	24.807877
5.900000	24.807877
5.910000	24.807877
5.920000	24.807877
5.930000	24.807877
5.940000	24.807877
5.950000	24.807877
5.960000	24.807877
5.970000	24.807877
5.980000	24.807877
5.990000	24.807877
6.000000	24.813030
6.010000	24.813030
6.020000	24.813030
6.030000	24.813030
6.040000	24.813030
6.050000	24.813030
6.060000	24.813030
6.070000	24.813030
6.080000	24.813030
6.090000	24.813030
6.100000	24.813030
6.110000	24.813030
6.120000	24.813030
6.130000	24.813030
6.140000	24.813030
6.150000	24.813030
6.160000	24.813030
6.170000	24.813030
6.180000	24.813030
6.190000	24.813030
6.200000	24.813030
6.210000	24.813030
6.220000	24.813030
6.230000	24.813030
6.240000	24.813030
6.250000	24.813030
6.260000	24.813030
6.270000	24.813030
6.280000	24.813030
6.290000	24.813030
6.300000	24.813030
6.310000	24.813030
6.320000	24.813030
6.330000	24.813030
6.340000	24.813030
6.350000	24.813030
6.360000	24.813030
6.370000	24.813030
6.380000	24.813030
6.390000	24.813030
6.400000	24.813030
6.410000	24.813030
6.420000	24.813030
6.430000	24.813030
6.440000	24.813030
6.450000	24.813030
6.460000	24.813030
6.470000	24.813030
6.480000	24.813030
6.490000	24.813030
6.500000	24.816346
6.510000	24.816346
6.520000	24.816346
6.530000	24.816346
6.540000	24.816346
6.550000	24.816346
6.560000	24.816346
6.570000	24.816346
6.580000	24.816346
6.590000	24.816346
6.600000	24.816346
6.610000	24.816346
6.620000	24.816346
6.630000	24.816346
6.640000	24.816346
6.650000	24.816346
6.660000	24.816346
6.670000	24.816346
6.680000	24.816346
6.690000	24.816346
6.700000	24.816346
6.710000	24.816346
6.720000	24.816346
6.730000	24.816346
6.740000	24.816346
6.750000	24.816346
6.760000	24.816346
6.770000	24.816346
6.780000	24.816346
6.790000	24.816346
6.800000	24.816346
6.810000	24.816346
6.820000	24.816346
6.830000	24.816346
6.840000	24.816346
6.850000	24.816346
6.860000	24.816346
6.870000	24.816346
6.880000	24.816346
6.890000	24.816346
6.900000	24.816346
6.910000	24.816346
6.920000	24.816346
6.930000	24.816346
6.940000	24.816346
6.950000	24.816346
6.960000	24.816346
6.970000	24.816346
6.980000	24.816346
6.990000	24.816346
7.000000	24.817792
7.010000	24.817792
7.020000	24.817792
7.030000	24.817792
7.040000	24.817792
7.050000	24.817792
7.060000	24.817792
7.070000	24.817792
7.080000	24.817792
7.090000	24.817792
7.100000	24.817792
7.110000	24.817792
7.120000	24.817792
7.130000	24.817792
7.140000	24.817792
7.150000	24.817792
7.160000	24.817792
7.170000	24.817792
7.180000	24.817792
7.190000	24.817792
7.200000	24.817792
7.210000	24.817792
7.220000	24.817792
7.230000	24.817792
7.240000	24.817792
7.250000	24.817792
7.260000	24.817792
7.270000	24.817792
7.280000	24.817792
7.290000	24.817792
7.300000	24.817792
7.310000	24.817792
7.320000	24.817792
7.330000	24.817792
7.340000	24.817792
7.350000	24.817792
7.360000	24.817792
7.370000	24.817792
7.380000	24.817792
7.390000	24.817792
7.400000	24.817792
7.410000	24.817792
7.420000	24.817792
7.430000	24.817792
7.440000	24.817792
7.450000	24.817792
7.460000	24.817792
7.470000	24.817792
7.480000	24.817792
7.490000	24.817792
7.500000	24.817247
7.510000	24.817247
7.520000	24.817247
7.530000	24.817247
7.540000	24.817247
7.550000	24.817247
7.560000	24.817247
7.570000	24.817247
7.580000	24.817247
7.590000	24.817247
7.600000	24.817247
7.610000	24.817247
7.620000	24.817247
7.630000	24.817247
7.640000	24.817247
7.650000	24.817247
7.660000	24.817247
7.670000	24.817247
7.680000	24.817247
7.690000	24.817247
7.700000	24.817247
7.710000	24.817247
7.720000	24.817247
7.730000	24.817247
7.740000	24.817247
7.750000	24.817247
7.760000	24.817247
7.770000	24.817247
7.780000	24.817247
7.790000	24.817247
7.800000	24.817247
7.810000	24.817247
7.820000	24.817247
7.830000	24.817247
7.840000	24.817247
7.850000	24.817247
7.860000	24.817247
7.870000	24.817247
7.880000	24.817247
7.890000	24.817247
7.900000	24.817247
7.910000	24.817247
7.920000	24.817247
7.930000	24.817247
7.940000	24.817247
7.950000	24.817247
7.960000	24.817247
7.970000	24.817247
7.980000	24.817247
7.990000	24.817247
8.000000	24.816892
8.010000	24.816892
8.020000	24.816892
8.030000	24.816892
8.040000	24.816892
8.050000	24.816892
8.060000	24.816892
8.070000	24.816892
8.080000	24.816892
8.090000	24.816892
8.100000	24.816892
8.110000	24.816892
8.120000	24.816892
8.130000	24.816892
8.140000	24.816892
8.150000	24.816892
8.160000	24.816892
8.170000	24.816892
8.180000	24.816892
8.190000	24.816892
8.200000	24.816892
8.210000	24.816892
8.220000	24.816892
8.230000	24.816892
8.240000	24.816892
8.250000	24.816892
8.260000	24.816892
8.270000	24.816892
8.280000	24.816892
8.290000	24.816892
8.300000	24.816892
8.310000	24.816892
8.320000	24.816892
8.330000	24.816892
8.340000	24.816892
8.350000	24.816892
8.360000	24.816892
8.370000	24.816892
8.380000	24.816892
8.390000	24.816892
8.400000	24.816892
8.410000	24.816892
8.420000	24.816892
8.430000	24.816892
8.440000	24.816892
8.450000	24.816892
8.460000	24.816892
8.470000	24.816892
8.480000	24.816892
8.490000	24.816892
8.500000	24.815480
8.510000	24.815480
8.520000	24.815480
8.530000	24.815480
8.540000	24.815480
8.550000	24.815480
8.560000	24.815480
8.570000	24.815480
8.580000	24.815480
8.590000	24.815480
8.600000	24.815480
8.610000	24.815480
8.620000	24.815480
8.630000	24.815480
8.640000	24.815480
8.650000	24.815480
8.660000	24.815480
8.670000	24.815480
8.680000	24.815480
8.690000	24.815480
8.700000	24.815480
8.710000	24.815480
8.720000	24.815480
8.730000	24.815480
8.740000	24.815480
8.750000	24.815480
8.760000	24.815480
8.770000	24.815480
8.780000	24.815480
8.790000	24.815480
8.800000	24.815480
8.810000	24.815480
8.820000	24.815480
8.830000	24.815480
8.840000	24.815480
8.850000	24.815480
8.860000	24.815480
8.870000	24.815480
8.880000	24.815480
8.890000	24.815480
8.900000	24.815480
8.910000	24.815480
8.920000	24.815480
8.930000	24.815480
8.940000	24.815480
8.950000	24.815480
8.960000	24.815480
8.970000	24.815480
8.980000	24.815480
8.990000	24.815480
9.000000	24.813922
9.010000	24.813922
9.020000	24.813922
9.030000	24.813922
9.040000	24.813922
9.050000	24.813922
9.060000	24.813922
9.070000	24.813922
9.080000	24.813922
9.090000	24.813922
9.100000	24.813922
9.110000	24.813922
9.120000	24.813922
9.130000	24.813922
9.140000	24.813922
9.150000	24.813922
9.160000	24.813922
9.170000	24.813922
9.180000	24.813922
9.190000	24.813922
9.200000	24.813922
9.210000	24.813922
9.220000	24.813922
9.230000	24.813922
9.240000	24.813922
9.250000	24.813922
9.260000	24.813922
9.270000	24.813922
9.280000	24.813922
9.290000	24.813922
9.300000	24.813922
9.310000	24.813922
9.320000	24.813922
9.330000	24.813922
9.340000	24.813922
9.350000	24.813922
9.360000	24.813922
9.370000	24.813922
9.380000	24.813922
9.390000	24.813922
9.400000	24.813922
9.410000	24.813922
9.420000	24.813922
9.430000	24.813922
9.440000	24.813922
9.450000	24.813922
9.460000	24.813922
9.470000	24.813922
9.480000	24.813922
9.490000	24.813922
9.500000	24.810665
9.510000	24.810665
9.520000	24.810665
9.530000	24.810665
9.540000	24.810665
9.550000	24.810665
9.560000	24.810665
9.570000	24.810665
9.580000	24.810665
9.590000	24.810665
9.600000	24.810665
9.610000	24.810665
9.620000	24.810665
9.630000	24.810665
9.640000	24.810665
9.650000	24.810665
9.660000	24.810665
9.670000	24.810665
9.680000	24.810665
9.690000	24.810665
9.700000	24.810665
9.710000	24.810665
9.720000	24.810665
9.730000	24.810665
9.740000	24.810665
9.750000	24.810665
9.760000	24.810665
9.770000	24.810665
9.780000	24.810665
9.790000	24.810665
9.800000	24.810665
9.810000	24.810665
9.820000	24.810665
9.830000	24.810665
9.840000	24.810665
9.850000	24.810665
9.860000	24.810665
9.870000	24.810665
9.880000	24.810665
9.890000	24.810665
9.900000	24.810665
9.910000	24.810665
9.920000	24.810665
9.930000	24.810665
9.940000	24.810665
9.950000	24.810665
9.960000	24.810665
9.970000	24.810665
9.980000	24.810665
9.990000	24.810665
10.000000	24.806967
10.010000	24.806967
10.020000	24.806967
10.030000	24.806967
10.040000	24.806967
10.050000	24.806967
10.060000	24.806967
10.070000	24.806967
10.080000	24.806967
10.090000	24.806967
10.100000	24.806967
10.110000	24.806967
10.120000	24.806967
10.130000	24.806967
10.140000	24.806967
10.150000	24.806967
10.160000	24.806967
10.170000	24.806967
10.180000	24.806967
10.190000	24.806967
10.200000	24.806967
10.210000	24.806967
10.220000	24.806967
10.230000	24.806967
10.240000	24.806967
10.250000	24.806967
10.260000	24.806967
10.270000	24.806967
10.280000	24.806967
10.290000	24.806967
10.300000	24.806967
10.310000	24.806967
10.320000	24.806967
10.330000	24.806967
10.340000	24.806967
10.350000	24.806967
10.360000	24.806967
10.370000	24.806967
10.380000	24.806967
10.390000	24.806967
10.400000	24.806967
10.410000	24.806967
10.420000	24.806967
10.430000	24.806967
10.440000	24.806967
10.450000	24.806967
10.460000	24.806967
10.470000	24.806967
10.480000	24.806967
10.490000	24.806967
10.500000	24.803182
10.510000	24.803182
10.520000	24.803182
10.530000	24.803182
10.540000	24.803182
10.550000	24.803182
10.560000	24.803182
10.570000	24.803182
10.580000	24.803182
10.590000	24.803182
10.600000	24.803182
10.610000	24.803182
10.620000	24.803182
10.630000	24.803182
10.640000	24.803182
10.650000	24.803182
10.660000	24.803182
10.670000	24.803182
10.680000	24.803182
10.690000	24.803182
10.700000	24.803182
10.710000	24.803182
10.720000	24.803182
10.730000	24.803182
10.740000	24.803182
10.750000	24.803182
10.760000	24.803182
10.770000	24.803182
10.780000	24.803182
10.790000	24.803182
10.800000	24.803182
10.810000	24.803182
10.820000	24.803182
10.830000	24.803182
10.840000	24.803182
10.850000	24.803182
10.860000	24.803182
10.870000	24.803182
10.880000	24.803182
10.890000	24.803182
10.900000	24.803182
10.910000	24.803182
10.920000	24.803182
10.930000	24.803182
10.940000	24.803182
10.950000	24.803182
10.960000	24.803182
10.970000	24.803182
10.980000	24.803182
10.990000	24.803182
11.000000	24.799431
11.010000	24.799431
11.020000	24.799431
11.030000	24.799431
11.040000	24.799431
11.050000	24.799431
11.060000	24.799431
11.070000	24.799431
11.080000	24.799431
11.090000	24.799431
11.100000	24.799431
11.110000	24.799431
11.120000	24.799431
11.130000	24.799431
11.140000	24.799431
11.150000	24.799431
11.160000	24.799431
11.170000	24.799431
11.180000	24.799431
11.190000	24.799431
11.200000	24.799431
11.210000	24.799431
11.220000	24.799431
11.230000	24.799431
11.240000	24.799431
11.250000	24.799431
11.260000	24.799431
11.270000	24.799431
11.280000	24.799431
11.290000	24.799431
11.300000	24.799431
11.310000	24.799431
11.320000	24.799431
11.330000	24.799431
11.340000	24.799431
11.350000	24.799431
11.360000	24.799431
11.370000	24.799431
11.380000	24.799431
11.390000	24.799431
11.400000	24.799431
11.410000	24.799431
11.420000	24.799431
11.430000	24.799431
11.440000	24.799431
11.450000	24.799431
11.460000	24.799431
11.470000	24.799431
11.480000	24.799431
11.490000	24.799431
11.500000	24.795672
11.510000	24.795672
11.520000	24.795672
11.530000	24.795672
11.540000	24.795672
11.550000	24.795672
11.560000	24.795672
11.570000	24.795672
11.580000	24.795672
11.590000	24.795672
11.600000	24.795672
11.610000	24.795672
11.620000	24.795672
11.630000	24.795672
11.640000	24.795672
11.650000	24.795672
11.660000	24.795672
11.670000	24.795672
11.680000	24.795672
11.690000	24.795672
11.700000	24.795672
11.710000	24.795672
11.720000	24.795672
11.730000	24.795672
11.740000	24.795672
11.750000	24.795672
11.760000	24.795672
11.770000	24.795672
11.780000	24.795672
11.790000	24.795672
11.800000	24.795672
11.810000	24.795672
11.820000	24.795672
11.830000	24.795672
11.840000	24.795672
11.850000	24.795672
11.860000	24.795672
11.870000	24.795672
11.880000	24.795672
11.890000	24.795672
11.900000	24.795672
11.910000	24.795672
11.920000	24.795672
11.930000	24.795672
11.940000	24.795672
11.950000	24.795672
11.960000	24.795672
11.970000	24.795672
11.980000	24.795672
11.990000	24.795672
12.000000	24.791323
12.010000	24.791323
12.020000	24.791323
12.030000	24.791323
12.040000	24.791323
12.050000	24.791323
12.060000	24.791323
12.070000	24.791323
12.080000	24.791323
12.090000	24.791323
12.100000	24.791323
12.110000	24.791323
12.120000	24.791323
12.130000	24.791323
12.140000	24.791323
12.150000	24.791323
12.160000	24.791323
12.170000	24.791323
12.180000	24.791323
12.190000	24.791323
12.200000	24.791323
12.210000	24.791323
12.220000	24.791323
12.230000	24.791323
12.240000	24.791323
12.250000	24.791323
12.260000	24.791323
12.270000	24.791323
12.280000	24.791323
12.290000	24.791323
12.300000	24.791323
12.310000	24.791323
12.320000	24.791323
12.330000	24.791323
12.340000	24.791323
12.350000	24.791323
12.360000	24.791323
12.370000	24.791323
12.380000	24.791323
12.390000	24.791323
12.400000	24.791323
12.410000	24.791323
12.420000	24.791323
12.430000	24.791323
12.440000	24.791323
12.450000	24.791323
12.460000	24.791323
12.470000	24.791323
12.480000	24.791323
12.490000	24.791323
12.500000	24.787138
12.510000	24.787138
12.520000	24.787138
12.530000	24.787138
12.540000	24.787138
12.550000	24.787138
12.560000	24.787138
12.570000	24.787138
12.580000	24.787138
12.590000	24.787138
12.600000	24.787138
12.610000	24.787138
12.620000	24.787138
12.630000	24.787138
12.640000	24.787138
12.650000	24.787138
12.660000	24.787138
12.670000	24.787138
12.680000	24.787138
12.690000	24.787138
12.700000	24.787138
12.710000	24.787138
12.720000	24.787138
12.730000	24.787138
12.740000	24.787138
12.750000	24.787138
12.760000	24.787138
12.770000	24.787138
12.780000	24.787138
12.790000	24.787138
12.800000	24.787138
12.810000	24.787138
12.820000	24.787138
12.830000	24.787138
12.840000	24.787138
12.850000	24.787138
12.860000	24.787138
12.870000	24.787138
12.880000	24.787138
12.890000	24.787138
12.900000	24.787138
12.910000	24.787138
12.920000	24.787138
12.930000	24.787138
12.940000	24.787138
12.950000	24.787138
12.960000	24.787138
12.970000	24.787138
12.980000	24.787138
12.990000	24.787138
13.000000	24.783290
13.010000	24.783290
13.020000	24.783290
13.030000	24.783290
13.040000	24.783290
13.050000	24.783290
13.060000	24.783290
13.070000	24.783290
13.080000	24.783290
13.090000	24.783290
13.100000	24.783290
13.110000	24.783290
13.120000	24.783290
13.130000	24.783290
13.140000	24.783290
13.150000	24.783290
13.160000	24.783290
13.170000	24.783290
13.180000	24.783290
13.190000	24.783290
13.200000	24.783290
13.210000	24.783290
13.220000	24.783290
13.230000	24.783290
13.240000	24.783290
13.250000	24.783290
13.260000	24.783290
13.270000	24.783290
13.280000	24.783290
13.290000	24.783290
13.300000	24.783290
13.310000	24.783290
13.320000	24.783290
13.330000	24.783290
13.340000	24.783290
13.350000	24.783290
13.360000	24.783290
13.370000	24.783290
13.380000	24.783290
13.390000	24.783290
13.400000	24.783290
13.410000	24.783290
13.420000	24.783290
13.430000	24.783290
13.440000	24.783290
13.450000	24.783290
13.460000	24.783290
13.470000	24.783290
13.480000	24.783290
13.490000	24.783290
13.500000	24.779209
13.510000	24.779209
13.520000	24.779209
13.530000	24.779209
13.540000	24.779209
13.550000	24.779209
13.560000	24.779209
13.570000	24.779209
13.580000	24.779209
13.590000	24.779209
13.600000	24.779209
13.610000	24.779209
13.620000	24.779209
13.630000	24.779209
13.640000	24.779209
13.650000	24.779209
13.660000	24.779209
13.670000	24.779209
13.680000	24.779209
13.690000	24.779209
13.700000	24.779209
13.710000	24.779209
13.720000	24.779209
13.730000	24.779209
13.740000	24.779209
13.750000	24.779209
13.760000	24.779209
13.770000	24.779209
13.780000	24.779209
13.790000	24.779209
13.800000	24.779209
13.810000	24.779209
13.820000	24.779209
13.830000	24.779209
13.840000	24.779209
13.850000	24.779209
13.860000	24.779209
13.870000	24.779209
13.880000	24.779209
13.890000	24.779209
13.900000	24.779209
13.910000	24.779209
13.920000	24.779209
13.930000	24.779209
13.940000	24.779209
13.950000	24.779209
13.960000	24.779209
13.970000	24.779209
13.980000	24.779209
13.990000	24.779209
14.000000	24.775326
14.010000	24.775326
14.020000	24.775326
14.030000	24.775326
14.040000	24.775326
14.050000	24.775326
14.060000	24.775326
14.070000	24.775326
14.080000	24.775326
14.090000	24.775326
14.100000	24.775326
14.110000	24.775326
14.120000	24.775326
14.130000	24.775326
14.140000	24.775326
14.150000	24.775326
14.160000	24.775326
14.170000	24.775326
14.180000	24.775326
14.190000	24.775326
14.200000	24.775326
14.210000	24.775326
14.220000	24.775326
14.230000	24.775326
14.240000	24.775326
14.250000	24.775326
14.260000	24.775326
14.270000	24.775326
14.280000	24.775326
14.290000	24.775326
14.300000	24.775326
14.310000	24.775326
14.320000	24.775326
14.330000	24.775326
14.340000	24.775326
14.350000	24.775326
14.360000	24.775326
14.370000	24.775326
14.380000	24.775326
14.390000	24.775326
14.400000	24.775326
14.410000	24.775326
14.420000	24.775326
14.430000	24.775326
14.440000	24.775326
14.450000	24.775326
14.460000	24.775326
14.470000	24.775326
14.480000	24.775326
14.490000	24.775326
14.500000	24.771669
14.510000	24.771669
14.520000	24.771669
14.530000	24.771669
14.540000	24.771669
14.550000	24.771669
14.560000	24.771669
14.570000	24.771669
14.580000	24.771669
14.590000	24.771669
14.600000	24.771669
14.610000	24.771669
14.620000	24.771669
14.630000	24.771669
14.640000	24.771669
14.650000	24.771669
14.660000	24.771669
14.670000	24.771669
14.680000	24.771669
14.690000	24.771669
14.700000	24.771669
14.710000	24.771669
14.720000	24.771669
14.730000	24.771669
14.740000	24.771669
14.750000	24.771669
14.760000	24.771669
14.770000	24.771669
14.780000	24.771669
14.790000	24.771669
14.800000	24.771669
14.810000	24.771669
14.820000	24.771669
14.830000	24.771669
14.840000	24.771669
14.850000	24.771669
14.860000	24.771669
14.870000	24.771669
14.880000	24.771669
14.890000	24.771669
14.900000	24.771669
14.910000	24.771669
14.920000	24.771669
14.930000	24.771669
14.940000	24.771669
14.950000	24.771669
14.960000	24.771669
14.970000	24.771669
14.980000	24.771669
14.990000	24.771669
15.000000	24.767872
15.010000	24.767872
15.020000	24.767872
15.030000	24.767872
15.040000	24.767872
15.050000	24.767872
15.060000	24.767872
15.070000	24.767872
15.080000	24.767872
15.090000	24.767872
15.100000	24.767872
15.110000	24.767872
15.120000	24.767872
15.130000	24.767872
15.140000	24.767872
15.150000	24.767872
15.160000	24.767872
15.170000	24.767872
15.180000	24.767872
15.190000	24.767872
15.200000	24.767872
15.210000	24.767872
15.220000	24.767872
15.230000	24.767872
15.240000	24.767872
15.250000	24.767872
15.260000	24.767872
15.270000	24.767872
15.280000	24.767872
15.290000	24.767872
15.300000	24.767872
15.310000	24.767872
15.320000	24.767872
15.330000	24.767872
15.340000	24.767872
15.350000	24.767872
15.360000	24.767872
15.370000	24.767872
15.380000	24.767872
15.390000	24.767872
15.400000	24.767872
15.410000	24.767872
15.420000	24.767872
15.430000	24.767872
15.440000	24.767872
15.450000	24.767872
15.460000	24.767872
15.470000	24.767872
15.480000	24.767872
15.490000	24.767872
15.500000	24.764587
15.510000	24.764587
15.520000	24.764587
15.530000	24.764587
15.540000	24.764587
15.550000	24.764587
15.560000	24.764587
15.570000	24.764587
15.580000	24.764587
15.590000	24.764587
15.600000	24.764587
15.610000	24.764587
15.620000	24.764587
15.630000	24.764587
15.640000	24.764587
15.650000	24.764587
15.660000	24.764587
15.670000	24.764587
15.680000	24.764587
15.690000	24.764587
15.700000	24.764587
15.710000	24.764587
15.720000	24.764587
15.730000	24.764587
15.740000	24.764587
15.750000	24.764587
15.760000	24.764587
15.770000	24.764587
15.780000	24.764587
15.790000	24.764587
15.800000	24.764587
15.810000	24.764587
15.820000	24.764587
15.830000	24.764587
15.840000	24.764587
15.850000	24.764587
15.860000	24.764587
15.870000	24.764587
15.880000	24.764587
15.890000	24.764587
15.900000	24.764587
15.910000	24.764587
15.920000	24.764587
15.930000	24.764587
15.940000	24.764587
15.950000	24.764587
15.960000	24.764587
15.970000	24.764587
15.980000	24.764587
15.990000	24.764587
16.000000	24.760503
16.010000	24.760503
16.020000	24.760503
16.030000	24.760503
16.040000	24.760503
16.050000	24.760503
16.060000	24.760503
16.070000	24.760503
16.080000	24.760503
16.090000	24.760503
16.100000	24.760503
16.110000	24.760503
16.120000	24.760503
16.130000	24.760503
16.140000	24.760503
16.150000	24.760503
16.160000	24.760503
16.170000	24.760503
16.180000	24.760503
16.190000	24.760503
16.200000	24.760503
16.210000	24.760503
16.220000	24.760503
16.230000	24.760503
16.240000	24.760503
16.250000	24.760503
16.260000	24.760503
16.270000	24.760503
16.280000	24.760503
16.290000	24.760503
16.300000	24.760503
16.310000	24.760503
16.320000	24.760503
16.330000	24.760503
16.340000	24.760503
16.350000	24.760503
16.360000	24.760503
16.370000	24.760503
16.380000	24.760503
16.390000	24.760503
16.400000	24.760503
16.410000	24.760503
16.420000	24.760503
16.430000	24.760503
16.440000	24.760503
16.450000	24.760503
16.460000	24.760503
16.470000	24.760503
16.480000	24.760503
16.490000	24.760503
16.500000	24.756316
16.510000	24.756316
16.520000	24.756316
16.530000	24.756316
16.540000	24.756316
16.550000	24.756316
16.560000	24.756316
16.570000	24.756316
16.580000	24.756316
16.590000	24.756316
16.600000	24.756316
16.610000	24.756316
16.620000	24.756316
16.630000	24.756316
16.640000	24.756316
16.650000	24.756316
16.660000	24.756316
16.670000	24.756316
16.680000	24.756316
16.690000	24.756316
16.700000	24.756316
16.710000	24.756316
16.720000	24.756316
16.730000	24.756316
16.740000	24.756316
16.750000	24.756316
16.760000	24.756316
16.770000	24.756316
16.780000	24.756316
16.790000	24.756316
16.800000	24.756316
16.810000	24.756316
16.820000	24.756316
16.830000	24.756316
16.840000	24.756316
16.850000	24.756316
16.860000	24.756316
16.870000	24.756316
16.880000	24.756316
16.890000	24.756316
16.900000	24.756316
16.910000	24.756316
16.920000	24.756316
16.930000	24.756316
16.940000	24.756316
16.950000	24.756316
16.960000	24.756316
16.970000	24.756316
16.980000	24.756316
16.990000	24.756316
17.000000	24.752076
17.010000	24.752076
17.020000	24.752076
17.030000	24.752076
17.040000	24.752076
17.050000	24.752076
17.060000	24.752076
17.070000	24.752076
17.080000	24.752076
17.090000	24.752076
17.100000	24.752076
17.110000	24.752076
17.120000	24.752076
17.130000	24.752076
17.140000	24.752076
17.150000	24.752076
17.160000	24.752076
17.170000	24.752076
17.180000	24.752076
17.190000	24.752076
17.200000	24.752076
17.210000	24.752076
17.220000	24.752076
17.230000	24.752076
17.240000	24.752076
17.250000	24.752076
17.260000	24.752076
17.270000	24.752076
17.280000	24.752076
17.290000	24.752076
17.300000	24.752076
17.310000	24.752076
17.320000	24.752076
17.330000	24.752076
17.340000	24.752076
17.350000	24.752076
17.360000	24.752076
17.370000	24.752076
17.380000	24.752076
17.390000	24.752076
17.400000	24.752076
17.410000	24.752076
17.420000	24.752076
17.430000	24.752076
17.440000	24.752076
17.450000	24.752076
17.460000	24.752076
17.470000	24.752076
17.480000	24.752076
17.490000	24.752076
17.500000	24.748217
17.510000	24.748217
17.520000	24.748217
17.530000	24.748217
17.540000	24.748217
17.550000	24.748217
17.560000	24.748217
17.570000	24.748217
17.580000	24.748217
17.590000	24.748217
17.600000	24.748217
17.610000	24.748217
17.620000	24.748217
17.630000	24.748217
17.640000	24.748217
17.650000	24.748217
17.660000	24.748217
17.670000	24.748217
17.680000	24.748217
17.690000	24.748217
17.700000	24.748217
17.710000	24.748217
17.720000	24.748217
17.730000	24.748217
17.740000	24.748217
17.750000	24.748217
17.760000	24.748217
17.770000	24.748217
17.780000	24.748217
17.790000	24.748217
17.800000	24.748217
17.810000	24.748217
17.820000	24.748217
17.830000	24.748217
17.840000	24.748217
17.850000	24.748217
17.860000	24.748217
17.870000	24.748217
17.880000	24.748217
17.890000	24.748217
17.900000	24.748217
17.910000	24.748217
17.920000	24.748217
17.930000	24.748217
17.940000	24.748217
17.950000	24.748217
17.960000	24.748217
17.970000	24.748217
17.980000	24.748217
17.990000	24.748217
