LabVIEW Measurement	
Writer_Version	2
Reader_Version	2
Separator	Tab
Decimal_Separator	.
Multi_Headings	No
X_Columns	One
Time_Pref	Absolute
Operator	biomech-dyno
Date	2023/05/23
Time	16:26:31.1792034999998606061
***End_of_Header***	
	
Channels	1	
Samples	10	
Date	2023/05/23	
Time	17:45:44.8447881999995159703	
X_Dimension	Time	
X0	0.0000000000000000E+0	
Delta_X	0.010000	
***End_of_Header***		
X_Value	Untitled	Comment
0.000000	24.723695
0.010000	24.723695
0.020000	24.723695
0.030000	24.723695
0.040000	24.723695
0.050000	24.723695
0.060000	24.723695
0.070000	24.723695
0.080000	24.723695
0.090000	24.723695
0.100000	24.723695
0.110000	24.723695
0.120000	24.723695
0.130000	24.723695
0.140000	24.723695
0.150000	24.723695
0.160000	24.723695
0.170000	24.723695
0.180000	24.723695
0.190000	24.723695
0.200000	24.723695
0.210000	24.723695
0.220000	24.723695
0.230000	24.723695
0.240000	24.723695
0.250000	24.723695
0.260000	24.723695
0.270000	24.723695
0.280000	24.723695
0.290000	24.723695
0.300000	24.723695
0.310000	24.723695
0.320000	24.723695
0.330000	24.723695
0.340000	24.723695
0.350000	24.723695
0.360000	24.723695
0.370000	24.723695
0.380000	24.723695
0.390000	24.723695
0.400000	24.723695
0.410000	24.723695
0.420000	24.723695
0.430000	24.723695
0.440000	24.723695
0.450000	24.723695
0.460000	24.723695
0.470000	24.723695
0.480000	24.723695
0.490000	24.723695
0.500000	24.728797
0.510000	24.728797
0.520000	24.728797
0.530000	24.728797
0.540000	24.728797
0.550000	24.728797
0.560000	24.728797
0.570000	24.728797
0.580000	24.728797
0.590000	24.728797
0.600000	24.728797
0.610000	24.728797
0.620000	24.728797
0.630000	24.728797
0.640000	24.728797
0.650000	24.728797
0.660000	24.728797
0.670000	24.728797
0.680000	24.728797
0.690000	24.728797
0.700000	24.728797
0.710000	24.728797
0.720000	24.728797
0.730000	24.728797
0.740000	24.728797
0.750000	24.728797
0.760000	24.728797
0.770000	24.728797
0.780000	24.728797
0.790000	24.728797
0.800000	24.728797
0.810000	24.728797
0.820000	24.728797
0.830000	24.728797
0.840000	24.728797
0.850000	24.728797
0.860000	24.728797
0.870000	24.728797
0.880000	24.728797
0.890000	24.728797
0.900000	24.728797
0.910000	24.728797
0.920000	24.728797
0.930000	24.728797
0.940000	24.728797
0.950000	24.728797
0.960000	24.728797
0.970000	24.728797
0.980000	24.728797
0.990000	24.728797
1.000000	24.788463
1.010000	24.788463
1.020000	24.788463
1.030000	24.788463
1.040000	24.788463
1.050000	24.788463
1.060000	24.788463
1.070000	24.788463
1.080000	24.788463
1.090000	24.788463
1.100000	24.788463
1.110000	24.788463
1.120000	24.788463
1.130000	24.788463
1.140000	24.788463
1.150000	24.788463
1.160000	24.788463
1.170000	24.788463
1.180000	24.788463
1.190000	24.788463
1.200000	24.788463
1.210000	24.788463
1.220000	24.788463
1.230000	24.788463
1.240000	24.788463
1.250000	24.788463
1.260000	24.788463
1.270000	24.788463
1.280000	24.788463
1.290000	24.788463
1.300000	24.788463
1.310000	24.788463
1.320000	24.788463
1.330000	24.788463
1.340000	24.788463
1.350000	24.788463
1.360000	24.788463
1.370000	24.788463
1.380000	24.788463
1.390000	24.788463
1.400000	24.788463
1.410000	24.788463
1.420000	24.788463
1.430000	24.788463
1.440000	24.788463
1.450000	24.788463
1.460000	24.788463
1.470000	24.788463
1.480000	24.788463
1.490000	24.788463
1.500000	24.926818
1.510000	24.926818
1.520000	24.926818
1.530000	24.926818
1.540000	24.926818
1.550000	24.926818
1.560000	24.926818
1.570000	24.926818
1.580000	24.926818
1.590000	24.926818
1.600000	24.926818
1.610000	24.926818
1.620000	24.926818
1.630000	24.926818
1.640000	24.926818
1.650000	24.926818
1.660000	24.926818
1.670000	24.926818
1.680000	24.926818
1.690000	24.926818
1.700000	24.926818
1.710000	24.926818
1.720000	24.926818
1.730000	24.926818
1.740000	24.926818
1.750000	24.926818
1.760000	24.926818
1.770000	24.926818
1.780000	24.926818
1.790000	24.926818
1.800000	24.926818
1.810000	24.926818
1.820000	24.926818
1.830000	24.926818
1.840000	24.926818
1.850000	24.926818
1.860000	24.926818
1.870000	24.926818
1.880000	24.926818
1.890000	24.926818
1.900000	24.926818
1.910000	24.926818
1.920000	24.926818
1.930000	24.926818
1.940000	24.926818
1.950000	24.926818
1.960000	24.926818
1.970000	24.926818
1.980000	24.926818
1.990000	24.926818
2.000000	25.130177
2.010000	25.130177
2.020000	25.130177
2.030000	25.130177
2.040000	25.130177
2.050000	25.130177
2.060000	25.130177
2.070000	25.130177
2.080000	25.130177
2.090000	25.130177
2.100000	25.130177
2.110000	25.130177
2.120000	25.130177
2.130000	25.130177
2.140000	25.130177
2.150000	25.130177
2.160000	25.130177
2.170000	25.130177
2.180000	25.130177
2.190000	25.130177
2.200000	25.130177
2.210000	25.130177
2.220000	25.130177
2.230000	25.130177
2.240000	25.130177
2.250000	25.130177
2.260000	25.130177
2.270000	25.130177
2.280000	25.130177
2.290000	25.130177
2.300000	25.130177
2.310000	25.130177
2.320000	25.130177
2.330000	25.130177
2.340000	25.130177
2.350000	25.130177
2.360000	25.130177
2.370000	25.130177
2.380000	25.130177
2.390000	25.130177
2.400000	25.130177
2.410000	25.130177
2.420000	25.130177
2.430000	25.130177
2.440000	25.130177
2.450000	25.130177
2.460000	25.130177
2.470000	25.130177
2.480000	25.130177
2.490000	25.130177
2.500000	25.381341
2.510000	25.381341
2.520000	25.381341
2.530000	25.381341
2.540000	25.381341
2.550000	25.381341
2.560000	25.381341
2.570000	25.381341
2.580000	25.381341
2.590000	25.381341
2.600000	25.381341
2.610000	25.381341
2.620000	25.381341
2.630000	25.381341
2.640000	25.381341
2.650000	25.381341
2.660000	25.381341
2.670000	25.381341
2.680000	25.381341
2.690000	25.381341
2.700000	25.381341
2.710000	25.381341
2.720000	25.381341
2.730000	25.381341
2.740000	25.381341
2.750000	25.381341
2.760000	25.381341
2.770000	25.381341
2.780000	25.381341
2.790000	25.381341
2.800000	25.381341
2.810000	25.381341
2.820000	25.381341
2.830000	25.381341
2.840000	25.381341
2.850000	25.381341
2.860000	25.381341
2.870000	25.381341
2.880000	25.381341
2.890000	25.381341
2.900000	25.381341
2.910000	25.381341
2.920000	25.381341
2.930000	25.381341
2.940000	25.381341
2.950000	25.381341
2.960000	25.381341
2.970000	25.381341
2.980000	25.381341
2.990000	25.381341
3.000000	25.667976
3.010000	25.667976
3.020000	25.667976
3.030000	25.667976
3.040000	25.667976
3.050000	25.667976
3.060000	25.667976
3.070000	25.667976
3.080000	25.667976
3.090000	25.667976
3.100000	25.667976
3.110000	25.667976
3.120000	25.667976
3.130000	25.667976
3.140000	25.667976
3.150000	25.667976
3.160000	25.667976
3.170000	25.667976
3.180000	25.667976
3.190000	25.667976
3.200000	25.667976
3.210000	25.667976
3.220000	25.667976
3.230000	25.667976
3.240000	25.667976
3.250000	25.667976
3.260000	25.667976
3.270000	25.667976
3.280000	25.667976
3.290000	25.667976
3.300000	25.667976
3.310000	25.667976
3.320000	25.667976
3.330000	25.667976
3.340000	25.667976
3.350000	25.667976
3.360000	25.667976
3.370000	25.667976
3.380000	25.667976
3.390000	25.667976
3.400000	25.667976
3.410000	25.667976
3.420000	25.667976
3.430000	25.667976
3.440000	25.667976
3.450000	25.667976
3.460000	25.667976
3.470000	25.667976
3.480000	25.667976
3.490000	25.667976
3.500000	25.963564
3.510000	25.963564
3.520000	25.963564
3.530000	25.963564
3.540000	25.963564
3.550000	25.963564
3.560000	25.963564
3.570000	25.963564
3.580000	25.963564
3.590000	25.963564
3.600000	25.963564
3.610000	25.963564
3.620000	25.963564
3.630000	25.963564
3.640000	25.963564
3.650000	25.963564
3.660000	25.963564
3.670000	25.963564
3.680000	25.963564
3.690000	25.963564
3.700000	25.963564
3.710000	25.963564
3.720000	25.963564
3.730000	25.963564
3.740000	25.963564
3.750000	25.963564
3.760000	25.963564
3.770000	25.963564
3.780000	25.963564
3.790000	25.963564
3.800000	25.963564
3.810000	25.963564
3.820000	25.963564
3.830000	25.963564
3.840000	25.963564
3.850000	25.963564
3.860000	25.963564
3.870000	25.963564
3.880000	25.963564
3.890000	25.963564
3.900000	25.963564
3.910000	25.963564
3.920000	25.963564
3.930000	25.963564
3.940000	25.963564
3.950000	25.963564
3.960000	25.963564
3.970000	25.963564
3.980000	25.963564
3.990000	25.963564
4.000000	26.204710
4.010000	26.204710
4.020000	26.204710
4.030000	26.204710
4.040000	26.204710
4.050000	26.204710
4.060000	26.204710
4.070000	26.204710
4.080000	26.204710
4.090000	26.204710
4.100000	26.204710
4.110000	26.204710
4.120000	26.204710
4.130000	26.204710
4.140000	26.204710
4.150000	26.204710
4.160000	26.204710
4.170000	26.204710
4.180000	26.204710
4.190000	26.204710
4.200000	26.204710
4.210000	26.204710
4.220000	26.204710
4.230000	26.204710
4.240000	26.204710
4.250000	26.204710
4.260000	26.204710
4.270000	26.204710
4.280000	26.204710
4.290000	26.204710
4.300000	26.204710
4.310000	26.204710
4.320000	26.204710
4.330000	26.204710
4.340000	26.204710
4.350000	26.204710
4.360000	26.204710
4.370000	26.204710
4.380000	26.204710
4.390000	26.204710
4.400000	26.204710
4.410000	26.204710
4.420000	26.204710
4.430000	26.204710
4.440000	26.204710
4.450000	26.204710
4.460000	26.204710
4.470000	26.204710
4.480000	26.204710
4.490000	26.204710
4.500000	26.381244
4.510000	26.381244
4.520000	26.381244
4.530000	26.381244
4.540000	26.381244
4.550000	26.381244
4.560000	26.381244
4.570000	26.381244
4.580000	26.381244
4.590000	26.381244
4.600000	26.381244
4.610000	26.381244
4.620000	26.381244
4.630000	26.381244
4.640000	26.381244
4.650000	26.381244
4.660000	26.381244
4.670000	26.381244
4.680000	26.381244
4.690000	26.381244
4.700000	26.381244
4.710000	26.381244
4.720000	26.381244
4.730000	26.381244
4.740000	26.381244
4.750000	26.381244
4.760000	26.381244
4.770000	26.381244
4.780000	26.381244
4.790000	26.381244
4.800000	26.381244
4.810000	26.381244
4.820000	26.381244
4.830000	26.381244
4.840000	26.381244
4.850000	26.381244
4.860000	26.381244
4.870000	26.381244
4.880000	26.381244
4.890000	26.381244
4.900000	26.381244
4.910000	26.381244
4.920000	26.381244
4.930000	26.381244
4.940000	26.381244
4.950000	26.381244
4.960000	26.381244
4.970000	26.381244
4.980000	26.381244
4.990000	26.381244
5.000000	26.504615
5.010000	26.504615
5.020000	26.504615
5.030000	26.504615
5.040000	26.504615
5.050000	26.504615
5.060000	26.504615
5.070000	26.504615
5.080000	26.504615
5.090000	26.504615
5.100000	26.504615
5.110000	26.504615
5.120000	26.504615
5.130000	26.504615
5.140000	26.504615
5.150000	26.504615
5.160000	26.504615
5.170000	26.504615
5.180000	26.504615
5.190000	26.504615
5.200000	26.504615
5.210000	26.504615
5.220000	26.504615
5.230000	26.504615
5.240000	26.504615
5.250000	26.504615
5.260000	26.504615
5.270000	26.504615
5.280000	26.504615
5.290000	26.504615
5.300000	26.504615
5.310000	26.504615
5.320000	26.504615
5.330000	26.504615
5.340000	26.504615
5.350000	26.504615
5.360000	26.504615
5.370000	26.504615
5.380000	26.504615
5.390000	26.504615
5.400000	26.504615
5.410000	26.504615
5.420000	26.504615
5.430000	26.504615
5.440000	26.504615
5.450000	26.504615
5.460000	26.504615
5.470000	26.504615
5.480000	26.504615
5.490000	26.504615
5.500000	26.588488
5.510000	26.588488
5.520000	26.588488
5.530000	26.588488
5.540000	26.588488
5.550000	26.588488
5.560000	26.588488
5.570000	26.588488
5.580000	26.588488
5.590000	26.588488
5.600000	26.588488
5.610000	26.588488
5.620000	26.588488
5.630000	26.588488
5.640000	26.588488
5.650000	26.588488
5.660000	26.588488
5.670000	26.588488
5.680000	26.588488
5.690000	26.588488
5.700000	26.588488
5.710000	26.588488
5.720000	26.588488
5.730000	26.588488
5.740000	26.588488
5.750000	26.588488
5.760000	26.588488
5.770000	26.588488
5.780000	26.588488
5.790000	26.588488
5.800000	26.588488
5.810000	26.588488
5.820000	26.588488
5.830000	26.588488
5.840000	26.588488
5.850000	26.588488
5.860000	26.588488
5.870000	26.588488
5.880000	26.588488
5.890000	26.588488
5.900000	26.588488
5.910000	26.588488
5.920000	26.588488
5.930000	26.588488
5.940000	26.588488
5.950000	26.588488
5.960000	26.588488
5.970000	26.588488
5.980000	26.588488
5.990000	26.588488
6.000000	26.642179
6.010000	26.642179
6.020000	26.642179
6.030000	26.642179
6.040000	26.642179
6.050000	26.642179
6.060000	26.642179
6.070000	26.642179
6.080000	26.642179
6.090000	26.642179
6.100000	26.642179
6.110000	26.642179
6.120000	26.642179
6.130000	26.642179
6.140000	26.642179
6.150000	26.642179
6.160000	26.642179
6.170000	26.642179
6.180000	26.642179
6.190000	26.642179
6.200000	26.642179
6.210000	26.642179
6.220000	26.642179
6.230000	26.642179
6.240000	26.642179
6.250000	26.642179
6.260000	26.642179
6.270000	26.642179
6.280000	26.642179
6.290000	26.642179
6.300000	26.642179
6.310000	26.642179
6.320000	26.642179
6.330000	26.642179
6.340000	26.642179
6.350000	26.642179
6.360000	26.642179
6.370000	26.642179
6.380000	26.642179
6.390000	26.642179
6.400000	26.642179
6.410000	26.642179
6.420000	26.642179
6.430000	26.642179
6.440000	26.642179
6.450000	26.642179
6.460000	26.642179
6.470000	26.642179
6.480000	26.642179
6.490000	26.642179
6.500000	26.671597
6.510000	26.671597
6.520000	26.671597
6.530000	26.671597
6.540000	26.671597
6.550000	26.671597
6.560000	26.671597
6.570000	26.671597
6.580000	26.671597
6.590000	26.671597
6.600000	26.671597
6.610000	26.671597
6.620000	26.671597
6.630000	26.671597
6.640000	26.671597
6.650000	26.671597
6.660000	26.671597
6.670000	26.671597
6.680000	26.671597
6.690000	26.671597
6.700000	26.671597
6.710000	26.671597
6.720000	26.671597
6.730000	26.671597
6.740000	26.671597
6.750000	26.671597
6.760000	26.671597
6.770000	26.671597
6.780000	26.671597
6.790000	26.671597
6.800000	26.671597
6.810000	26.671597
6.820000	26.671597
6.830000	26.671597
6.840000	26.671597
6.850000	26.671597
6.860000	26.671597
6.870000	26.671597
6.880000	26.671597
6.890000	26.671597
6.900000	26.671597
6.910000	26.671597
6.920000	26.671597
6.930000	26.671597
6.940000	26.671597
6.950000	26.671597
6.960000	26.671597
6.970000	26.671597
6.980000	26.671597
6.990000	26.671597
7.000000	26.683674
7.010000	26.683674
7.020000	26.683674
7.030000	26.683674
7.040000	26.683674
7.050000	26.683674
7.060000	26.683674
7.070000	26.683674
7.080000	26.683674
7.090000	26.683674
7.100000	26.683674
7.110000	26.683674
7.120000	26.683674
7.130000	26.683674
7.140000	26.683674
7.150000	26.683674
7.160000	26.683674
7.170000	26.683674
7.180000	26.683674
7.190000	26.683674
7.200000	26.683674
7.210000	26.683674
7.220000	26.683674
7.230000	26.683674
7.240000	26.683674
7.250000	26.683674
7.260000	26.683674
7.270000	26.683674
7.280000	26.683674
7.290000	26.683674
7.300000	26.683674
7.310000	26.683674
7.320000	26.683674
7.330000	26.683674
7.340000	26.683674
7.350000	26.683674
7.360000	26.683674
7.370000	26.683674
7.380000	26.683674
7.390000	26.683674
7.400000	26.683674
7.410000	26.683674
7.420000	26.683674
7.430000	26.683674
7.440000	26.683674
7.450000	26.683674
7.460000	26.683674
7.470000	26.683674
7.480000	26.683674
7.490000	26.683674
7.500000	26.682898
7.510000	26.682898
7.520000	26.682898
7.530000	26.682898
7.540000	26.682898
7.550000	26.682898
7.560000	26.682898
7.570000	26.682898
7.580000	26.682898
7.590000	26.682898
7.600000	26.682898
7.610000	26.682898
7.620000	26.682898
7.630000	26.682898
7.640000	26.682898
7.650000	26.682898
7.660000	26.682898
7.670000	26.682898
7.680000	26.682898
7.690000	26.682898
7.700000	26.682898
7.710000	26.682898
7.720000	26.682898
7.730000	26.682898
7.740000	26.682898
7.750000	26.682898
7.760000	26.682898
7.770000	26.682898
7.780000	26.682898
7.790000	26.682898
7.800000	26.682898
7.810000	26.682898
7.820000	26.682898
7.830000	26.682898
7.840000	26.682898
7.850000	26.682898
7.860000	26.682898
7.870000	26.682898
7.880000	26.682898
7.890000	26.682898
7.900000	26.682898
7.910000	26.682898
7.920000	26.682898
7.930000	26.682898
7.940000	26.682898
7.950000	26.682898
7.960000	26.682898
7.970000	26.682898
7.980000	26.682898
7.990000	26.682898
8.000000	26.671998
8.010000	26.671998
8.020000	26.671998
8.030000	26.671998
8.040000	26.671998
8.050000	26.671998
8.060000	26.671998
8.070000	26.671998
8.080000	26.671998
8.090000	26.671998
8.100000	26.671998
8.110000	26.671998
8.120000	26.671998
8.130000	26.671998
8.140000	26.671998
8.150000	26.671998
8.160000	26.671998
8.170000	26.671998
8.180000	26.671998
8.190000	26.671998
8.200000	26.671998
8.210000	26.671998
8.220000	26.671998
8.230000	26.671998
8.240000	26.671998
8.250000	26.671998
8.260000	26.671998
8.270000	26.671998
8.280000	26.671998
8.290000	26.671998
8.300000	26.671998
8.310000	26.671998
8.320000	26.671998
8.330000	26.671998
8.340000	26.671998
8.350000	26.671998
8.360000	26.671998
8.370000	26.671998
8.380000	26.671998
8.390000	26.671998
8.400000	26.671998
8.410000	26.671998
8.420000	26.671998
8.430000	26.671998
8.440000	26.671998
8.450000	26.671998
8.460000	26.671998
8.470000	26.671998
8.480000	26.671998
8.490000	26.671998
8.500000	26.653545
8.510000	26.653545
8.520000	26.653545
8.530000	26.653545
8.540000	26.653545
8.550000	26.653545
8.560000	26.653545
8.570000	26.653545
8.580000	26.653545
8.590000	26.653545
8.600000	26.653545
8.610000	26.653545
8.620000	26.653545
8.630000	26.653545
8.640000	26.653545
8.650000	26.653545
8.660000	26.653545
8.670000	26.653545
8.680000	26.653545
8.690000	26.653545
8.700000	26.653545
8.710000	26.653545
8.720000	26.653545
8.730000	26.653545
8.740000	26.653545
8.750000	26.653545
8.760000	26.653545
8.770000	26.653545
8.780000	26.653545
8.790000	26.653545
8.800000	26.653545
8.810000	26.653545
8.820000	26.653545
8.830000	26.653545
8.840000	26.653545
8.850000	26.653545
8.860000	26.653545
8.870000	26.653545
8.880000	26.653545
8.890000	26.653545
8.900000	26.653545
8.910000	26.653545
8.920000	26.653545
8.930000	26.653545
8.940000	26.653545
8.950000	26.653545
8.960000	26.653545
8.970000	26.653545
8.980000	26.653545
8.990000	26.653545
9.000000	26.629792
9.010000	26.629792
9.020000	26.629792
9.030000	26.629792
9.040000	26.629792
9.050000	26.629792
9.060000	26.629792
9.070000	26.629792
9.080000	26.629792
9.090000	26.629792
9.100000	26.629792
9.110000	26.629792
9.120000	26.629792
9.130000	26.629792
9.140000	26.629792
9.150000	26.629792
9.160000	26.629792
9.170000	26.629792
9.180000	26.629792
9.190000	26.629792
9.200000	26.629792
9.210000	26.629792
9.220000	26.629792
9.230000	26.629792
9.240000	26.629792
9.250000	26.629792
9.260000	26.629792
9.270000	26.629792
9.280000	26.629792
9.290000	26.629792
9.300000	26.629792
9.310000	26.629792
9.320000	26.629792
9.330000	26.629792
9.340000	26.629792
9.350000	26.629792
9.360000	26.629792
9.370000	26.629792
9.380000	26.629792
9.390000	26.629792
9.400000	26.629792
9.410000	26.629792
9.420000	26.629792
9.430000	26.629792
9.440000	26.629792
9.450000	26.629792
9.460000	26.629792
9.470000	26.629792
9.480000	26.629792
9.490000	26.629792
9.500000	26.601452
9.510000	26.601452
9.520000	26.601452
9.530000	26.601452
9.540000	26.601452
9.550000	26.601452
9.560000	26.601452
9.570000	26.601452
9.580000	26.601452
9.590000	26.601452
9.600000	26.601452
9.610000	26.601452
9.620000	26.601452
9.630000	26.601452
9.640000	26.601452
9.650000	26.601452
9.660000	26.601452
9.670000	26.601452
9.680000	26.601452
9.690000	26.601452
9.700000	26.601452
9.710000	26.601452
9.720000	26.601452
9.730000	26.601452
9.740000	26.601452
9.750000	26.601452
9.760000	26.601452
9.770000	26.601452
9.780000	26.601452
9.790000	26.601452
9.800000	26.601452
9.810000	26.601452
9.820000	26.601452
9.830000	26.601452
9.840000	26.601452
9.850000	26.601452
9.860000	26.601452
9.870000	26.601452
9.880000	26.601452
9.890000	26.601452
9.900000	26.601452
9.910000	26.601452
9.920000	26.601452
9.930000	26.601452
9.940000	26.601452
9.950000	26.601452
9.960000	26.601452
9.970000	26.601452
9.980000	26.601452
9.990000	26.601452
10.000000	26.569645
10.010000	26.569645
10.020000	26.569645
10.030000	26.569645
10.040000	26.569645
10.050000	26.569645
10.060000	26.569645
10.070000	26.569645
10.080000	26.569645
10.090000	26.569645
10.100000	26.569645
10.110000	26.569645
10.120000	26.569645
10.130000	26.569645
10.140000	26.569645
10.150000	26.569645
10.160000	26.569645
10.170000	26.569645
10.180000	26.569645
10.190000	26.569645
10.200000	26.569645
10.210000	26.569645
10.220000	26.569645
10.230000	26.569645
10.240000	26.569645
10.250000	26.569645
10.260000	26.569645
10.270000	26.569645
10.280000	26.569645
10.290000	26.569645
10.300000	26.569645
10.310000	26.569645
10.320000	26.569645
10.330000	26.569645
10.340000	26.569645
10.350000	26.569645
10.360000	26.569645
10.370000	26.569645
10.380000	26.569645
10.390000	26.569645
10.400000	26.569645
10.410000	26.569645
10.420000	26.569645
10.430000	26.569645
10.440000	26.569645
10.450000	26.569645
10.460000	26.569645
10.470000	26.569645
10.480000	26.569645
10.490000	26.569645
10.500000	26.535008
10.510000	26.535008
10.520000	26.535008
10.530000	26.535008
10.540000	26.535008
10.550000	26.535008
10.560000	26.535008
10.570000	26.535008
10.580000	26.535008
10.590000	26.535008
10.600000	26.535008
10.610000	26.535008
10.620000	26.535008
10.630000	26.535008
10.640000	26.535008
10.650000	26.535008
10.660000	26.535008
10.670000	26.535008
10.680000	26.535008
10.690000	26.535008
10.700000	26.535008
10.710000	26.535008
10.720000	26.535008
10.730000	26.535008
10.740000	26.535008
10.750000	26.535008
10.760000	26.535008
10.770000	26.535008
10.780000	26.535008
10.790000	26.535008
10.800000	26.535008
10.810000	26.535008
10.820000	26.535008
10.830000	26.535008
10.840000	26.535008
10.850000	26.535008
10.860000	26.535008
10.870000	26.535008
10.880000	26.535008
10.890000	26.535008
10.900000	26.535008
10.910000	26.535008
10.920000	26.535008
10.930000	26.535008
10.940000	26.535008
10.950000	26.535008
10.960000	26.535008
10.970000	26.535008
10.980000	26.535008
10.990000	26.535008
11.000000	26.498548
11.010000	26.498548
11.020000	26.498548
11.030000	26.498548
11.040000	26.498548
11.050000	26.498548
11.060000	26.498548
11.070000	26.498548
11.080000	26.498548
11.090000	26.498548
11.100000	26.498548
11.110000	26.498548
11.120000	26.498548
11.130000	26.498548
11.140000	26.498548
11.150000	26.498548
11.160000	26.498548
11.170000	26.498548
11.180000	26.498548
11.190000	26.498548
11.200000	26.498548
11.210000	26.498548
11.220000	26.498548
11.230000	26.498548
11.240000	26.498548
11.250000	26.498548
11.260000	26.498548
11.270000	26.498548
11.280000	26.498548
11.290000	26.498548
11.300000	26.498548
11.310000	26.498548
11.320000	26.498548
11.330000	26.498548
11.340000	26.498548
11.350000	26.498548
11.360000	26.498548
11.370000	26.498548
11.380000	26.498548
11.390000	26.498548
11.400000	26.498548
11.410000	26.498548
11.420000	26.498548
11.430000	26.498548
11.440000	26.498548
11.450000	26.498548
11.460000	26.498548
11.470000	26.498548
11.480000	26.498548
11.490000	26.498548
11.500000	26.461241
11.510000	26.461241
11.520000	26.461241
11.530000	26.461241
11.540000	26.461241
11.550000	26.461241
11.560000	26.461241
11.570000	26.461241
11.580000	26.461241
11.590000	26.461241
11.600000	26.461241
11.610000	26.461241
11.620000	26.461241
11.630000	26.461241
11.640000	26.461241
11.650000	26.461241
11.660000	26.461241
11.670000	26.461241
11.680000	26.461241
11.690000	26.461241
11.700000	26.461241
11.710000	26.461241
11.720000	26.461241
11.730000	26.461241
11.740000	26.461241
11.750000	26.461241
11.760000	26.461241
11.770000	26.461241
11.780000	26.461241
11.790000	26.461241
11.800000	26.461241
11.810000	26.461241
11.820000	26.461241
11.830000	26.461241
11.840000	26.461241
11.850000	26.461241
11.860000	26.461241
11.870000	26.461241
11.880000	26.461241
11.890000	26.461241
11.900000	26.461241
11.910000	26.461241
11.920000	26.461241
11.930000	26.461241
11.940000	26.461241
11.950000	26.461241
11.960000	26.461241
11.970000	26.461241
11.980000	26.461241
11.990000	26.461241
12.000000	26.423697
12.010000	26.423697
12.020000	26.423697
12.030000	26.423697
12.040000	26.423697
12.050000	26.423697
12.060000	26.423697
12.070000	26.423697
12.080000	26.423697
12.090000	26.423697
12.100000	26.423697
12.110000	26.423697
12.120000	26.423697
12.130000	26.423697
12.140000	26.423697
12.150000	26.423697
12.160000	26.423697
12.170000	26.423697
12.180000	26.423697
12.190000	26.423697
12.200000	26.423697
12.210000	26.423697
12.220000	26.423697
12.230000	26.423697
12.240000	26.423697
12.250000	26.423697
12.260000	26.423697
12.270000	26.423697
12.280000	26.423697
12.290000	26.423697
12.300000	26.423697
12.310000	26.423697
12.320000	26.423697
12.330000	26.423697
12.340000	26.423697
12.350000	26.423697
12.360000	26.423697
12.370000	26.423697
12.380000	26.423697
12.390000	26.423697
12.400000	26.423697
12.410000	26.423697
12.420000	26.423697
12.430000	26.423697
12.440000	26.423697
12.450000	26.423697
12.460000	26.423697
12.470000	26.423697
12.480000	26.423697
12.490000	26.423697
12.500000	26.386151
12.510000	26.386151
12.520000	26.386151
12.530000	26.386151
12.540000	26.386151
12.550000	26.386151
12.560000	26.386151
12.570000	26.386151
12.580000	26.386151
12.590000	26.386151
12.600000	26.386151
12.610000	26.386151
12.620000	26.386151
12.630000	26.386151
12.640000	26.386151
12.650000	26.386151
12.660000	26.386151
12.670000	26.386151
12.680000	26.386151
12.690000	26.386151
12.700000	26.386151
12.710000	26.386151
12.720000	26.386151
12.730000	26.386151
12.740000	26.386151
12.750000	26.386151
12.760000	26.386151
12.770000	26.386151
12.780000	26.386151
12.790000	26.386151
12.800000	26.386151
12.810000	26.386151
12.820000	26.386151
12.830000	26.386151
12.840000	26.386151
12.850000	26.386151
12.860000	26.386151
12.870000	26.386151
12.880000	26.386151
12.890000	26.386151
12.900000	26.386151
12.910000	26.386151
12.920000	26.386151
12.930000	26.386151
12.940000	26.386151
12.950000	26.386151
12.960000	26.386151
12.970000	26.386151
12.980000	26.386151
12.990000	26.386151
13.000000	26.349164
13.010000	26.349164
13.020000	26.349164
13.030000	26.349164
13.040000	26.349164
13.050000	26.349164
13.060000	26.349164
13.070000	26.349164
13.080000	26.349164
13.090000	26.349164
13.100000	26.349164
13.110000	26.349164
13.120000	26.349164
13.130000	26.349164
13.140000	26.349164
13.150000	26.349164
13.160000	26.349164
13.170000	26.349164
13.180000	26.349164
13.190000	26.349164
13.200000	26.349164
13.210000	26.349164
13.220000	26.349164
13.230000	26.349164
13.240000	26.349164
13.250000	26.349164
13.260000	26.349164
13.270000	26.349164
13.280000	26.349164
13.290000	26.349164
13.300000	26.349164
13.310000	26.349164
13.320000	26.349164
13.330000	26.349164
13.340000	26.349164
13.350000	26.349164
13.360000	26.349164
13.370000	26.349164
13.380000	26.349164
13.390000	26.349164
13.400000	26.349164
13.410000	26.349164
13.420000	26.349164
13.430000	26.349164
13.440000	26.349164
13.450000	26.349164
13.460000	26.349164
13.470000	26.349164
13.480000	26.349164
13.490000	26.349164
13.500000	26.312461
13.510000	26.312461
13.520000	26.312461
13.530000	26.312461
13.540000	26.312461
13.550000	26.312461
13.560000	26.312461
13.570000	26.312461
13.580000	26.312461
13.590000	26.312461
13.600000	26.312461
13.610000	26.312461
13.620000	26.312461
13.630000	26.312461
13.640000	26.312461
13.650000	26.312461
13.660000	26.312461
13.670000	26.312461
13.680000	26.312461
13.690000	26.312461
13.700000	26.312461
13.710000	26.312461
13.720000	26.312461
13.730000	26.312461
13.740000	26.312461
13.750000	26.312461
13.760000	26.312461
13.770000	26.312461
13.780000	26.312461
13.790000	26.312461
13.800000	26.312461
13.810000	26.312461
13.820000	26.312461
13.830000	26.312461
13.840000	26.312461
13.850000	26.312461
13.860000	26.312461
13.870000	26.312461
13.880000	26.312461
13.890000	26.312461
13.900000	26.312461
13.910000	26.312461
13.920000	26.312461
13.930000	26.312461
13.940000	26.312461
13.950000	26.312461
13.960000	26.312461
13.970000	26.312461
13.980000	26.312461
13.990000	26.312461
14.000000	26.275808
14.010000	26.275808
14.020000	26.275808
14.030000	26.275808
14.040000	26.275808
14.050000	26.275808
14.060000	26.275808
14.070000	26.275808
14.080000	26.275808
14.090000	26.275808
14.100000	26.275808
14.110000	26.275808
14.120000	26.275808
14.130000	26.275808
14.140000	26.275808
14.150000	26.275808
14.160000	26.275808
14.170000	26.275808
14.180000	26.275808
14.190000	26.275808
14.200000	26.275808
14.210000	26.275808
14.220000	26.275808
14.230000	26.275808
14.240000	26.275808
14.250000	26.275808
14.260000	26.275808
14.270000	26.275808
14.280000	26.275808
14.290000	26.275808
14.300000	26.275808
14.310000	26.275808
14.320000	26.275808
14.330000	26.275808
14.340000	26.275808
14.350000	26.275808
14.360000	26.275808
14.370000	26.275808
14.380000	26.275808
14.390000	26.275808
14.400000	26.275808
14.410000	26.275808
14.420000	26.275808
14.430000	26.275808
14.440000	26.275808
14.450000	26.275808
14.460000	26.275808
14.470000	26.275808
14.480000	26.275808
14.490000	26.275808
14.500000	26.240759
14.510000	26.240759
14.520000	26.240759
14.530000	26.240759
14.540000	26.240759
14.550000	26.240759
14.560000	26.240759
14.570000	26.240759
14.580000	26.240759
14.590000	26.240759
14.600000	26.240759
14.610000	26.240759
14.620000	26.240759
14.630000	26.240759
14.640000	26.240759
14.650000	26.240759
14.660000	26.240759
14.670000	26.240759
14.680000	26.240759
14.690000	26.240759
14.700000	26.240759
14.710000	26.240759
14.720000	26.240759
14.730000	26.240759
14.740000	26.240759
14.750000	26.240759
14.760000	26.240759
14.770000	26.240759
14.780000	26.240759
14.790000	26.240759
14.800000	26.240759
14.810000	26.240759
14.820000	26.240759
14.830000	26.240759
14.840000	26.240759
14.850000	26.240759
14.860000	26.240759
14.870000	26.240759
14.880000	26.240759
14.890000	26.240759
14.900000	26.240759
14.910000	26.240759
14.920000	26.240759
14.930000	26.240759
14.940000	26.240759
14.950000	26.240759
14.960000	26.240759
14.970000	26.240759
14.980000	26.240759
14.990000	26.240759
15.000000	26.205846
15.010000	26.205846
15.020000	26.205846
15.030000	26.205846
15.040000	26.205846
15.050000	26.205846
15.060000	26.205846
15.070000	26.205846
15.080000	26.205846
15.090000	26.205846
15.100000	26.205846
15.110000	26.205846
15.120000	26.205846
15.130000	26.205846
15.140000	26.205846
15.150000	26.205846
15.160000	26.205846
15.170000	26.205846
15.180000	26.205846
15.190000	26.205846
15.200000	26.205846
15.210000	26.205846
15.220000	26.205846
15.230000	26.205846
15.240000	26.205846
15.250000	26.205846
15.260000	26.205846
15.270000	26.205846
15.280000	26.205846
15.290000	26.205846
15.300000	26.205846
15.310000	26.205846
15.320000	26.205846
15.330000	26.205846
15.340000	26.205846
15.350000	26.205846
15.360000	26.205846
15.370000	26.205846
15.380000	26.205846
15.390000	26.205846
15.400000	26.205846
15.410000	26.205846
15.420000	26.205846
15.430000	26.205846
15.440000	26.205846
15.450000	26.205846
15.460000	26.205846
15.470000	26.205846
15.480000	26.205846
15.490000	26.205846
15.500000	26.171717
15.510000	26.171717
15.520000	26.171717
15.530000	26.171717
15.540000	26.171717
15.550000	26.171717
15.560000	26.171717
15.570000	26.171717
15.580000	26.171717
15.590000	26.171717
15.600000	26.171717
15.610000	26.171717
15.620000	26.171717
15.630000	26.171717
15.640000	26.171717
15.650000	26.171717
15.660000	26.171717
15.670000	26.171717
15.680000	26.171717
15.690000	26.171717
15.700000	26.171717
15.710000	26.171717
15.720000	26.171717
15.730000	26.171717
15.740000	26.171717
15.750000	26.171717
15.760000	26.171717
15.770000	26.171717
15.780000	26.171717
15.790000	26.171717
15.800000	26.171717
15.810000	26.171717
15.820000	26.171717
15.830000	26.171717
15.840000	26.171717
15.850000	26.171717
15.860000	26.171717
15.870000	26.171717
15.880000	26.171717
15.890000	26.171717
15.900000	26.171717
15.910000	26.171717
15.920000	26.171717
15.930000	26.171717
15.940000	26.171717
15.950000	26.171717
15.960000	26.171717
15.970000	26.171717
15.980000	26.171717
15.990000	26.171717
16.000000	26.138282
16.010000	26.138282
16.020000	26.138282
16.030000	26.138282
16.040000	26.138282
16.050000	26.138282
16.060000	26.138282
16.070000	26.138282
16.080000	26.138282
16.090000	26.138282
16.100000	26.138282
16.110000	26.138282
16.120000	26.138282
16.130000	26.138282
16.140000	26.138282
16.150000	26.138282
16.160000	26.138282
16.170000	26.138282
16.180000	26.138282
16.190000	26.138282
16.200000	26.138282
16.210000	26.138282
16.220000	26.138282
16.230000	26.138282
16.240000	26.138282
16.250000	26.138282
16.260000	26.138282
16.270000	26.138282
16.280000	26.138282
16.290000	26.138282
16.300000	26.138282
16.310000	26.138282
16.320000	26.138282
16.330000	26.138282
16.340000	26.138282
16.350000	26.138282
16.360000	26.138282
16.370000	26.138282
16.380000	26.138282
16.390000	26.138282
16.400000	26.138282
16.410000	26.138282
16.420000	26.138282
16.430000	26.138282
16.440000	26.138282
16.450000	26.138282
16.460000	26.138282
16.470000	26.138282
16.480000	26.138282
16.490000	26.138282
16.500000	26.104791
16.510000	26.104791
16.520000	26.104791
16.530000	26.104791
16.540000	26.104791
16.550000	26.104791
16.560000	26.104791
16.570000	26.104791
16.580000	26.104791
16.590000	26.104791
16.600000	26.104791
16.610000	26.104791
16.620000	26.104791
16.630000	26.104791
16.640000	26.104791
16.650000	26.104791
16.660000	26.104791
16.670000	26.104791
16.680000	26.104791
16.690000	26.104791
16.700000	26.104791
16.710000	26.104791
16.720000	26.104791
16.730000	26.104791
16.740000	26.104791
16.750000	26.104791
16.760000	26.104791
16.770000	26.104791
16.780000	26.104791
16.790000	26.104791
16.800000	26.104791
16.810000	26.104791
16.820000	26.104791
16.830000	26.104791
16.840000	26.104791
16.850000	26.104791
16.860000	26.104791
16.870000	26.104791
16.880000	26.104791
16.890000	26.104791
16.900000	26.104791
16.910000	26.104791
16.920000	26.104791
16.930000	26.104791
16.940000	26.104791
16.950000	26.104791
16.960000	26.104791
16.970000	26.104791
16.980000	26.104791
16.990000	26.104791
17.000000	26.070450
17.010000	26.070450
17.020000	26.070450
17.030000	26.070450
17.040000	26.070450
17.050000	26.070450
17.060000	26.070450
17.070000	26.070450
17.080000	26.070450
17.090000	26.070450
17.100000	26.070450
17.110000	26.070450
17.120000	26.070450
17.130000	26.070450
17.140000	26.070450
17.150000	26.070450
17.160000	26.070450
17.170000	26.070450
17.180000	26.070450
17.190000	26.070450
17.200000	26.070450
17.210000	26.070450
17.220000	26.070450
17.230000	26.070450
17.240000	26.070450
17.250000	26.070450
17.260000	26.070450
17.270000	26.070450
17.280000	26.070450
17.290000	26.070450
17.300000	26.070450
17.310000	26.070450
17.320000	26.070450
17.330000	26.070450
17.340000	26.070450
17.350000	26.070450
17.360000	26.070450
17.370000	26.070450
17.380000	26.070450
17.390000	26.070450
17.400000	26.070450
17.410000	26.070450
17.420000	26.070450
17.430000	26.070450
17.440000	26.070450
17.450000	26.070450
17.460000	26.070450
17.470000	26.070450
17.480000	26.070450
17.490000	26.070450
17.500000	26.038146
17.510000	26.038146
17.520000	26.038146
17.530000	26.038146
17.540000	26.038146
17.550000	26.038146
17.560000	26.038146
17.570000	26.038146
17.580000	26.038146
17.590000	26.038146
17.600000	26.038146
17.610000	26.038146
17.620000	26.038146
17.630000	26.038146
17.640000	26.038146
17.650000	26.038146
17.660000	26.038146
17.670000	26.038146
17.680000	26.038146
17.690000	26.038146
17.700000	26.038146
17.710000	26.038146
17.720000	26.038146
17.730000	26.038146
17.740000	26.038146
17.750000	26.038146
17.760000	26.038146
17.770000	26.038146
17.780000	26.038146
17.790000	26.038146
17.800000	26.038146
17.810000	26.038146
17.820000	26.038146
17.830000	26.038146
17.840000	26.038146
17.850000	26.038146
17.860000	26.038146
17.870000	26.038146
17.880000	26.038146
17.890000	26.038146
17.900000	26.038146
17.910000	26.038146
17.920000	26.038146
17.930000	26.038146
17.940000	26.038146
17.950000	26.038146
17.960000	26.038146
17.970000	26.038146
17.980000	26.038146
17.990000	26.038146
