LabVIEW Measurement	
Writer_Version	2
Reader_Version	2
Separator	Tab
Decimal_Separator	.
Multi_Headings	No
X_Columns	One
Time_Pref	Absolute
Operator	biomech-dyno
Date	2023/05/23
Time	16:26:31.1792034999998606061
***End_of_Header***	
	
Channels	1	
Samples	10	
Date	2023/05/23	
Time	17:44:02.9978352999999545176	
X_Dimension	Time	
X0	0.0000000000000000E+0	
Delta_X	0.010000	
***End_of_Header***		
X_Value	Untitled	Comment
0.000000	24.730792
0.010000	24.730792
0.020000	24.730792
0.030000	24.730792
0.040000	24.730792
0.050000	24.730792
0.060000	24.730792
0.070000	24.730792
0.080000	24.730792
0.090000	24.730792
0.100000	24.730792
0.110000	24.730792
0.120000	24.730792
0.130000	24.730792
0.140000	24.730792
0.150000	24.730792
0.160000	24.730792
0.170000	24.730792
0.180000	24.730792
0.190000	24.730792
0.200000	24.730792
0.210000	24.730792
0.220000	24.730792
0.230000	24.730792
0.240000	24.730792
0.250000	24.730792
0.260000	24.730792
0.270000	24.730792
0.280000	24.730792
0.290000	24.730792
0.300000	24.730792
0.310000	24.730792
0.320000	24.730792
0.330000	24.730792
0.340000	24.730792
0.350000	24.730792
0.360000	24.730792
0.370000	24.730792
0.380000	24.730792
0.390000	24.730792
0.400000	24.730792
0.410000	24.730792
0.420000	24.730792
0.430000	24.730792
0.440000	24.730792
0.450000	24.730792
0.460000	24.730792
0.470000	24.730792
0.480000	24.730792
0.490000	24.730792
0.500000	24.732544
0.510000	24.732544
0.520000	24.732544
0.530000	24.732544
0.540000	24.732544
0.550000	24.732544
0.560000	24.732544
0.570000	24.732544
0.580000	24.732544
0.590000	24.732544
0.600000	24.732544
0.610000	24.732544
0.620000	24.732544
0.630000	24.732544
0.640000	24.732544
0.650000	24.732544
0.660000	24.732544
0.670000	24.732544
0.680000	24.732544
0.690000	24.732544
0.700000	24.732544
0.710000	24.732544
0.720000	24.732544
0.730000	24.732544
0.740000	24.732544
0.750000	24.732544
0.760000	24.732544
0.770000	24.732544
0.780000	24.732544
0.790000	24.732544
0.800000	24.732544
0.810000	24.732544
0.820000	24.732544
0.830000	24.732544
0.840000	24.732544
0.850000	24.732544
0.860000	24.732544
0.870000	24.732544
0.880000	24.732544
0.890000	24.732544
0.900000	24.732544
0.910000	24.732544
0.920000	24.732544
0.930000	24.732544
0.940000	24.732544
0.950000	24.732544
0.960000	24.732544
0.970000	24.732544
0.980000	24.732544
0.990000	24.732544
1.000000	24.738287
1.010000	24.738287
1.020000	24.738287
1.030000	24.738287
1.040000	24.738287
1.050000	24.738287
1.060000	24.738287
1.070000	24.738287
1.080000	24.738287
1.090000	24.738287
1.100000	24.738287
1.110000	24.738287
1.120000	24.738287
1.130000	24.738287
1.140000	24.738287
1.150000	24.738287
1.160000	24.738287
1.170000	24.738287
1.180000	24.738287
1.190000	24.738287
1.200000	24.738287
1.210000	24.738287
1.220000	24.738287
1.230000	24.738287
1.240000	24.738287
1.250000	24.738287
1.260000	24.738287
1.270000	24.738287
1.280000	24.738287
1.290000	24.738287
1.300000	24.738287
1.310000	24.738287
1.320000	24.738287
1.330000	24.738287
1.340000	24.738287
1.350000	24.738287
1.360000	24.738287
1.370000	24.738287
1.380000	24.738287
1.390000	24.738287
1.400000	24.738287
1.410000	24.738287
1.420000	24.738287
1.430000	24.738287
1.440000	24.738287
1.450000	24.738287
1.460000	24.738287
1.470000	24.738287
1.480000	24.738287
1.490000	24.738287
1.500000	24.749344
1.510000	24.749344
1.520000	24.749344
1.530000	24.749344
1.540000	24.749344
1.550000	24.749344
1.560000	24.749344
1.570000	24.749344
1.580000	24.749344
1.590000	24.749344
1.600000	24.749344
1.610000	24.749344
1.620000	24.749344
1.630000	24.749344
1.640000	24.749344
1.650000	24.749344
1.660000	24.749344
1.670000	24.749344
1.680000	24.749344
1.690000	24.749344
1.700000	24.749344
1.710000	24.749344
1.720000	24.749344
1.730000	24.749344
1.740000	24.749344
1.750000	24.749344
1.760000	24.749344
1.770000	24.749344
1.780000	24.749344
1.790000	24.749344
1.800000	24.749344
1.810000	24.749344
1.820000	24.749344
1.830000	24.749344
1.840000	24.749344
1.850000	24.749344
1.860000	24.749344
1.870000	24.749344
1.880000	24.749344
1.890000	24.749344
1.900000	24.749344
1.910000	24.749344
1.920000	24.749344
1.930000	24.749344
1.940000	24.749344
1.950000	24.749344
1.960000	24.749344
1.970000	24.749344
1.980000	24.749344
1.990000	24.749344
2.000000	24.765306
2.010000	24.765306
2.020000	24.765306
2.030000	24.765306
2.040000	24.765306
2.050000	24.765306
2.060000	24.765306
2.070000	24.765306
2.080000	24.765306
2.090000	24.765306
2.100000	24.765306
2.110000	24.765306
2.120000	24.765306
2.130000	24.765306
2.140000	24.765306
2.150000	24.765306
2.160000	24.765306
2.170000	24.765306
2.180000	24.765306
2.190000	24.765306
2.200000	24.765306
2.210000	24.765306
2.220000	24.765306
2.230000	24.765306
2.240000	24.765306
2.250000	24.765306
2.260000	24.765306
2.270000	24.765306
2.280000	24.765306
2.290000	24.765306
2.300000	24.765306
2.310000	24.765306
2.320000	24.765306
2.330000	24.765306
2.340000	24.765306
2.350000	24.765306
2.360000	24.765306
2.370000	24.765306
2.380000	24.765306
2.390000	24.765306
2.400000	24.765306
2.410000	24.765306
2.420000	24.765306
2.430000	24.765306
2.440000	24.765306
2.450000	24.765306
2.460000	24.765306
2.470000	24.765306
2.480000	24.765306
2.490000	24.765306
2.500000	24.785231
2.510000	24.785231
2.520000	24.785231
2.530000	24.785231
2.540000	24.785231
2.550000	24.785231
2.560000	24.785231
2.570000	24.785231
2.580000	24.785231
2.590000	24.785231
2.600000	24.785231
2.610000	24.785231
2.620000	24.785231
2.630000	24.785231
2.640000	24.785231
2.650000	24.785231
2.660000	24.785231
2.670000	24.785231
2.680000	24.785231
2.690000	24.785231
2.700000	24.785231
2.710000	24.785231
2.720000	24.785231
2.730000	24.785231
2.740000	24.785231
2.750000	24.785231
2.760000	24.785231
2.770000	24.785231
2.780000	24.785231
2.790000	24.785231
2.800000	24.785231
2.810000	24.785231
2.820000	24.785231
2.830000	24.785231
2.840000	24.785231
2.850000	24.785231
2.860000	24.785231
2.870000	24.785231
2.880000	24.785231
2.890000	24.785231
2.900000	24.785231
2.910000	24.785231
2.920000	24.785231
2.930000	24.785231
2.940000	24.785231
2.950000	24.785231
2.960000	24.785231
2.970000	24.785231
2.980000	24.785231
2.990000	24.785231
3.000000	24.807885
3.010000	24.807885
3.020000	24.807885
3.030000	24.807885
3.040000	24.807885
3.050000	24.807885
3.060000	24.807885
3.070000	24.807885
3.080000	24.807885
3.090000	24.807885
3.100000	24.807885
3.110000	24.807885
3.120000	24.807885
3.130000	24.807885
3.140000	24.807885
3.150000	24.807885
3.160000	24.807885
3.170000	24.807885
3.180000	24.807885
3.190000	24.807885
3.200000	24.807885
3.210000	24.807885
3.220000	24.807885
3.230000	24.807885
3.240000	24.807885
3.250000	24.807885
3.260000	24.807885
3.270000	24.807885
3.280000	24.807885
3.290000	24.807885
3.300000	24.807885
3.310000	24.807885
3.320000	24.807885
3.330000	24.807885
3.340000	24.807885
3.350000	24.807885
3.360000	24.807885
3.370000	24.807885
3.380000	24.807885
3.390000	24.807885
3.400000	24.807885
3.410000	24.807885
3.420000	24.807885
3.430000	24.807885
3.440000	24.807885
3.450000	24.807885
3.460000	24.807885
3.470000	24.807885
3.480000	24.807885
3.490000	24.807885
3.500000	24.830918
3.510000	24.830918
3.520000	24.830918
3.530000	24.830918
3.540000	24.830918
3.550000	24.830918
3.560000	24.830918
3.570000	24.830918
3.580000	24.830918
3.590000	24.830918
3.600000	24.830918
3.610000	24.830918
3.620000	24.830918
3.630000	24.830918
3.640000	24.830918
3.650000	24.830918
3.660000	24.830918
3.670000	24.830918
3.680000	24.830918
3.690000	24.830918
3.700000	24.830918
3.710000	24.830918
3.720000	24.830918
3.730000	24.830918
3.740000	24.830918
3.750000	24.830918
3.760000	24.830918
3.770000	24.830918
3.780000	24.830918
3.790000	24.830918
3.800000	24.830918
3.810000	24.830918
3.820000	24.830918
3.830000	24.830918
3.840000	24.830918
3.850000	24.830918
3.860000	24.830918
3.870000	24.830918
3.880000	24.830918
3.890000	24.830918
3.900000	24.830918
3.910000	24.830918
3.920000	24.830918
3.930000	24.830918
3.940000	24.830918
3.950000	24.830918
3.960000	24.830918
3.970000	24.830918
3.980000	24.830918
3.990000	24.830918
4.000000	24.851101
4.010000	24.851101
4.020000	24.851101
4.030000	24.851101
4.040000	24.851101
4.050000	24.851101
4.060000	24.851101
4.070000	24.851101
4.080000	24.851101
4.090000	24.851101
4.100000	24.851101
4.110000	24.851101
4.120000	24.851101
4.130000	24.851101
4.140000	24.851101
4.150000	24.851101
4.160000	24.851101
4.170000	24.851101
4.180000	24.851101
4.190000	24.851101
4.200000	24.851101
4.210000	24.851101
4.220000	24.851101
4.230000	24.851101
4.240000	24.851101
4.250000	24.851101
4.260000	24.851101
4.270000	24.851101
4.280000	24.851101
4.290000	24.851101
4.300000	24.851101
4.310000	24.851101
4.320000	24.851101
4.330000	24.851101
4.340000	24.851101
4.350000	24.851101
4.360000	24.851101
4.370000	24.851101
4.380000	24.851101
4.390000	24.851101
4.400000	24.851101
4.410000	24.851101
4.420000	24.851101
4.430000	24.851101
4.440000	24.851101
4.450000	24.851101
4.460000	24.851101
4.470000	24.851101
4.480000	24.851101
4.490000	24.851101
4.500000	24.865524
4.510000	24.865524
4.520000	24.865524
4.530000	24.865524
4.540000	24.865524
4.550000	24.865524
4.560000	24.865524
4.570000	24.865524
4.580000	24.865524
4.590000	24.865524
4.600000	24.865524
4.610000	24.865524
4.620000	24.865524
4.630000	24.865524
4.640000	24.865524
4.650000	24.865524
4.660000	24.865524
4.670000	24.865524
4.680000	24.865524
4.690000	24.865524
4.700000	24.865524
4.710000	24.865524
4.720000	24.865524
4.730000	24.865524
4.740000	24.865524
4.750000	24.865524
4.760000	24.865524
4.770000	24.865524
4.780000	24.865524
4.790000	24.865524
4.800000	24.865524
4.810000	24.865524
4.820000	24.865524
4.830000	24.865524
4.840000	24.865524
4.850000	24.865524
4.860000	24.865524
4.870000	24.865524
4.880000	24.865524
4.890000	24.865524
4.900000	24.865524
4.910000	24.865524
4.920000	24.865524
4.930000	24.865524
4.940000	24.865524
4.950000	24.865524
4.960000	24.865524
4.970000	24.865524
4.980000	24.865524
4.990000	24.865524
5.000000	24.876154
5.010000	24.876154
5.020000	24.876154
5.030000	24.876154
5.040000	24.876154
5.050000	24.876154
5.060000	24.876154
5.070000	24.876154
5.080000	24.876154
5.090000	24.876154
5.100000	24.876154
5.110000	24.876154
5.120000	24.876154
5.130000	24.876154
5.140000	24.876154
5.150000	24.876154
5.160000	24.876154
5.170000	24.876154
5.180000	24.876154
5.190000	24.876154
5.200000	24.876154
5.210000	24.876154
5.220000	24.876154
5.230000	24.876154
5.240000	24.876154
5.250000	24.876154
5.260000	24.876154
5.270000	24.876154
5.280000	24.876154
5.290000	24.876154
5.300000	24.876154
5.310000	24.876154
5.320000	24.876154
5.330000	24.876154
5.340000	24.876154
5.350000	24.876154
5.360000	24.876154
5.370000	24.876154
5.380000	24.876154
5.390000	24.876154
5.400000	24.876154
5.410000	24.876154
5.420000	24.876154
5.430000	24.876154
5.440000	24.876154
5.450000	24.876154
5.460000	24.876154
5.470000	24.876154
5.480000	24.876154
5.490000	24.876154
5.500000	24.883393
5.510000	24.883393
5.520000	24.883393
5.530000	24.883393
5.540000	24.883393
5.550000	24.883393
5.560000	24.883393
5.570000	24.883393
5.580000	24.883393
5.590000	24.883393
5.600000	24.883393
5.610000	24.883393
5.620000	24.883393
5.630000	24.883393
5.640000	24.883393
5.650000	24.883393
5.660000	24.883393
5.670000	24.883393
5.680000	24.883393
5.690000	24.883393
5.700000	24.883393
5.710000	24.883393
5.720000	24.883393
5.730000	24.883393
5.740000	24.883393
5.750000	24.883393
5.760000	24.883393
5.770000	24.883393
5.780000	24.883393
5.790000	24.883393
5.800000	24.883393
5.810000	24.883393
5.820000	24.883393
5.830000	24.883393
5.840000	24.883393
5.850000	24.883393
5.860000	24.883393
5.870000	24.883393
5.880000	24.883393
5.890000	24.883393
5.900000	24.883393
5.910000	24.883393
5.920000	24.883393
5.930000	24.883393
5.940000	24.883393
5.950000	24.883393
5.960000	24.883393
5.970000	24.883393
5.980000	24.883393
5.990000	24.883393
6.000000	24.888166
6.010000	24.888166
6.020000	24.888166
6.030000	24.888166
6.040000	24.888166
6.050000	24.888166
6.060000	24.888166
6.070000	24.888166
6.080000	24.888166
6.090000	24.888166
6.100000	24.888166
6.110000	24.888166
6.120000	24.888166
6.130000	24.888166
6.140000	24.888166
6.150000	24.888166
6.160000	24.888166
6.170000	24.888166
6.180000	24.888166
6.190000	24.888166
6.200000	24.888166
6.210000	24.888166
6.220000	24.888166
6.230000	24.888166
6.240000	24.888166
6.250000	24.888166
6.260000	24.888166
6.270000	24.888166
6.280000	24.888166
6.290000	24.888166
6.300000	24.888166
6.310000	24.888166
6.320000	24.888166
6.330000	24.888166
6.340000	24.888166
6.350000	24.888166
6.360000	24.888166
6.370000	24.888166
6.380000	24.888166
6.390000	24.888166
6.400000	24.888166
6.410000	24.888166
6.420000	24.888166
6.430000	24.888166
6.440000	24.888166
6.450000	24.888166
6.460000	24.888166
6.470000	24.888166
6.480000	24.888166
6.490000	24.888166
6.500000	24.890760
6.510000	24.890760
6.520000	24.890760
6.530000	24.890760
6.540000	24.890760
6.550000	24.890760
6.560000	24.890760
6.570000	24.890760
6.580000	24.890760
6.590000	24.890760
6.600000	24.890760
6.610000	24.890760
6.620000	24.890760
6.630000	24.890760
6.640000	24.890760
6.650000	24.890760
6.660000	24.890760
6.670000	24.890760
6.680000	24.890760
6.690000	24.890760
6.700000	24.890760
6.710000	24.890760
6.720000	24.890760
6.730000	24.890760
6.740000	24.890760
6.750000	24.890760
6.760000	24.890760
6.770000	24.890760
6.780000	24.890760
6.790000	24.890760
6.800000	24.890760
6.810000	24.890760
6.820000	24.890760
6.830000	24.890760
6.840000	24.890760
6.850000	24.890760
6.860000	24.890760
6.870000	24.890760
6.880000	24.890760
6.890000	24.890760
6.900000	24.890760
6.910000	24.890760
6.920000	24.890760
6.930000	24.890760
6.940000	24.890760
6.950000	24.890760
6.960000	24.890760
6.970000	24.890760
6.980000	24.890760
6.990000	24.890760
7.000000	24.891979
7.010000	24.891979
7.020000	24.891979
7.030000	24.891979
7.040000	24.891979
7.050000	24.891979
7.060000	24.891979
7.070000	24.891979
7.080000	24.891979
7.090000	24.891979
7.100000	24.891979
7.110000	24.891979
7.120000	24.891979
7.130000	24.891979
7.140000	24.891979
7.150000	24.891979
7.160000	24.891979
7.170000	24.891979
7.180000	24.891979
7.190000	24.891979
7.200000	24.891979
7.210000	24.891979
7.220000	24.891979
7.230000	24.891979
7.240000	24.891979
7.250000	24.891979
7.260000	24.891979
7.270000	24.891979
7.280000	24.891979
7.290000	24.891979
7.300000	24.891979
7.310000	24.891979
7.320000	24.891979
7.330000	24.891979
7.340000	24.891979
7.350000	24.891979
7.360000	24.891979
7.370000	24.891979
7.380000	24.891979
7.390000	24.891979
7.400000	24.891979
7.410000	24.891979
7.420000	24.891979
7.430000	24.891979
7.440000	24.891979
7.450000	24.891979
7.460000	24.891979
7.470000	24.891979
7.480000	24.891979
7.490000	24.891979
7.500000	24.892385
7.510000	24.892385
7.520000	24.892385
7.530000	24.892385
7.540000	24.892385
7.550000	24.892385
7.560000	24.892385
7.570000	24.892385
7.580000	24.892385
7.590000	24.892385
7.600000	24.892385
7.610000	24.892385
7.620000	24.892385
7.630000	24.892385
7.640000	24.892385
7.650000	24.892385
7.660000	24.892385
7.670000	24.892385
7.680000	24.892385
7.690000	24.892385
7.700000	24.892385
7.710000	24.892385
7.720000	24.892385
7.730000	24.892385
7.740000	24.892385
7.750000	24.892385
7.760000	24.892385
7.770000	24.892385
7.780000	24.892385
7.790000	24.892385
7.800000	24.892385
7.810000	24.892385
7.820000	24.892385
7.830000	24.892385
7.840000	24.892385
7.850000	24.892385
7.860000	24.892385
7.870000	24.892385
7.880000	24.892385
7.890000	24.892385
7.900000	24.892385
7.910000	24.892385
7.920000	24.892385
7.930000	24.892385
7.940000	24.892385
7.950000	24.892385
7.960000	24.892385
7.970000	24.892385
7.980000	24.892385
7.990000	24.892385
8.000000	24.890950
8.010000	24.890950
8.020000	24.890950
8.030000	24.890950
8.040000	24.890950
8.050000	24.890950
8.060000	24.890950
8.070000	24.890950
8.080000	24.890950
8.090000	24.890950
8.100000	24.890950
8.110000	24.890950
8.120000	24.890950
8.130000	24.890950
8.140000	24.890950
8.150000	24.890950
8.160000	24.890950
8.170000	24.890950
8.180000	24.890950
8.190000	24.890950
8.200000	24.890950
8.210000	24.890950
8.220000	24.890950
8.230000	24.890950
8.240000	24.890950
8.250000	24.890950
8.260000	24.890950
8.270000	24.890950
8.280000	24.890950
8.290000	24.890950
8.300000	24.890950
8.310000	24.890950
8.320000	24.890950
8.330000	24.890950
8.340000	24.890950
8.350000	24.890950
8.360000	24.890950
8.370000	24.890950
8.380000	24.890950
8.390000	24.890950
8.400000	24.890950
8.410000	24.890950
8.420000	24.890950
8.430000	24.890950
8.440000	24.890950
8.450000	24.890950
8.460000	24.890950
8.470000	24.890950
8.480000	24.890950
8.490000	24.890950
8.500000	24.888642
8.510000	24.888642
8.520000	24.888642
8.530000	24.888642
8.540000	24.888642
8.550000	24.888642
8.560000	24.888642
8.570000	24.888642
8.580000	24.888642
8.590000	24.888642
8.600000	24.888642
8.610000	24.888642
8.620000	24.888642
8.630000	24.888642
8.640000	24.888642
8.650000	24.888642
8.660000	24.888642
8.670000	24.888642
8.680000	24.888642
8.690000	24.888642
8.700000	24.888642
8.710000	24.888642
8.720000	24.888642
8.730000	24.888642
8.740000	24.888642
8.750000	24.888642
8.760000	24.888642
8.770000	24.888642
8.780000	24.888642
8.790000	24.888642
8.800000	24.888642
8.810000	24.888642
8.820000	24.888642
8.830000	24.888642
8.840000	24.888642
8.850000	24.888642
8.860000	24.888642
8.870000	24.888642
8.880000	24.888642
8.890000	24.888642
8.900000	24.888642
8.910000	24.888642
8.920000	24.888642
8.930000	24.888642
8.940000	24.888642
8.950000	24.888642
8.960000	24.888642
8.970000	24.888642
8.980000	24.888642
8.990000	24.888642
9.000000	24.886653
9.010000	24.886653
9.020000	24.886653
9.030000	24.886653
9.040000	24.886653
9.050000	24.886653
9.060000	24.886653
9.070000	24.886653
9.080000	24.886653
9.090000	24.886653
9.100000	24.886653
9.110000	24.886653
9.120000	24.886653
9.130000	24.886653
9.140000	24.886653
9.150000	24.886653
9.160000	24.886653
9.170000	24.886653
9.180000	24.886653
9.190000	24.886653
9.200000	24.886653
9.210000	24.886653
9.220000	24.886653
9.230000	24.886653
9.240000	24.886653
9.250000	24.886653
9.260000	24.886653
9.270000	24.886653
9.280000	24.886653
9.290000	24.886653
9.300000	24.886653
9.310000	24.886653
9.320000	24.886653
9.330000	24.886653
9.340000	24.886653
9.350000	24.886653
9.360000	24.886653
9.370000	24.886653
9.380000	24.886653
9.390000	24.886653
9.400000	24.886653
9.410000	24.886653
9.420000	24.886653
9.430000	24.886653
9.440000	24.886653
9.450000	24.886653
9.460000	24.886653
9.470000	24.886653
9.480000	24.886653
9.490000	24.886653
9.500000	24.883661
9.510000	24.883661
9.520000	24.883661
9.530000	24.883661
9.540000	24.883661
9.550000	24.883661
9.560000	24.883661
9.570000	24.883661
9.580000	24.883661
9.590000	24.883661
9.600000	24.883661
9.610000	24.883661
9.620000	24.883661
9.630000	24.883661
9.640000	24.883661
9.650000	24.883661
9.660000	24.883661
9.670000	24.883661
9.680000	24.883661
9.690000	24.883661
9.700000	24.883661
9.710000	24.883661
9.720000	24.883661
9.730000	24.883661
9.740000	24.883661
9.750000	24.883661
9.760000	24.883661
9.770000	24.883661
9.780000	24.883661
9.790000	24.883661
9.800000	24.883661
9.810000	24.883661
9.820000	24.883661
9.830000	24.883661
9.840000	24.883661
9.850000	24.883661
9.860000	24.883661
9.870000	24.883661
9.880000	24.883661
9.890000	24.883661
9.900000	24.883661
9.910000	24.883661
9.920000	24.883661
9.930000	24.883661
9.940000	24.883661
9.950000	24.883661
9.960000	24.883661
9.970000	24.883661
9.980000	24.883661
9.990000	24.883661
10.000000	24.880444
10.010000	24.880444
10.020000	24.880444
10.030000	24.880444
10.040000	24.880444
10.050000	24.880444
10.060000	24.880444
10.070000	24.880444
10.080000	24.880444
10.090000	24.880444
10.100000	24.880444
10.110000	24.880444
10.120000	24.880444
10.130000	24.880444
10.140000	24.880444
10.150000	24.880444
10.160000	24.880444
10.170000	24.880444
10.180000	24.880444
10.190000	24.880444
10.200000	24.880444
10.210000	24.880444
10.220000	24.880444
10.230000	24.880444
10.240000	24.880444
10.250000	24.880444
10.260000	24.880444
10.270000	24.880444
10.280000	24.880444
10.290000	24.880444
10.300000	24.880444
10.310000	24.880444
10.320000	24.880444
10.330000	24.880444
10.340000	24.880444
10.350000	24.880444
10.360000	24.880444
10.370000	24.880444
10.380000	24.880444
10.390000	24.880444
10.400000	24.880444
10.410000	24.880444
10.420000	24.880444
10.430000	24.880444
10.440000	24.880444
10.450000	24.880444
10.460000	24.880444
10.470000	24.880444
10.480000	24.880444
10.490000	24.880444
10.500000	24.877218
10.510000	24.877218
10.520000	24.877218
10.530000	24.877218
10.540000	24.877218
10.550000	24.877218
10.560000	24.877218
10.570000	24.877218
10.580000	24.877218
10.590000	24.877218
10.600000	24.877218
10.610000	24.877218
10.620000	24.877218
10.630000	24.877218
10.640000	24.877218
10.650000	24.877218
10.660000	24.877218
10.670000	24.877218
10.680000	24.877218
10.690000	24.877218
10.700000	24.877218
10.710000	24.877218
10.720000	24.877218
10.730000	24.877218
10.740000	24.877218
10.750000	24.877218
10.760000	24.877218
10.770000	24.877218
10.780000	24.877218
10.790000	24.877218
10.800000	24.877218
10.810000	24.877218
10.820000	24.877218
10.830000	24.877218
10.840000	24.877218
10.850000	24.877218
10.860000	24.877218
10.870000	24.877218
10.880000	24.877218
10.890000	24.877218
10.900000	24.877218
10.910000	24.877218
10.920000	24.877218
10.930000	24.877218
10.940000	24.877218
10.950000	24.877218
10.960000	24.877218
10.970000	24.877218
10.980000	24.877218
10.990000	24.877218
11.000000	24.873724
11.010000	24.873724
11.020000	24.873724
11.030000	24.873724
11.040000	24.873724
11.050000	24.873724
11.060000	24.873724
11.070000	24.873724
11.080000	24.873724
11.090000	24.873724
11.100000	24.873724
11.110000	24.873724
11.120000	24.873724
11.130000	24.873724
11.140000	24.873724
11.150000	24.873724
11.160000	24.873724
11.170000	24.873724
11.180000	24.873724
11.190000	24.873724
11.200000	24.873724
11.210000	24.873724
11.220000	24.873724
11.230000	24.873724
11.240000	24.873724
11.250000	24.873724
11.260000	24.873724
11.270000	24.873724
11.280000	24.873724
11.290000	24.873724
11.300000	24.873724
11.310000	24.873724
11.320000	24.873724
11.330000	24.873724
11.340000	24.873724
11.350000	24.873724
11.360000	24.873724
11.370000	24.873724
11.380000	24.873724
11.390000	24.873724
11.400000	24.873724
11.410000	24.873724
11.420000	24.873724
11.430000	24.873724
11.440000	24.873724
11.450000	24.873724
11.460000	24.873724
11.470000	24.873724
11.480000	24.873724
11.490000	24.873724
11.500000	24.869996
11.510000	24.869996
11.520000	24.869996
11.530000	24.869996
11.540000	24.869996
11.550000	24.869996
11.560000	24.869996
11.570000	24.869996
11.580000	24.869996
11.590000	24.869996
11.600000	24.869996
11.610000	24.869996
11.620000	24.869996
11.630000	24.869996
11.640000	24.869996
11.650000	24.869996
11.660000	24.869996
11.670000	24.869996
11.680000	24.869996
11.690000	24.869996
11.700000	24.869996
11.710000	24.869996
11.720000	24.869996
11.730000	24.869996
11.740000	24.869996
11.750000	24.869996
11.760000	24.869996
11.770000	24.869996
11.780000	24.869996
11.790000	24.869996
11.800000	24.869996
11.810000	24.869996
11.820000	24.869996
11.830000	24.869996
11.840000	24.869996
11.850000	24.869996
11.860000	24.869996
11.870000	24.869996
11.880000	24.869996
11.890000	24.869996
11.900000	24.869996
11.910000	24.869996
11.920000	24.869996
11.930000	24.869996
11.940000	24.869996
11.950000	24.869996
11.960000	24.869996
11.970000	24.869996
11.980000	24.869996
11.990000	24.869996
12.000000	24.866432
12.010000	24.866432
12.020000	24.866432
12.030000	24.866432
12.040000	24.866432
12.050000	24.866432
12.060000	24.866432
12.070000	24.866432
12.080000	24.866432
12.090000	24.866432
12.100000	24.866432
12.110000	24.866432
12.120000	24.866432
12.130000	24.866432
12.140000	24.866432
12.150000	24.866432
12.160000	24.866432
12.170000	24.866432
12.180000	24.866432
12.190000	24.866432
12.200000	24.866432
12.210000	24.866432
12.220000	24.866432
12.230000	24.866432
12.240000	24.866432
12.250000	24.866432
12.260000	24.866432
12.270000	24.866432
12.280000	24.866432
12.290000	24.866432
12.300000	24.866432
12.310000	24.866432
12.320000	24.866432
12.330000	24.866432
12.340000	24.866432
12.350000	24.866432
12.360000	24.866432
12.370000	24.866432
12.380000	24.866432
12.390000	24.866432
12.400000	24.866432
12.410000	24.866432
12.420000	24.866432
12.430000	24.866432
12.440000	24.866432
12.450000	24.866432
12.460000	24.866432
12.470000	24.866432
12.480000	24.866432
12.490000	24.866432
12.500000	24.862358
12.510000	24.862358
12.520000	24.862358
12.530000	24.862358
12.540000	24.862358
12.550000	24.862358
12.560000	24.862358
12.570000	24.862358
12.580000	24.862358
12.590000	24.862358
12.600000	24.862358
12.610000	24.862358
12.620000	24.862358
12.630000	24.862358
12.640000	24.862358
12.650000	24.862358
12.660000	24.862358
12.670000	24.862358
12.680000	24.862358
12.690000	24.862358
12.700000	24.862358
12.710000	24.862358
12.720000	24.862358
12.730000	24.862358
12.740000	24.862358
12.750000	24.862358
12.760000	24.862358
12.770000	24.862358
12.780000	24.862358
12.790000	24.862358
12.800000	24.862358
12.810000	24.862358
12.820000	24.862358
12.830000	24.862358
12.840000	24.862358
12.850000	24.862358
12.860000	24.862358
12.870000	24.862358
12.880000	24.862358
12.890000	24.862358
12.900000	24.862358
12.910000	24.862358
12.920000	24.862358
12.930000	24.862358
12.940000	24.862358
12.950000	24.862358
12.960000	24.862358
12.970000	24.862358
12.980000	24.862358
12.990000	24.862358
13.000000	24.858439
13.010000	24.858439
13.020000	24.858439
13.030000	24.858439
13.040000	24.858439
13.050000	24.858439
13.060000	24.858439
13.070000	24.858439
13.080000	24.858439
13.090000	24.858439
13.100000	24.858439
13.110000	24.858439
13.120000	24.858439
13.130000	24.858439
13.140000	24.858439
13.150000	24.858439
13.160000	24.858439
13.170000	24.858439
13.180000	24.858439
13.190000	24.858439
13.200000	24.858439
13.210000	24.858439
13.220000	24.858439
13.230000	24.858439
13.240000	24.858439
13.250000	24.858439
13.260000	24.858439
13.270000	24.858439
13.280000	24.858439
13.290000	24.858439
13.300000	24.858439
13.310000	24.858439
13.320000	24.858439
13.330000	24.858439
13.340000	24.858439
13.350000	24.858439
13.360000	24.858439
13.370000	24.858439
13.380000	24.858439
13.390000	24.858439
13.400000	24.858439
13.410000	24.858439
13.420000	24.858439
13.430000	24.858439
13.440000	24.858439
13.450000	24.858439
13.460000	24.858439
13.470000	24.858439
13.480000	24.858439
13.490000	24.858439
13.500000	24.853862
13.510000	24.853862
13.520000	24.853862
13.530000	24.853862
13.540000	24.853862
13.550000	24.853862
13.560000	24.853862
13.570000	24.853862
13.580000	24.853862
13.590000	24.853862
13.600000	24.853862
13.610000	24.853862
13.620000	24.853862
13.630000	24.853862
13.640000	24.853862
13.650000	24.853862
13.660000	24.853862
13.670000	24.853862
13.680000	24.853862
13.690000	24.853862
13.700000	24.853862
13.710000	24.853862
13.720000	24.853862
13.730000	24.853862
13.740000	24.853862
13.750000	24.853862
13.760000	24.853862
13.770000	24.853862
13.780000	24.853862
13.790000	24.853862
13.800000	24.853862
13.810000	24.853862
13.820000	24.853862
13.830000	24.853862
13.840000	24.853862
13.850000	24.853862
13.860000	24.853862
13.870000	24.853862
13.880000	24.853862
13.890000	24.853862
13.900000	24.853862
13.910000	24.853862
13.920000	24.853862
13.930000	24.853862
13.940000	24.853862
13.950000	24.853862
13.960000	24.853862
13.970000	24.853862
13.980000	24.853862
13.990000	24.853862
14.000000	24.849976
14.010000	24.849976
14.020000	24.849976
14.030000	24.849976
14.040000	24.849976
14.050000	24.849976
14.060000	24.849976
14.070000	24.849976
14.080000	24.849976
14.090000	24.849976
14.100000	24.849976
14.110000	24.849976
14.120000	24.849976
14.130000	24.849976
14.140000	24.849976
14.150000	24.849976
14.160000	24.849976
14.170000	24.849976
14.180000	24.849976
14.190000	24.849976
14.200000	24.849976
14.210000	24.849976
14.220000	24.849976
14.230000	24.849976
14.240000	24.849976
14.250000	24.849976
14.260000	24.849976
14.270000	24.849976
14.280000	24.849976
14.290000	24.849976
14.300000	24.849976
14.310000	24.849976
14.320000	24.849976
14.330000	24.849976
14.340000	24.849976
14.350000	24.849976
14.360000	24.849976
14.370000	24.849976
14.380000	24.849976
14.390000	24.849976
14.400000	24.849976
14.410000	24.849976
14.420000	24.849976
14.430000	24.849976
14.440000	24.849976
14.450000	24.849976
14.460000	24.849976
14.470000	24.849976
14.480000	24.849976
14.490000	24.849976
14.500000	24.845321
14.510000	24.845321
14.520000	24.845321
14.530000	24.845321
14.540000	24.845321
14.550000	24.845321
14.560000	24.845321
14.570000	24.845321
14.580000	24.845321
14.590000	24.845321
14.600000	24.845321
14.610000	24.845321
14.620000	24.845321
14.630000	24.845321
14.640000	24.845321
14.650000	24.845321
14.660000	24.845321
14.670000	24.845321
14.680000	24.845321
14.690000	24.845321
14.700000	24.845321
14.710000	24.845321
14.720000	24.845321
14.730000	24.845321
14.740000	24.845321
14.750000	24.845321
14.760000	24.845321
14.770000	24.845321
14.780000	24.845321
14.790000	24.845321
14.800000	24.845321
14.810000	24.845321
14.820000	24.845321
14.830000	24.845321
14.840000	24.845321
14.850000	24.845321
14.860000	24.845321
14.870000	24.845321
14.880000	24.845321
14.890000	24.845321
14.900000	24.845321
14.910000	24.845321
14.920000	24.845321
14.930000	24.845321
14.940000	24.845321
14.950000	24.845321
14.960000	24.845321
14.970000	24.845321
14.980000	24.845321
14.990000	24.845321
15.000000	24.841167
15.010000	24.841167
15.020000	24.841167
15.030000	24.841167
15.040000	24.841167
15.050000	24.841167
15.060000	24.841167
15.070000	24.841167
15.080000	24.841167
15.090000	24.841167
15.100000	24.841167
15.110000	24.841167
15.120000	24.841167
15.130000	24.841167
15.140000	24.841167
15.150000	24.841167
15.160000	24.841167
15.170000	24.841167
15.180000	24.841167
15.190000	24.841167
15.200000	24.841167
15.210000	24.841167
15.220000	24.841167
15.230000	24.841167
15.240000	24.841167
15.250000	24.841167
15.260000	24.841167
15.270000	24.841167
15.280000	24.841167
15.290000	24.841167
15.300000	24.841167
15.310000	24.841167
15.320000	24.841167
15.330000	24.841167
15.340000	24.841167
15.350000	24.841167
15.360000	24.841167
15.370000	24.841167
15.380000	24.841167
15.390000	24.841167
15.400000	24.841167
15.410000	24.841167
15.420000	24.841167
15.430000	24.841167
15.440000	24.841167
15.450000	24.841167
15.460000	24.841167
15.470000	24.841167
15.480000	24.841167
15.490000	24.841167
15.500000	24.836986
15.510000	24.836986
15.520000	24.836986
15.530000	24.836986
15.540000	24.836986
15.550000	24.836986
15.560000	24.836986
15.570000	24.836986
15.580000	24.836986
15.590000	24.836986
15.600000	24.836986
15.610000	24.836986
15.620000	24.836986
15.630000	24.836986
15.640000	24.836986
15.650000	24.836986
15.660000	24.836986
15.670000	24.836986
15.680000	24.836986
15.690000	24.836986
15.700000	24.836986
15.710000	24.836986
15.720000	24.836986
15.730000	24.836986
15.740000	24.836986
15.750000	24.836986
15.760000	24.836986
15.770000	24.836986
15.780000	24.836986
15.790000	24.836986
15.800000	24.836986
15.810000	24.836986
15.820000	24.836986
15.830000	24.836986
15.840000	24.836986
15.850000	24.836986
15.860000	24.836986
15.870000	24.836986
15.880000	24.836986
15.890000	24.836986
15.900000	24.836986
15.910000	24.836986
15.920000	24.836986
15.930000	24.836986
15.940000	24.836986
15.950000	24.836986
15.960000	24.836986
15.970000	24.836986
15.980000	24.836986
15.990000	24.836986
16.000000	24.832139
16.010000	24.832139
16.020000	24.832139
16.030000	24.832139
16.040000	24.832139
16.050000	24.832139
16.060000	24.832139
16.070000	24.832139
16.080000	24.832139
16.090000	24.832139
16.100000	24.832139
16.110000	24.832139
16.120000	24.832139
16.130000	24.832139
16.140000	24.832139
16.150000	24.832139
16.160000	24.832139
16.170000	24.832139
16.180000	24.832139
16.190000	24.832139
16.200000	24.832139
16.210000	24.832139
16.220000	24.832139
16.230000	24.832139
16.240000	24.832139
16.250000	24.832139
16.260000	24.832139
16.270000	24.832139
16.280000	24.832139
16.290000	24.832139
16.300000	24.832139
16.310000	24.832139
16.320000	24.832139
16.330000	24.832139
16.340000	24.832139
16.350000	24.832139
16.360000	24.832139
16.370000	24.832139
16.380000	24.832139
16.390000	24.832139
16.400000	24.832139
16.410000	24.832139
16.420000	24.832139
16.430000	24.832139
16.440000	24.832139
16.450000	24.832139
16.460000	24.832139
16.470000	24.832139
16.480000	24.832139
16.490000	24.832139
16.500000	24.828243
16.510000	24.828243
16.520000	24.828243
16.530000	24.828243
16.540000	24.828243
16.550000	24.828243
16.560000	24.828243
16.570000	24.828243
16.580000	24.828243
16.590000	24.828243
16.600000	24.828243
16.610000	24.828243
16.620000	24.828243
16.630000	24.828243
16.640000	24.828243
16.650000	24.828243
16.660000	24.828243
16.670000	24.828243
16.680000	24.828243
16.690000	24.828243
16.700000	24.828243
16.710000	24.828243
16.720000	24.828243
16.730000	24.828243
16.740000	24.828243
16.750000	24.828243
16.760000	24.828243
16.770000	24.828243
16.780000	24.828243
16.790000	24.828243
16.800000	24.828243
16.810000	24.828243
16.820000	24.828243
16.830000	24.828243
16.840000	24.828243
16.850000	24.828243
16.860000	24.828243
16.870000	24.828243
16.880000	24.828243
16.890000	24.828243
16.900000	24.828243
16.910000	24.828243
16.920000	24.828243
16.930000	24.828243
16.940000	24.828243
16.950000	24.828243
16.960000	24.828243
16.970000	24.828243
16.980000	24.828243
16.990000	24.828243
17.000000	24.824105
17.010000	24.824105
17.020000	24.824105
17.030000	24.824105
17.040000	24.824105
17.050000	24.824105
17.060000	24.824105
17.070000	24.824105
17.080000	24.824105
17.090000	24.824105
17.100000	24.824105
17.110000	24.824105
17.120000	24.824105
17.130000	24.824105
17.140000	24.824105
17.150000	24.824105
17.160000	24.824105
17.170000	24.824105
17.180000	24.824105
17.190000	24.824105
17.200000	24.824105
17.210000	24.824105
17.220000	24.824105
17.230000	24.824105
17.240000	24.824105
17.250000	24.824105
17.260000	24.824105
17.270000	24.824105
17.280000	24.824105
17.290000	24.824105
17.300000	24.824105
17.310000	24.824105
17.320000	24.824105
17.330000	24.824105
17.340000	24.824105
17.350000	24.824105
17.360000	24.824105
17.370000	24.824105
17.380000	24.824105
17.390000	24.824105
17.400000	24.824105
17.410000	24.824105
17.420000	24.824105
17.430000	24.824105
17.440000	24.824105
17.450000	24.824105
17.460000	24.824105
17.470000	24.824105
17.480000	24.824105
17.490000	24.824105
17.500000	24.819723
17.510000	24.819723
17.520000	24.819723
17.530000	24.819723
17.540000	24.819723
17.550000	24.819723
17.560000	24.819723
17.570000	24.819723
17.580000	24.819723
17.590000	24.819723
17.600000	24.819723
17.610000	24.819723
17.620000	24.819723
17.630000	24.819723
17.640000	24.819723
17.650000	24.819723
17.660000	24.819723
17.670000	24.819723
17.680000	24.819723
17.690000	24.819723
17.700000	24.819723
17.710000	24.819723
17.720000	24.819723
17.730000	24.819723
17.740000	24.819723
17.750000	24.819723
17.760000	24.819723
17.770000	24.819723
17.780000	24.819723
17.790000	24.819723
17.800000	24.819723
17.810000	24.819723
17.820000	24.819723
17.830000	24.819723
17.840000	24.819723
17.850000	24.819723
17.860000	24.819723
17.870000	24.819723
17.880000	24.819723
17.890000	24.819723
17.900000	24.819723
17.910000	24.819723
17.920000	24.819723
17.930000	24.819723
17.940000	24.819723
17.950000	24.819723
17.960000	24.819723
17.970000	24.819723
17.980000	24.819723
17.990000	24.819723
