LabVIEW Measurement	
Writer_Version	2
Reader_Version	2
Separator	Tab
Decimal_Separator	.
Multi_Headings	No
X_Columns	One
Time_Pref	Absolute
Operator	biomech-dyno
Date	2023/05/23
Time	16:26:31.1792034999998606061
***End_of_Header***	
	
Channels	1	
Samples	10	
Date	2023/05/23	
Time	17:44:36.6559488999996137501	
X_Dimension	Time	
X0	0.0000000000000000E+0	
Delta_X	0.010000	
***End_of_Header***		
X_Value	Untitled	Comment
0.000000	24.604134
0.010000	24.604134
0.020000	24.604134
0.030000	24.604134
0.040000	24.604134
0.050000	24.604134
0.060000	24.604134
0.070000	24.604134
0.080000	24.604134
0.090000	24.604134
0.100000	24.604134
0.110000	24.604134
0.120000	24.604134
0.130000	24.604134
0.140000	24.604134
0.150000	24.604134
0.160000	24.604134
0.170000	24.604134
0.180000	24.604134
0.190000	24.604134
0.200000	24.604134
0.210000	24.604134
0.220000	24.604134
0.230000	24.604134
0.240000	24.604134
0.250000	24.604134
0.260000	24.604134
0.270000	24.604134
0.280000	24.604134
0.290000	24.604134
0.300000	24.604134
0.310000	24.604134
0.320000	24.604134
0.330000	24.604134
0.340000	24.604134
0.350000	24.604134
0.360000	24.604134
0.370000	24.604134
0.380000	24.604134
0.390000	24.604134
0.400000	24.604134
0.410000	24.604134
0.420000	24.604134
0.430000	24.604134
0.440000	24.604134
0.450000	24.604134
0.460000	24.604134
0.470000	24.604134
0.480000	24.604134
0.490000	24.604134
0.500000	24.607900
0.510000	24.607900
0.520000	24.607900
0.530000	24.607900
0.540000	24.607900
0.550000	24.607900
0.560000	24.607900
0.570000	24.607900
0.580000	24.607900
0.590000	24.607900
0.600000	24.607900
0.610000	24.607900
0.620000	24.607900
0.630000	24.607900
0.640000	24.607900
0.650000	24.607900
0.660000	24.607900
0.670000	24.607900
0.680000	24.607900
0.690000	24.607900
0.700000	24.607900
0.710000	24.607900
0.720000	24.607900
0.730000	24.607900
0.740000	24.607900
0.750000	24.607900
0.760000	24.607900
0.770000	24.607900
0.780000	24.607900
0.790000	24.607900
0.800000	24.607900
0.810000	24.607900
0.820000	24.607900
0.830000	24.607900
0.840000	24.607900
0.850000	24.607900
0.860000	24.607900
0.870000	24.607900
0.880000	24.607900
0.890000	24.607900
0.900000	24.607900
0.910000	24.607900
0.920000	24.607900
0.930000	24.607900
0.940000	24.607900
0.950000	24.607900
0.960000	24.607900
0.970000	24.607900
0.980000	24.607900
0.990000	24.607900
1.000000	24.616684
1.010000	24.616684
1.020000	24.616684
1.030000	24.616684
1.040000	24.616684
1.050000	24.616684
1.060000	24.616684
1.070000	24.616684
1.080000	24.616684
1.090000	24.616684
1.100000	24.616684
1.110000	24.616684
1.120000	24.616684
1.130000	24.616684
1.140000	24.616684
1.150000	24.616684
1.160000	24.616684
1.170000	24.616684
1.180000	24.616684
1.190000	24.616684
1.200000	24.616684
1.210000	24.616684
1.220000	24.616684
1.230000	24.616684
1.240000	24.616684
1.250000	24.616684
1.260000	24.616684
1.270000	24.616684
1.280000	24.616684
1.290000	24.616684
1.300000	24.616684
1.310000	24.616684
1.320000	24.616684
1.330000	24.616684
1.340000	24.616684
1.350000	24.616684
1.360000	24.616684
1.370000	24.616684
1.380000	24.616684
1.390000	24.616684
1.400000	24.616684
1.410000	24.616684
1.420000	24.616684
1.430000	24.616684
1.440000	24.616684
1.450000	24.616684
1.460000	24.616684
1.470000	24.616684
1.480000	24.616684
1.490000	24.616684
1.500000	24.634498
1.510000	24.634498
1.520000	24.634498
1.530000	24.634498
1.540000	24.634498
1.550000	24.634498
1.560000	24.634498
1.570000	24.634498
1.580000	24.634498
1.590000	24.634498
1.600000	24.634498
1.610000	24.634498
1.620000	24.634498
1.630000	24.634498
1.640000	24.634498
1.650000	24.634498
1.660000	24.634498
1.670000	24.634498
1.680000	24.634498
1.690000	24.634498
1.700000	24.634498
1.710000	24.634498
1.720000	24.634498
1.730000	24.634498
1.740000	24.634498
1.750000	24.634498
1.760000	24.634498
1.770000	24.634498
1.780000	24.634498
1.790000	24.634498
1.800000	24.634498
1.810000	24.634498
1.820000	24.634498
1.830000	24.634498
1.840000	24.634498
1.850000	24.634498
1.860000	24.634498
1.870000	24.634498
1.880000	24.634498
1.890000	24.634498
1.900000	24.634498
1.910000	24.634498
1.920000	24.634498
1.930000	24.634498
1.940000	24.634498
1.950000	24.634498
1.960000	24.634498
1.970000	24.634498
1.980000	24.634498
1.990000	24.634498
2.000000	24.659456
2.010000	24.659456
2.020000	24.659456
2.030000	24.659456
2.040000	24.659456
2.050000	24.659456
2.060000	24.659456
2.070000	24.659456
2.080000	24.659456
2.090000	24.659456
2.100000	24.659456
2.110000	24.659456
2.120000	24.659456
2.130000	24.659456
2.140000	24.659456
2.150000	24.659456
2.160000	24.659456
2.170000	24.659456
2.180000	24.659456
2.190000	24.659456
2.200000	24.659456
2.210000	24.659456
2.220000	24.659456
2.230000	24.659456
2.240000	24.659456
2.250000	24.659456
2.260000	24.659456
2.270000	24.659456
2.280000	24.659456
2.290000	24.659456
2.300000	24.659456
2.310000	24.659456
2.320000	24.659456
2.330000	24.659456
2.340000	24.659456
2.350000	24.659456
2.360000	24.659456
2.370000	24.659456
2.380000	24.659456
2.390000	24.659456
2.400000	24.659456
2.410000	24.659456
2.420000	24.659456
2.430000	24.659456
2.440000	24.659456
2.450000	24.659456
2.460000	24.659456
2.470000	24.659456
2.480000	24.659456
2.490000	24.659456
2.500000	24.689794
2.510000	24.689794
2.520000	24.689794
2.530000	24.689794
2.540000	24.689794
2.550000	24.689794
2.560000	24.689794
2.570000	24.689794
2.580000	24.689794
2.590000	24.689794
2.600000	24.689794
2.610000	24.689794
2.620000	24.689794
2.630000	24.689794
2.640000	24.689794
2.650000	24.689794
2.660000	24.689794
2.670000	24.689794
2.680000	24.689794
2.690000	24.689794
2.700000	24.689794
2.710000	24.689794
2.720000	24.689794
2.730000	24.689794
2.740000	24.689794
2.750000	24.689794
2.760000	24.689794
2.770000	24.689794
2.780000	24.689794
2.790000	24.689794
2.800000	24.689794
2.810000	24.689794
2.820000	24.689794
2.830000	24.689794
2.840000	24.689794
2.850000	24.689794
2.860000	24.689794
2.870000	24.689794
2.880000	24.689794
2.890000	24.689794
2.900000	24.689794
2.910000	24.689794
2.920000	24.689794
2.930000	24.689794
2.940000	24.689794
2.950000	24.689794
2.960000	24.689794
2.970000	24.689794
2.980000	24.689794
2.990000	24.689794
3.000000	24.724520
3.010000	24.724520
3.020000	24.724520
3.030000	24.724520
3.040000	24.724520
3.050000	24.724520
3.060000	24.724520
3.070000	24.724520
3.080000	24.724520
3.090000	24.724520
3.100000	24.724520
3.110000	24.724520
3.120000	24.724520
3.130000	24.724520
3.140000	24.724520
3.150000	24.724520
3.160000	24.724520
3.170000	24.724520
3.180000	24.724520
3.190000	24.724520
3.200000	24.724520
3.210000	24.724520
3.220000	24.724520
3.230000	24.724520
3.240000	24.724520
3.250000	24.724520
3.260000	24.724520
3.270000	24.724520
3.280000	24.724520
3.290000	24.724520
3.300000	24.724520
3.310000	24.724520
3.320000	24.724520
3.330000	24.724520
3.340000	24.724520
3.350000	24.724520
3.360000	24.724520
3.370000	24.724520
3.380000	24.724520
3.390000	24.724520
3.400000	24.724520
3.410000	24.724520
3.420000	24.724520
3.430000	24.724520
3.440000	24.724520
3.450000	24.724520
3.460000	24.724520
3.470000	24.724520
3.480000	24.724520
3.490000	24.724520
3.500000	24.760642
3.510000	24.760642
3.520000	24.760642
3.530000	24.760642
3.540000	24.760642
3.550000	24.760642
3.560000	24.760642
3.570000	24.760642
3.580000	24.760642
3.590000	24.760642
3.600000	24.760642
3.610000	24.760642
3.620000	24.760642
3.630000	24.760642
3.640000	24.760642
3.650000	24.760642
3.660000	24.760642
3.670000	24.760642
3.680000	24.760642
3.690000	24.760642
3.700000	24.760642
3.710000	24.760642
3.720000	24.760642
3.730000	24.760642
3.740000	24.760642
3.750000	24.760642
3.760000	24.760642
3.770000	24.760642
3.780000	24.760642
3.790000	24.760642
3.800000	24.760642
3.810000	24.760642
3.820000	24.760642
3.830000	24.760642
3.840000	24.760642
3.850000	24.760642
3.860000	24.760642
3.870000	24.760642
3.880000	24.760642
3.890000	24.760642
3.900000	24.760642
3.910000	24.760642
3.920000	24.760642
3.930000	24.760642
3.940000	24.760642
3.950000	24.760642
3.960000	24.760642
3.970000	24.760642
3.980000	24.760642
3.990000	24.760642
4.000000	24.792596
4.010000	24.792596
4.020000	24.792596
4.030000	24.792596
4.040000	24.792596
4.050000	24.792596
4.060000	24.792596
4.070000	24.792596
4.080000	24.792596
4.090000	24.792596
4.100000	24.792596
4.110000	24.792596
4.120000	24.792596
4.130000	24.792596
4.140000	24.792596
4.150000	24.792596
4.160000	24.792596
4.170000	24.792596
4.180000	24.792596
4.190000	24.792596
4.200000	24.792596
4.210000	24.792596
4.220000	24.792596
4.230000	24.792596
4.240000	24.792596
4.250000	24.792596
4.260000	24.792596
4.270000	24.792596
4.280000	24.792596
4.290000	24.792596
4.300000	24.792596
4.310000	24.792596
4.320000	24.792596
4.330000	24.792596
4.340000	24.792596
4.350000	24.792596
4.360000	24.792596
4.370000	24.792596
4.380000	24.792596
4.390000	24.792596
4.400000	24.792596
4.410000	24.792596
4.420000	24.792596
4.430000	24.792596
4.440000	24.792596
4.450000	24.792596
4.460000	24.792596
4.470000	24.792596
4.480000	24.792596
4.490000	24.792596
4.500000	24.817307
4.510000	24.817307
4.520000	24.817307
4.530000	24.817307
4.540000	24.817307
4.550000	24.817307
4.560000	24.817307
4.570000	24.817307
4.580000	24.817307
4.590000	24.817307
4.600000	24.817307
4.610000	24.817307
4.620000	24.817307
4.630000	24.817307
4.640000	24.817307
4.650000	24.817307
4.660000	24.817307
4.670000	24.817307
4.680000	24.817307
4.690000	24.817307
4.700000	24.817307
4.710000	24.817307
4.720000	24.817307
4.730000	24.817307
4.740000	24.817307
4.750000	24.817307
4.760000	24.817307
4.770000	24.817307
4.780000	24.817307
4.790000	24.817307
4.800000	24.817307
4.810000	24.817307
4.820000	24.817307
4.830000	24.817307
4.840000	24.817307
4.850000	24.817307
4.860000	24.817307
4.870000	24.817307
4.880000	24.817307
4.890000	24.817307
4.900000	24.817307
4.910000	24.817307
4.920000	24.817307
4.930000	24.817307
4.940000	24.817307
4.950000	24.817307
4.960000	24.817307
4.970000	24.817307
4.980000	24.817307
4.990000	24.817307
5.000000	24.835263
5.010000	24.835263
5.020000	24.835263
5.030000	24.835263
5.040000	24.835263
5.050000	24.835263
5.060000	24.835263
5.070000	24.835263
5.080000	24.835263
5.090000	24.835263
5.100000	24.835263
5.110000	24.835263
5.120000	24.835263
5.130000	24.835263
5.140000	24.835263
5.150000	24.835263
5.160000	24.835263
5.170000	24.835263
5.180000	24.835263
5.190000	24.835263
5.200000	24.835263
5.210000	24.835263
5.220000	24.835263
5.230000	24.835263
5.240000	24.835263
5.250000	24.835263
5.260000	24.835263
5.270000	24.835263
5.280000	24.835263
5.290000	24.835263
5.300000	24.835263
5.310000	24.835263
5.320000	24.835263
5.330000	24.835263
5.340000	24.835263
5.350000	24.835263
5.360000	24.835263
5.370000	24.835263
5.380000	24.835263
5.390000	24.835263
5.400000	24.835263
5.410000	24.835263
5.420000	24.835263
5.430000	24.835263
5.440000	24.835263
5.450000	24.835263
5.460000	24.835263
5.470000	24.835263
5.480000	24.835263
5.490000	24.835263
5.500000	24.847502
5.510000	24.847502
5.520000	24.847502
5.530000	24.847502
5.540000	24.847502
5.550000	24.847502
5.560000	24.847502
5.570000	24.847502
5.580000	24.847502
5.590000	24.847502
5.600000	24.847502
5.610000	24.847502
5.620000	24.847502
5.630000	24.847502
5.640000	24.847502
5.650000	24.847502
5.660000	24.847502
5.670000	24.847502
5.680000	24.847502
5.690000	24.847502
5.700000	24.847502
5.710000	24.847502
5.720000	24.847502
5.730000	24.847502
5.740000	24.847502
5.750000	24.847502
5.760000	24.847502
5.770000	24.847502
5.780000	24.847502
5.790000	24.847502
5.800000	24.847502
5.810000	24.847502
5.820000	24.847502
5.830000	24.847502
5.840000	24.847502
5.850000	24.847502
5.860000	24.847502
5.870000	24.847502
5.880000	24.847502
5.890000	24.847502
5.900000	24.847502
5.910000	24.847502
5.920000	24.847502
5.930000	24.847502
5.940000	24.847502
5.950000	24.847502
5.960000	24.847502
5.970000	24.847502
5.980000	24.847502
5.990000	24.847502
6.000000	24.855774
6.010000	24.855774
6.020000	24.855774
6.030000	24.855774
6.040000	24.855774
6.050000	24.855774
6.060000	24.855774
6.070000	24.855774
6.080000	24.855774
6.090000	24.855774
6.100000	24.855774
6.110000	24.855774
6.120000	24.855774
6.130000	24.855774
6.140000	24.855774
6.150000	24.855774
6.160000	24.855774
6.170000	24.855774
6.180000	24.855774
6.190000	24.855774
6.200000	24.855774
6.210000	24.855774
6.220000	24.855774
6.230000	24.855774
6.240000	24.855774
6.250000	24.855774
6.260000	24.855774
6.270000	24.855774
6.280000	24.855774
6.290000	24.855774
6.300000	24.855774
6.310000	24.855774
6.320000	24.855774
6.330000	24.855774
6.340000	24.855774
6.350000	24.855774
6.360000	24.855774
6.370000	24.855774
6.380000	24.855774
6.390000	24.855774
6.400000	24.855774
6.410000	24.855774
6.420000	24.855774
6.430000	24.855774
6.440000	24.855774
6.450000	24.855774
6.460000	24.855774
6.470000	24.855774
6.480000	24.855774
6.490000	24.855774
6.500000	24.861398
6.510000	24.861398
6.520000	24.861398
6.530000	24.861398
6.540000	24.861398
6.550000	24.861398
6.560000	24.861398
6.570000	24.861398
6.580000	24.861398
6.590000	24.861398
6.600000	24.861398
6.610000	24.861398
6.620000	24.861398
6.630000	24.861398
6.640000	24.861398
6.650000	24.861398
6.660000	24.861398
6.670000	24.861398
6.680000	24.861398
6.690000	24.861398
6.700000	24.861398
6.710000	24.861398
6.720000	24.861398
6.730000	24.861398
6.740000	24.861398
6.750000	24.861398
6.760000	24.861398
6.770000	24.861398
6.780000	24.861398
6.790000	24.861398
6.800000	24.861398
6.810000	24.861398
6.820000	24.861398
6.830000	24.861398
6.840000	24.861398
6.850000	24.861398
6.860000	24.861398
6.870000	24.861398
6.880000	24.861398
6.890000	24.861398
6.900000	24.861398
6.910000	24.861398
6.920000	24.861398
6.930000	24.861398
6.940000	24.861398
6.950000	24.861398
6.960000	24.861398
6.970000	24.861398
6.980000	24.861398
6.990000	24.861398
7.000000	24.864244
7.010000	24.864244
7.020000	24.864244
7.030000	24.864244
7.040000	24.864244
7.050000	24.864244
7.060000	24.864244
7.070000	24.864244
7.080000	24.864244
7.090000	24.864244
7.100000	24.864244
7.110000	24.864244
7.120000	24.864244
7.130000	24.864244
7.140000	24.864244
7.150000	24.864244
7.160000	24.864244
7.170000	24.864244
7.180000	24.864244
7.190000	24.864244
7.200000	24.864244
7.210000	24.864244
7.220000	24.864244
7.230000	24.864244
7.240000	24.864244
7.250000	24.864244
7.260000	24.864244
7.270000	24.864244
7.280000	24.864244
7.290000	24.864244
7.300000	24.864244
7.310000	24.864244
7.320000	24.864244
7.330000	24.864244
7.340000	24.864244
7.350000	24.864244
7.360000	24.864244
7.370000	24.864244
7.380000	24.864244
7.390000	24.864244
7.400000	24.864244
7.410000	24.864244
7.420000	24.864244
7.430000	24.864244
7.440000	24.864244
7.450000	24.864244
7.460000	24.864244
7.470000	24.864244
7.480000	24.864244
7.490000	24.864244
7.500000	24.865066
7.510000	24.865066
7.520000	24.865066
7.530000	24.865066
7.540000	24.865066
7.550000	24.865066
7.560000	24.865066
7.570000	24.865066
7.580000	24.865066
7.590000	24.865066
7.600000	24.865066
7.610000	24.865066
7.620000	24.865066
7.630000	24.865066
7.640000	24.865066
7.650000	24.865066
7.660000	24.865066
7.670000	24.865066
7.680000	24.865066
7.690000	24.865066
7.700000	24.865066
7.710000	24.865066
7.720000	24.865066
7.730000	24.865066
7.740000	24.865066
7.750000	24.865066
7.760000	24.865066
7.770000	24.865066
7.780000	24.865066
7.790000	24.865066
7.800000	24.865066
7.810000	24.865066
7.820000	24.865066
7.830000	24.865066
7.840000	24.865066
7.850000	24.865066
7.860000	24.865066
7.870000	24.865066
7.880000	24.865066
7.890000	24.865066
7.900000	24.865066
7.910000	24.865066
7.920000	24.865066
7.930000	24.865066
7.940000	24.865066
7.950000	24.865066
7.960000	24.865066
7.970000	24.865066
7.980000	24.865066
7.990000	24.865066
8.000000	24.864590
8.010000	24.864590
8.020000	24.864590
8.030000	24.864590
8.040000	24.864590
8.050000	24.864590
8.060000	24.864590
8.070000	24.864590
8.080000	24.864590
8.090000	24.864590
8.100000	24.864590
8.110000	24.864590
8.120000	24.864590
8.130000	24.864590
8.140000	24.864590
8.150000	24.864590
8.160000	24.864590
8.170000	24.864590
8.180000	24.864590
8.190000	24.864590
8.200000	24.864590
8.210000	24.864590
8.220000	24.864590
8.230000	24.864590
8.240000	24.864590
8.250000	24.864590
8.260000	24.864590
8.270000	24.864590
8.280000	24.864590
8.290000	24.864590
8.300000	24.864590
8.310000	24.864590
8.320000	24.864590
8.330000	24.864590
8.340000	24.864590
8.350000	24.864590
8.360000	24.864590
8.370000	24.864590
8.380000	24.864590
8.390000	24.864590
8.400000	24.864590
8.410000	24.864590
8.420000	24.864590
8.430000	24.864590
8.440000	24.864590
8.450000	24.864590
8.460000	24.864590
8.470000	24.864590
8.480000	24.864590
8.490000	24.864590
8.500000	24.862764
8.510000	24.862764
8.520000	24.862764
8.530000	24.862764
8.540000	24.862764
8.550000	24.862764
8.560000	24.862764
8.570000	24.862764
8.580000	24.862764
8.590000	24.862764
8.600000	24.862764
8.610000	24.862764
8.620000	24.862764
8.630000	24.862764
8.640000	24.862764
8.650000	24.862764
8.660000	24.862764
8.670000	24.862764
8.680000	24.862764
8.690000	24.862764
8.700000	24.862764
8.710000	24.862764
8.720000	24.862764
8.730000	24.862764
8.740000	24.862764
8.750000	24.862764
8.760000	24.862764
8.770000	24.862764
8.780000	24.862764
8.790000	24.862764
8.800000	24.862764
8.810000	24.862764
8.820000	24.862764
8.830000	24.862764
8.840000	24.862764
8.850000	24.862764
8.860000	24.862764
8.870000	24.862764
8.880000	24.862764
8.890000	24.862764
8.900000	24.862764
8.910000	24.862764
8.920000	24.862764
8.930000	24.862764
8.940000	24.862764
8.950000	24.862764
8.960000	24.862764
8.970000	24.862764
8.980000	24.862764
8.990000	24.862764
9.000000	24.860801
9.010000	24.860801
9.020000	24.860801
9.030000	24.860801
9.040000	24.860801
9.050000	24.860801
9.060000	24.860801
9.070000	24.860801
9.080000	24.860801
9.090000	24.860801
9.100000	24.860801
9.110000	24.860801
9.120000	24.860801
9.130000	24.860801
9.140000	24.860801
9.150000	24.860801
9.160000	24.860801
9.170000	24.860801
9.180000	24.860801
9.190000	24.860801
9.200000	24.860801
9.210000	24.860801
9.220000	24.860801
9.230000	24.860801
9.240000	24.860801
9.250000	24.860801
9.260000	24.860801
9.270000	24.860801
9.280000	24.860801
9.290000	24.860801
9.300000	24.860801
9.310000	24.860801
9.320000	24.860801
9.330000	24.860801
9.340000	24.860801
9.350000	24.860801
9.360000	24.860801
9.370000	24.860801
9.380000	24.860801
9.390000	24.860801
9.400000	24.860801
9.410000	24.860801
9.420000	24.860801
9.430000	24.860801
9.440000	24.860801
9.450000	24.860801
9.460000	24.860801
9.470000	24.860801
9.480000	24.860801
9.490000	24.860801
9.500000	24.857574
9.510000	24.857574
9.520000	24.857574
9.530000	24.857574
9.540000	24.857574
9.550000	24.857574
9.560000	24.857574
9.570000	24.857574
9.580000	24.857574
9.590000	24.857574
9.600000	24.857574
9.610000	24.857574
9.620000	24.857574
9.630000	24.857574
9.640000	24.857574
9.650000	24.857574
9.660000	24.857574
9.670000	24.857574
9.680000	24.857574
9.690000	24.857574
9.700000	24.857574
9.710000	24.857574
9.720000	24.857574
9.730000	24.857574
9.740000	24.857574
9.750000	24.857574
9.760000	24.857574
9.770000	24.857574
9.780000	24.857574
9.790000	24.857574
9.800000	24.857574
9.810000	24.857574
9.820000	24.857574
9.830000	24.857574
9.840000	24.857574
9.850000	24.857574
9.860000	24.857574
9.870000	24.857574
9.880000	24.857574
9.890000	24.857574
9.900000	24.857574
9.910000	24.857574
9.920000	24.857574
9.930000	24.857574
9.940000	24.857574
9.950000	24.857574
9.960000	24.857574
9.970000	24.857574
9.980000	24.857574
9.990000	24.857574
10.000000	24.853940
10.010000	24.853940
10.020000	24.853940
10.030000	24.853940
10.040000	24.853940
10.050000	24.853940
10.060000	24.853940
10.070000	24.853940
10.080000	24.853940
10.090000	24.853940
10.100000	24.853940
10.110000	24.853940
10.120000	24.853940
10.130000	24.853940
10.140000	24.853940
10.150000	24.853940
10.160000	24.853940
10.170000	24.853940
10.180000	24.853940
10.190000	24.853940
10.200000	24.853940
10.210000	24.853940
10.220000	24.853940
10.230000	24.853940
10.240000	24.853940
10.250000	24.853940
10.260000	24.853940
10.270000	24.853940
10.280000	24.853940
10.290000	24.853940
10.300000	24.853940
10.310000	24.853940
10.320000	24.853940
10.330000	24.853940
10.340000	24.853940
10.350000	24.853940
10.360000	24.853940
10.370000	24.853940
10.380000	24.853940
10.390000	24.853940
10.400000	24.853940
10.410000	24.853940
10.420000	24.853940
10.430000	24.853940
10.440000	24.853940
10.450000	24.853940
10.460000	24.853940
10.470000	24.853940
10.480000	24.853940
10.490000	24.853940
10.500000	24.849751
10.510000	24.849751
10.520000	24.849751
10.530000	24.849751
10.540000	24.849751
10.550000	24.849751
10.560000	24.849751
10.570000	24.849751
10.580000	24.849751
10.590000	24.849751
10.600000	24.849751
10.610000	24.849751
10.620000	24.849751
10.630000	24.849751
10.640000	24.849751
10.650000	24.849751
10.660000	24.849751
10.670000	24.849751
10.680000	24.849751
10.690000	24.849751
10.700000	24.849751
10.710000	24.849751
10.720000	24.849751
10.730000	24.849751
10.740000	24.849751
10.750000	24.849751
10.760000	24.849751
10.770000	24.849751
10.780000	24.849751
10.790000	24.849751
10.800000	24.849751
10.810000	24.849751
10.820000	24.849751
10.830000	24.849751
10.840000	24.849751
10.850000	24.849751
10.860000	24.849751
10.870000	24.849751
10.880000	24.849751
10.890000	24.849751
10.900000	24.849751
10.910000	24.849751
10.920000	24.849751
10.930000	24.849751
10.940000	24.849751
10.950000	24.849751
10.960000	24.849751
10.970000	24.849751
10.980000	24.849751
10.990000	24.849751
11.000000	24.844784
11.010000	24.844784
11.020000	24.844784
11.030000	24.844784
11.040000	24.844784
11.050000	24.844784
11.060000	24.844784
11.070000	24.844784
11.080000	24.844784
11.090000	24.844784
11.100000	24.844784
11.110000	24.844784
11.120000	24.844784
11.130000	24.844784
11.140000	24.844784
11.150000	24.844784
11.160000	24.844784
11.170000	24.844784
11.180000	24.844784
11.190000	24.844784
11.200000	24.844784
11.210000	24.844784
11.220000	24.844784
11.230000	24.844784
11.240000	24.844784
11.250000	24.844784
11.260000	24.844784
11.270000	24.844784
11.280000	24.844784
11.290000	24.844784
11.300000	24.844784
11.310000	24.844784
11.320000	24.844784
11.330000	24.844784
11.340000	24.844784
11.350000	24.844784
11.360000	24.844784
11.370000	24.844784
11.380000	24.844784
11.390000	24.844784
11.400000	24.844784
11.410000	24.844784
11.420000	24.844784
11.430000	24.844784
11.440000	24.844784
11.450000	24.844784
11.460000	24.844784
11.470000	24.844784
11.480000	24.844784
11.490000	24.844784
11.500000	24.840578
11.510000	24.840578
11.520000	24.840578
11.530000	24.840578
11.540000	24.840578
11.550000	24.840578
11.560000	24.840578
11.570000	24.840578
11.580000	24.840578
11.590000	24.840578
11.600000	24.840578
11.610000	24.840578
11.620000	24.840578
11.630000	24.840578
11.640000	24.840578
11.650000	24.840578
11.660000	24.840578
11.670000	24.840578
11.680000	24.840578
11.690000	24.840578
11.700000	24.840578
11.710000	24.840578
11.720000	24.840578
11.730000	24.840578
11.740000	24.840578
11.750000	24.840578
11.760000	24.840578
11.770000	24.840578
11.780000	24.840578
11.790000	24.840578
11.800000	24.840578
11.810000	24.840578
11.820000	24.840578
11.830000	24.840578
11.840000	24.840578
11.850000	24.840578
11.860000	24.840578
11.870000	24.840578
11.880000	24.840578
11.890000	24.840578
11.900000	24.840578
11.910000	24.840578
11.920000	24.840578
11.930000	24.840578
11.940000	24.840578
11.950000	24.840578
11.960000	24.840578
11.970000	24.840578
11.980000	24.840578
11.990000	24.840578
12.000000	24.835644
12.010000	24.835644
12.020000	24.835644
12.030000	24.835644
12.040000	24.835644
12.050000	24.835644
12.060000	24.835644
12.070000	24.835644
12.080000	24.835644
12.090000	24.835644
12.100000	24.835644
12.110000	24.835644
12.120000	24.835644
12.130000	24.835644
12.140000	24.835644
12.150000	24.835644
12.160000	24.835644
12.170000	24.835644
12.180000	24.835644
12.190000	24.835644
12.200000	24.835644
12.210000	24.835644
12.220000	24.835644
12.230000	24.835644
12.240000	24.835644
12.250000	24.835644
12.260000	24.835644
12.270000	24.835644
12.280000	24.835644
12.290000	24.835644
12.300000	24.835644
12.310000	24.835644
12.320000	24.835644
12.330000	24.835644
12.340000	24.835644
12.350000	24.835644
12.360000	24.835644
12.370000	24.835644
12.380000	24.835644
12.390000	24.835644
12.400000	24.835644
12.410000	24.835644
12.420000	24.835644
12.430000	24.835644
12.440000	24.835644
12.450000	24.835644
12.460000	24.835644
12.470000	24.835644
12.480000	24.835644
12.490000	24.835644
12.500000	24.830762
12.510000	24.830762
12.520000	24.830762
12.530000	24.830762
12.540000	24.830762
12.550000	24.830762
12.560000	24.830762
12.570000	24.830762
12.580000	24.830762
12.590000	24.830762
12.600000	24.830762
12.610000	24.830762
12.620000	24.830762
12.630000	24.830762
12.640000	24.830762
12.650000	24.830762
12.660000	24.830762
12.670000	24.830762
12.680000	24.830762
12.690000	24.830762
12.700000	24.830762
12.710000	24.830762
12.720000	24.830762
12.730000	24.830762
12.740000	24.830762
12.750000	24.830762
12.760000	24.830762
12.770000	24.830762
12.780000	24.830762
12.790000	24.830762
12.800000	24.830762
12.810000	24.830762
12.820000	24.830762
12.830000	24.830762
12.840000	24.830762
12.850000	24.830762
12.860000	24.830762
12.870000	24.830762
12.880000	24.830762
12.890000	24.830762
12.900000	24.830762
12.910000	24.830762
12.920000	24.830762
12.930000	24.830762
12.940000	24.830762
12.950000	24.830762
12.960000	24.830762
12.970000	24.830762
12.980000	24.830762
12.990000	24.830762
13.000000	24.825897
13.010000	24.825897
13.020000	24.825897
13.030000	24.825897
13.040000	24.825897
13.050000	24.825897
13.060000	24.825897
13.070000	24.825897
13.080000	24.825897
13.090000	24.825897
13.100000	24.825897
13.110000	24.825897
13.120000	24.825897
13.130000	24.825897
13.140000	24.825897
13.150000	24.825897
13.160000	24.825897
13.170000	24.825897
13.180000	24.825897
13.190000	24.825897
13.200000	24.825897
13.210000	24.825897
13.220000	24.825897
13.230000	24.825897
13.240000	24.825897
13.250000	24.825897
13.260000	24.825897
13.270000	24.825897
13.280000	24.825897
13.290000	24.825897
13.300000	24.825897
13.310000	24.825897
13.320000	24.825897
13.330000	24.825897
13.340000	24.825897
13.350000	24.825897
13.360000	24.825897
13.370000	24.825897
13.380000	24.825897
13.390000	24.825897
13.400000	24.825897
13.410000	24.825897
13.420000	24.825897
13.430000	24.825897
13.440000	24.825897
13.450000	24.825897
13.460000	24.825897
13.470000	24.825897
13.480000	24.825897
13.490000	24.825897
13.500000	24.820494
13.510000	24.820494
13.520000	24.820494
13.530000	24.820494
13.540000	24.820494
13.550000	24.820494
13.560000	24.820494
13.570000	24.820494
13.580000	24.820494
13.590000	24.820494
13.600000	24.820494
13.610000	24.820494
13.620000	24.820494
13.630000	24.820494
13.640000	24.820494
13.650000	24.820494
13.660000	24.820494
13.670000	24.820494
13.680000	24.820494
13.690000	24.820494
13.700000	24.820494
13.710000	24.820494
13.720000	24.820494
13.730000	24.820494
13.740000	24.820494
13.750000	24.820494
13.760000	24.820494
13.770000	24.820494
13.780000	24.820494
13.790000	24.820494
13.800000	24.820494
13.810000	24.820494
13.820000	24.820494
13.830000	24.820494
13.840000	24.820494
13.850000	24.820494
13.860000	24.820494
13.870000	24.820494
13.880000	24.820494
13.890000	24.820494
13.900000	24.820494
13.910000	24.820494
13.920000	24.820494
13.930000	24.820494
13.940000	24.820494
13.950000	24.820494
13.960000	24.820494
13.970000	24.820494
13.980000	24.820494
13.990000	24.820494
14.000000	24.815151
14.010000	24.815151
14.020000	24.815151
14.030000	24.815151
14.040000	24.815151
14.050000	24.815151
14.060000	24.815151
14.070000	24.815151
14.080000	24.815151
14.090000	24.815151
14.100000	24.815151
14.110000	24.815151
14.120000	24.815151
14.130000	24.815151
14.140000	24.815151
14.150000	24.815151
14.160000	24.815151
14.170000	24.815151
14.180000	24.815151
14.190000	24.815151
14.200000	24.815151
14.210000	24.815151
14.220000	24.815151
14.230000	24.815151
14.240000	24.815151
14.250000	24.815151
14.260000	24.815151
14.270000	24.815151
14.280000	24.815151
14.290000	24.815151
14.300000	24.815151
14.310000	24.815151
14.320000	24.815151
14.330000	24.815151
14.340000	24.815151
14.350000	24.815151
14.360000	24.815151
14.370000	24.815151
14.380000	24.815151
14.390000	24.815151
14.400000	24.815151
14.410000	24.815151
14.420000	24.815151
14.430000	24.815151
14.440000	24.815151
14.450000	24.815151
14.460000	24.815151
14.470000	24.815151
14.480000	24.815151
14.490000	24.815151
14.500000	24.810241
14.510000	24.810241
14.520000	24.810241
14.530000	24.810241
14.540000	24.810241
14.550000	24.810241
14.560000	24.810241
14.570000	24.810241
14.580000	24.810241
14.590000	24.810241
14.600000	24.810241
14.610000	24.810241
14.620000	24.810241
14.630000	24.810241
14.640000	24.810241
14.650000	24.810241
14.660000	24.810241
14.670000	24.810241
14.680000	24.810241
14.690000	24.810241
14.700000	24.810241
14.710000	24.810241
14.720000	24.810241
14.730000	24.810241
14.740000	24.810241
14.750000	24.810241
14.760000	24.810241
14.770000	24.810241
14.780000	24.810241
14.790000	24.810241
14.800000	24.810241
14.810000	24.810241
14.820000	24.810241
14.830000	24.810241
14.840000	24.810241
14.850000	24.810241
14.860000	24.810241
14.870000	24.810241
14.880000	24.810241
14.890000	24.810241
14.900000	24.810241
14.910000	24.810241
14.920000	24.810241
14.930000	24.810241
14.940000	24.810241
14.950000	24.810241
14.960000	24.810241
14.970000	24.810241
14.980000	24.810241
14.990000	24.810241
15.000000	24.805157
15.010000	24.805157
15.020000	24.805157
15.030000	24.805157
15.040000	24.805157
15.050000	24.805157
15.060000	24.805157
15.070000	24.805157
15.080000	24.805157
15.090000	24.805157
15.100000	24.805157
15.110000	24.805157
15.120000	24.805157
15.130000	24.805157
15.140000	24.805157
15.150000	24.805157
15.160000	24.805157
15.170000	24.805157
15.180000	24.805157
15.190000	24.805157
15.200000	24.805157
15.210000	24.805157
15.220000	24.805157
15.230000	24.805157
15.240000	24.805157
15.250000	24.805157
15.260000	24.805157
15.270000	24.805157
15.280000	24.805157
15.290000	24.805157
15.300000	24.805157
15.310000	24.805157
15.320000	24.805157
15.330000	24.805157
15.340000	24.805157
15.350000	24.805157
15.360000	24.805157
15.370000	24.805157
15.380000	24.805157
15.390000	24.805157
15.400000	24.805157
15.410000	24.805157
15.420000	24.805157
15.430000	24.805157
15.440000	24.805157
15.450000	24.805157
15.460000	24.805157
15.470000	24.805157
15.480000	24.805157
15.490000	24.805157
15.500000	24.799622
15.510000	24.799622
15.520000	24.799622
15.530000	24.799622
15.540000	24.799622
15.550000	24.799622
15.560000	24.799622
15.570000	24.799622
15.580000	24.799622
15.590000	24.799622
15.600000	24.799622
15.610000	24.799622
15.620000	24.799622
15.630000	24.799622
15.640000	24.799622
15.650000	24.799622
15.660000	24.799622
15.670000	24.799622
15.680000	24.799622
15.690000	24.799622
15.700000	24.799622
15.710000	24.799622
15.720000	24.799622
15.730000	24.799622
15.740000	24.799622
15.750000	24.799622
15.760000	24.799622
15.770000	24.799622
15.780000	24.799622
15.790000	24.799622
15.800000	24.799622
15.810000	24.799622
15.820000	24.799622
15.830000	24.799622
15.840000	24.799622
15.850000	24.799622
15.860000	24.799622
15.870000	24.799622
15.880000	24.799622
15.890000	24.799622
15.900000	24.799622
15.910000	24.799622
15.920000	24.799622
15.930000	24.799622
15.940000	24.799622
15.950000	24.799622
15.960000	24.799622
15.970000	24.799622
15.980000	24.799622
15.990000	24.799622
16.000000	24.794857
16.010000	24.794857
16.020000	24.794857
16.030000	24.794857
16.040000	24.794857
16.050000	24.794857
16.060000	24.794857
16.070000	24.794857
16.080000	24.794857
16.090000	24.794857
16.100000	24.794857
16.110000	24.794857
16.120000	24.794857
16.130000	24.794857
16.140000	24.794857
16.150000	24.794857
16.160000	24.794857
16.170000	24.794857
16.180000	24.794857
16.190000	24.794857
16.200000	24.794857
16.210000	24.794857
16.220000	24.794857
16.230000	24.794857
16.240000	24.794857
16.250000	24.794857
16.260000	24.794857
16.270000	24.794857
16.280000	24.794857
16.290000	24.794857
16.300000	24.794857
16.310000	24.794857
16.320000	24.794857
16.330000	24.794857
16.340000	24.794857
16.350000	24.794857
16.360000	24.794857
16.370000	24.794857
16.380000	24.794857
16.390000	24.794857
16.400000	24.794857
16.410000	24.794857
16.420000	24.794857
16.430000	24.794857
16.440000	24.794857
16.450000	24.794857
16.460000	24.794857
16.470000	24.794857
16.480000	24.794857
16.490000	24.794857
16.500000	24.789789
16.510000	24.789789
16.520000	24.789789
16.530000	24.789789
16.540000	24.789789
16.550000	24.789789
16.560000	24.789789
16.570000	24.789789
16.580000	24.789789
16.590000	24.789789
16.600000	24.789789
16.610000	24.789789
16.620000	24.789789
16.630000	24.789789
16.640000	24.789789
16.650000	24.789789
16.660000	24.789789
16.670000	24.789789
16.680000	24.789789
16.690000	24.789789
16.700000	24.789789
16.710000	24.789789
16.720000	24.789789
16.730000	24.789789
16.740000	24.789789
16.750000	24.789789
16.760000	24.789789
16.770000	24.789789
16.780000	24.789789
16.790000	24.789789
16.800000	24.789789
16.810000	24.789789
16.820000	24.789789
16.830000	24.789789
16.840000	24.789789
16.850000	24.789789
16.860000	24.789789
16.870000	24.789789
16.880000	24.789789
16.890000	24.789789
16.900000	24.789789
16.910000	24.789789
16.920000	24.789789
16.930000	24.789789
16.940000	24.789789
16.950000	24.789789
16.960000	24.789789
16.970000	24.789789
16.980000	24.789789
16.990000	24.789789
17.000000	24.784729
17.010000	24.784729
17.020000	24.784729
17.030000	24.784729
17.040000	24.784729
17.050000	24.784729
17.060000	24.784729
17.070000	24.784729
17.080000	24.784729
17.090000	24.784729
17.100000	24.784729
17.110000	24.784729
17.120000	24.784729
17.130000	24.784729
17.140000	24.784729
17.150000	24.784729
17.160000	24.784729
17.170000	24.784729
17.180000	24.784729
17.190000	24.784729
17.200000	24.784729
17.210000	24.784729
17.220000	24.784729
17.230000	24.784729
17.240000	24.784729
17.250000	24.784729
17.260000	24.784729
17.270000	24.784729
17.280000	24.784729
17.290000	24.784729
17.300000	24.784729
17.310000	24.784729
17.320000	24.784729
17.330000	24.784729
17.340000	24.784729
17.350000	24.784729
17.360000	24.784729
17.370000	24.784729
17.380000	24.784729
17.390000	24.784729
17.400000	24.784729
17.410000	24.784729
17.420000	24.784729
17.430000	24.784729
17.440000	24.784729
17.450000	24.784729
17.460000	24.784729
17.470000	24.784729
17.480000	24.784729
17.490000	24.784729
17.500000	24.779954
17.510000	24.779954
17.520000	24.779954
17.530000	24.779954
17.540000	24.779954
17.550000	24.779954
17.560000	24.779954
17.570000	24.779954
17.580000	24.779954
17.590000	24.779954
17.600000	24.779954
17.610000	24.779954
17.620000	24.779954
17.630000	24.779954
17.640000	24.779954
17.650000	24.779954
17.660000	24.779954
17.670000	24.779954
17.680000	24.779954
17.690000	24.779954
17.700000	24.779954
17.710000	24.779954
17.720000	24.779954
17.730000	24.779954
17.740000	24.779954
17.750000	24.779954
17.760000	24.779954
17.770000	24.779954
17.780000	24.779954
17.790000	24.779954
17.800000	24.779954
17.810000	24.779954
17.820000	24.779954
17.830000	24.779954
17.840000	24.779954
17.850000	24.779954
17.860000	24.779954
17.870000	24.779954
17.880000	24.779954
17.890000	24.779954
17.900000	24.779954
17.910000	24.779954
17.920000	24.779954
17.930000	24.779954
17.940000	24.779954
17.950000	24.779954
17.960000	24.779954
17.970000	24.779954
17.980000	24.779954
17.990000	24.779954
