LabVIEW Measurement	
Writer_Version	2
Reader_Version	2
Separator	Tab
Decimal_Separator	.
Multi_Headings	No
X_Columns	One
Time_Pref	Absolute
Operator	biomech-dyno
Date	2023/05/23
Time	16:26:31.1792034999998606061
***End_of_Header***	
	
Channels	1	
Samples	10	
Date	2023/05/23	
Time	17:56:59.1405099999998806414	
X_Dimension	Time	
X0	0.0000000000000000E+0	
Delta_X	0.010000	
***End_of_Header***		
X_Value	Untitled	Comment
0.000000	24.749639
0.010000	24.749639
0.020000	24.749639
0.030000	24.749639
0.040000	24.749639
0.050000	24.749639
0.060000	24.749639
0.070000	24.749639
0.080000	24.749639
0.090000	24.749639
0.100000	24.749639
0.110000	24.749639
0.120000	24.749639
0.130000	24.749639
0.140000	24.749639
0.150000	24.749639
0.160000	24.749639
0.170000	24.749639
0.180000	24.749639
0.190000	24.749639
0.200000	24.749639
0.210000	24.749639
0.220000	24.749639
0.230000	24.749639
0.240000	24.749639
0.250000	24.749639
0.260000	24.749639
0.270000	24.749639
0.280000	24.749639
0.290000	24.749639
0.300000	24.749639
0.310000	24.749639
0.320000	24.749639
0.330000	24.749639
0.340000	24.749639
0.350000	24.749639
0.360000	24.749639
0.370000	24.749639
0.380000	24.749639
0.390000	24.749639
0.400000	24.749639
0.410000	24.749639
0.420000	24.749639
0.430000	24.749639
0.440000	24.749639
0.450000	24.749639
0.460000	24.749639
0.470000	24.749639
0.480000	24.749639
0.490000	24.749639
0.500000	24.753507
0.510000	24.753507
0.520000	24.753507
0.530000	24.753507
0.540000	24.753507
0.550000	24.753507
0.560000	24.753507
0.570000	24.753507
0.580000	24.753507
0.590000	24.753507
0.600000	24.753507
0.610000	24.753507
0.620000	24.753507
0.630000	24.753507
0.640000	24.753507
0.650000	24.753507
0.660000	24.753507
0.670000	24.753507
0.680000	24.753507
0.690000	24.753507
0.700000	24.753507
0.710000	24.753507
0.720000	24.753507
0.730000	24.753507
0.740000	24.753507
0.750000	24.753507
0.760000	24.753507
0.770000	24.753507
0.780000	24.753507
0.790000	24.753507
0.800000	24.753507
0.810000	24.753507
0.820000	24.753507
0.830000	24.753507
0.840000	24.753507
0.850000	24.753507
0.860000	24.753507
0.870000	24.753507
0.880000	24.753507
0.890000	24.753507
0.900000	24.753507
0.910000	24.753507
0.920000	24.753507
0.930000	24.753507
0.940000	24.753507
0.950000	24.753507
0.960000	24.753507
0.970000	24.753507
0.980000	24.753507
0.990000	24.753507
1.000000	24.760278
1.010000	24.760278
1.020000	24.760278
1.030000	24.760278
1.040000	24.760278
1.050000	24.760278
1.060000	24.760278
1.070000	24.760278
1.080000	24.760278
1.090000	24.760278
1.100000	24.760278
1.110000	24.760278
1.120000	24.760278
1.130000	24.760278
1.140000	24.760278
1.150000	24.760278
1.160000	24.760278
1.170000	24.760278
1.180000	24.760278
1.190000	24.760278
1.200000	24.760278
1.210000	24.760278
1.220000	24.760278
1.230000	24.760278
1.240000	24.760278
1.250000	24.760278
1.260000	24.760278
1.270000	24.760278
1.280000	24.760278
1.290000	24.760278
1.300000	24.760278
1.310000	24.760278
1.320000	24.760278
1.330000	24.760278
1.340000	24.760278
1.350000	24.760278
1.360000	24.760278
1.370000	24.760278
1.380000	24.760278
1.390000	24.760278
1.400000	24.760278
1.410000	24.760278
1.420000	24.760278
1.430000	24.760278
1.440000	24.760278
1.450000	24.760278
1.460000	24.760278
1.470000	24.760278
1.480000	24.760278
1.490000	24.760278
1.500000	24.773159
1.510000	24.773159
1.520000	24.773159
1.530000	24.773159
1.540000	24.773159
1.550000	24.773159
1.560000	24.773159
1.570000	24.773159
1.580000	24.773159
1.590000	24.773159
1.600000	24.773159
1.610000	24.773159
1.620000	24.773159
1.630000	24.773159
1.640000	24.773159
1.650000	24.773159
1.660000	24.773159
1.670000	24.773159
1.680000	24.773159
1.690000	24.773159
1.700000	24.773159
1.710000	24.773159
1.720000	24.773159
1.730000	24.773159
1.740000	24.773159
1.750000	24.773159
1.760000	24.773159
1.770000	24.773159
1.780000	24.773159
1.790000	24.773159
1.800000	24.773159
1.810000	24.773159
1.820000	24.773159
1.830000	24.773159
1.840000	24.773159
1.850000	24.773159
1.860000	24.773159
1.870000	24.773159
1.880000	24.773159
1.890000	24.773159
1.900000	24.773159
1.910000	24.773159
1.920000	24.773159
1.930000	24.773159
1.940000	24.773159
1.950000	24.773159
1.960000	24.773159
1.970000	24.773159
1.980000	24.773159
1.990000	24.773159
2.000000	24.791071
2.010000	24.791071
2.020000	24.791071
2.030000	24.791071
2.040000	24.791071
2.050000	24.791071
2.060000	24.791071
2.070000	24.791071
2.080000	24.791071
2.090000	24.791071
2.100000	24.791071
2.110000	24.791071
2.120000	24.791071
2.130000	24.791071
2.140000	24.791071
2.150000	24.791071
2.160000	24.791071
2.170000	24.791071
2.180000	24.791071
2.190000	24.791071
2.200000	24.791071
2.210000	24.791071
2.220000	24.791071
2.230000	24.791071
2.240000	24.791071
2.250000	24.791071
2.260000	24.791071
2.270000	24.791071
2.280000	24.791071
2.290000	24.791071
2.300000	24.791071
2.310000	24.791071
2.320000	24.791071
2.330000	24.791071
2.340000	24.791071
2.350000	24.791071
2.360000	24.791071
2.370000	24.791071
2.380000	24.791071
2.390000	24.791071
2.400000	24.791071
2.410000	24.791071
2.420000	24.791071
2.430000	24.791071
2.440000	24.791071
2.450000	24.791071
2.460000	24.791071
2.470000	24.791071
2.480000	24.791071
2.490000	24.791071
2.500000	24.813515
2.510000	24.813515
2.520000	24.813515
2.530000	24.813515
2.540000	24.813515
2.550000	24.813515
2.560000	24.813515
2.570000	24.813515
2.580000	24.813515
2.590000	24.813515
2.600000	24.813515
2.610000	24.813515
2.620000	24.813515
2.630000	24.813515
2.640000	24.813515
2.650000	24.813515
2.660000	24.813515
2.670000	24.813515
2.680000	24.813515
2.690000	24.813515
2.700000	24.813515
2.710000	24.813515
2.720000	24.813515
2.730000	24.813515
2.740000	24.813515
2.750000	24.813515
2.760000	24.813515
2.770000	24.813515
2.780000	24.813515
2.790000	24.813515
2.800000	24.813515
2.810000	24.813515
2.820000	24.813515
2.830000	24.813515
2.840000	24.813515
2.850000	24.813515
2.860000	24.813515
2.870000	24.813515
2.880000	24.813515
2.890000	24.813515
2.900000	24.813515
2.910000	24.813515
2.920000	24.813515
2.930000	24.813515
2.940000	24.813515
2.950000	24.813515
2.960000	24.813515
2.970000	24.813515
2.980000	24.813515
2.990000	24.813515
3.000000	24.838319
3.010000	24.838319
3.020000	24.838319
3.030000	24.838319
3.040000	24.838319
3.050000	24.838319
3.060000	24.838319
3.070000	24.838319
3.080000	24.838319
3.090000	24.838319
3.100000	24.838319
3.110000	24.838319
3.120000	24.838319
3.130000	24.838319
3.140000	24.838319
3.150000	24.838319
3.160000	24.838319
3.170000	24.838319
3.180000	24.838319
3.190000	24.838319
3.200000	24.838319
3.210000	24.838319
3.220000	24.838319
3.230000	24.838319
3.240000	24.838319
3.250000	24.838319
3.260000	24.838319
3.270000	24.838319
3.280000	24.838319
3.290000	24.838319
3.300000	24.838319
3.310000	24.838319
3.320000	24.838319
3.330000	24.838319
3.340000	24.838319
3.350000	24.838319
3.360000	24.838319
3.370000	24.838319
3.380000	24.838319
3.390000	24.838319
3.400000	24.838319
3.410000	24.838319
3.420000	24.838319
3.430000	24.838319
3.440000	24.838319
3.450000	24.838319
3.460000	24.838319
3.470000	24.838319
3.480000	24.838319
3.490000	24.838319
3.500000	24.863699
3.510000	24.863699
3.520000	24.863699
3.530000	24.863699
3.540000	24.863699
3.550000	24.863699
3.560000	24.863699
3.570000	24.863699
3.580000	24.863699
3.590000	24.863699
3.600000	24.863699
3.610000	24.863699
3.620000	24.863699
3.630000	24.863699
3.640000	24.863699
3.650000	24.863699
3.660000	24.863699
3.670000	24.863699
3.680000	24.863699
3.690000	24.863699
3.700000	24.863699
3.710000	24.863699
3.720000	24.863699
3.730000	24.863699
3.740000	24.863699
3.750000	24.863699
3.760000	24.863699
3.770000	24.863699
3.780000	24.863699
3.790000	24.863699
3.800000	24.863699
3.810000	24.863699
3.820000	24.863699
3.830000	24.863699
3.840000	24.863699
3.850000	24.863699
3.860000	24.863699
3.870000	24.863699
3.880000	24.863699
3.890000	24.863699
3.900000	24.863699
3.910000	24.863699
3.920000	24.863699
3.930000	24.863699
3.940000	24.863699
3.950000	24.863699
3.960000	24.863699
3.970000	24.863699
3.980000	24.863699
3.990000	24.863699
4.000000	24.884906
4.010000	24.884906
4.020000	24.884906
4.030000	24.884906
4.040000	24.884906
4.050000	24.884906
4.060000	24.884906
4.070000	24.884906
4.080000	24.884906
4.090000	24.884906
4.100000	24.884906
4.110000	24.884906
4.120000	24.884906
4.130000	24.884906
4.140000	24.884906
4.150000	24.884906
4.160000	24.884906
4.170000	24.884906
4.180000	24.884906
4.190000	24.884906
4.200000	24.884906
4.210000	24.884906
4.220000	24.884906
4.230000	24.884906
4.240000	24.884906
4.250000	24.884906
4.260000	24.884906
4.270000	24.884906
4.280000	24.884906
4.290000	24.884906
4.300000	24.884906
4.310000	24.884906
4.320000	24.884906
4.330000	24.884906
4.340000	24.884906
4.350000	24.884906
4.360000	24.884906
4.370000	24.884906
4.380000	24.884906
4.390000	24.884906
4.400000	24.884906
4.410000	24.884906
4.420000	24.884906
4.430000	24.884906
4.440000	24.884906
4.450000	24.884906
4.460000	24.884906
4.470000	24.884906
4.480000	24.884906
4.490000	24.884906
4.500000	24.902137
4.510000	24.902137
4.520000	24.902137
4.530000	24.902137
4.540000	24.902137
4.550000	24.902137
4.560000	24.902137
4.570000	24.902137
4.580000	24.902137
4.590000	24.902137
4.600000	24.902137
4.610000	24.902137
4.620000	24.902137
4.630000	24.902137
4.640000	24.902137
4.650000	24.902137
4.660000	24.902137
4.670000	24.902137
4.680000	24.902137
4.690000	24.902137
4.700000	24.902137
4.710000	24.902137
4.720000	24.902137
4.730000	24.902137
4.740000	24.902137
4.750000	24.902137
4.760000	24.902137
4.770000	24.902137
4.780000	24.902137
4.790000	24.902137
4.800000	24.902137
4.810000	24.902137
4.820000	24.902137
4.830000	24.902137
4.840000	24.902137
4.850000	24.902137
4.860000	24.902137
4.870000	24.902137
4.880000	24.902137
4.890000	24.902137
4.900000	24.902137
4.910000	24.902137
4.920000	24.902137
4.930000	24.902137
4.940000	24.902137
4.950000	24.902137
4.960000	24.902137
4.970000	24.902137
4.980000	24.902137
4.990000	24.902137
5.000000	24.914505
5.010000	24.914505
5.020000	24.914505
5.030000	24.914505
5.040000	24.914505
5.050000	24.914505
5.060000	24.914505
5.070000	24.914505
5.080000	24.914505
5.090000	24.914505
5.100000	24.914505
5.110000	24.914505
5.120000	24.914505
5.130000	24.914505
5.140000	24.914505
5.150000	24.914505
5.160000	24.914505
5.170000	24.914505
5.180000	24.914505
5.190000	24.914505
5.200000	24.914505
5.210000	24.914505
5.220000	24.914505
5.230000	24.914505
5.240000	24.914505
5.250000	24.914505
5.260000	24.914505
5.270000	24.914505
5.280000	24.914505
5.290000	24.914505
5.300000	24.914505
5.310000	24.914505
5.320000	24.914505
5.330000	24.914505
5.340000	24.914505
5.350000	24.914505
5.360000	24.914505
5.370000	24.914505
5.380000	24.914505
5.390000	24.914505
5.400000	24.914505
5.410000	24.914505
5.420000	24.914505
5.430000	24.914505
5.440000	24.914505
5.450000	24.914505
5.460000	24.914505
5.470000	24.914505
5.480000	24.914505
5.490000	24.914505
5.500000	24.923854
5.510000	24.923854
5.520000	24.923854
5.530000	24.923854
5.540000	24.923854
5.550000	24.923854
5.560000	24.923854
5.570000	24.923854
5.580000	24.923854
5.590000	24.923854
5.600000	24.923854
5.610000	24.923854
5.620000	24.923854
5.630000	24.923854
5.640000	24.923854
5.650000	24.923854
5.660000	24.923854
5.670000	24.923854
5.680000	24.923854
5.690000	24.923854
5.700000	24.923854
5.710000	24.923854
5.720000	24.923854
5.730000	24.923854
5.740000	24.923854
5.750000	24.923854
5.760000	24.923854
5.770000	24.923854
5.780000	24.923854
5.790000	24.923854
5.800000	24.923854
5.810000	24.923854
5.820000	24.923854
5.830000	24.923854
5.840000	24.923854
5.850000	24.923854
5.860000	24.923854
5.870000	24.923854
5.880000	24.923854
5.890000	24.923854
5.900000	24.923854
5.910000	24.923854
5.920000	24.923854
5.930000	24.923854
5.940000	24.923854
5.950000	24.923854
5.960000	24.923854
5.970000	24.923854
5.980000	24.923854
5.990000	24.923854
6.000000	24.930187
6.010000	24.930187
6.020000	24.930187
6.030000	24.930187
6.040000	24.930187
6.050000	24.930187
6.060000	24.930187
6.070000	24.930187
6.080000	24.930187
6.090000	24.930187
6.100000	24.930187
6.110000	24.930187
6.120000	24.930187
6.130000	24.930187
6.140000	24.930187
6.150000	24.930187
6.160000	24.930187
6.170000	24.930187
6.180000	24.930187
6.190000	24.930187
6.200000	24.930187
6.210000	24.930187
6.220000	24.930187
6.230000	24.930187
6.240000	24.930187
6.250000	24.930187
6.260000	24.930187
6.270000	24.930187
6.280000	24.930187
6.290000	24.930187
6.300000	24.930187
6.310000	24.930187
6.320000	24.930187
6.330000	24.930187
6.340000	24.930187
6.350000	24.930187
6.360000	24.930187
6.370000	24.930187
6.380000	24.930187
6.390000	24.930187
6.400000	24.930187
6.410000	24.930187
6.420000	24.930187
6.430000	24.930187
6.440000	24.930187
6.450000	24.930187
6.460000	24.930187
6.470000	24.930187
6.480000	24.930187
6.490000	24.930187
6.500000	24.934074
6.510000	24.934074
6.520000	24.934074
6.530000	24.934074
6.540000	24.934074
6.550000	24.934074
6.560000	24.934074
6.570000	24.934074
6.580000	24.934074
6.590000	24.934074
6.600000	24.934074
6.610000	24.934074
6.620000	24.934074
6.630000	24.934074
6.640000	24.934074
6.650000	24.934074
6.660000	24.934074
6.670000	24.934074
6.680000	24.934074
6.690000	24.934074
6.700000	24.934074
6.710000	24.934074
6.720000	24.934074
6.730000	24.934074
6.740000	24.934074
6.750000	24.934074
6.760000	24.934074
6.770000	24.934074
6.780000	24.934074
6.790000	24.934074
6.800000	24.934074
6.810000	24.934074
6.820000	24.934074
6.830000	24.934074
6.840000	24.934074
6.850000	24.934074
6.860000	24.934074
6.870000	24.934074
6.880000	24.934074
6.890000	24.934074
6.900000	24.934074
6.910000	24.934074
6.920000	24.934074
6.930000	24.934074
6.940000	24.934074
6.950000	24.934074
6.960000	24.934074
6.970000	24.934074
6.980000	24.934074
6.990000	24.934074
7.000000	24.936026
7.010000	24.936026
7.020000	24.936026
7.030000	24.936026
7.040000	24.936026
7.050000	24.936026
7.060000	24.936026
7.070000	24.936026
7.080000	24.936026
7.090000	24.936026
7.100000	24.936026
7.110000	24.936026
7.120000	24.936026
7.130000	24.936026
7.140000	24.936026
7.150000	24.936026
7.160000	24.936026
7.170000	24.936026
7.180000	24.936026
7.190000	24.936026
7.200000	24.936026
7.210000	24.936026
7.220000	24.936026
7.230000	24.936026
7.240000	24.936026
7.250000	24.936026
7.260000	24.936026
7.270000	24.936026
7.280000	24.936026
7.290000	24.936026
7.300000	24.936026
7.310000	24.936026
7.320000	24.936026
7.330000	24.936026
7.340000	24.936026
7.350000	24.936026
7.360000	24.936026
7.370000	24.936026
7.380000	24.936026
7.390000	24.936026
7.400000	24.936026
7.410000	24.936026
7.420000	24.936026
7.430000	24.936026
7.440000	24.936026
7.450000	24.936026
7.460000	24.936026
7.470000	24.936026
7.480000	24.936026
7.490000	24.936026
7.500000	24.936752
7.510000	24.936752
7.520000	24.936752
7.530000	24.936752
7.540000	24.936752
7.550000	24.936752
7.560000	24.936752
7.570000	24.936752
7.580000	24.936752
7.590000	24.936752
7.600000	24.936752
7.610000	24.936752
7.620000	24.936752
7.630000	24.936752
7.640000	24.936752
7.650000	24.936752
7.660000	24.936752
7.670000	24.936752
7.680000	24.936752
7.690000	24.936752
7.700000	24.936752
7.710000	24.936752
7.720000	24.936752
7.730000	24.936752
7.740000	24.936752
7.750000	24.936752
7.760000	24.936752
7.770000	24.936752
7.780000	24.936752
7.790000	24.936752
7.800000	24.936752
7.810000	24.936752
7.820000	24.936752
7.830000	24.936752
7.840000	24.936752
7.850000	24.936752
7.860000	24.936752
7.870000	24.936752
7.880000	24.936752
7.890000	24.936752
7.900000	24.936752
7.910000	24.936752
7.920000	24.936752
7.930000	24.936752
7.940000	24.936752
7.950000	24.936752
7.960000	24.936752
7.970000	24.936752
7.980000	24.936752
7.990000	24.936752
8.000000	24.936501
8.010000	24.936501
8.020000	24.936501
8.030000	24.936501
8.040000	24.936501
8.050000	24.936501
8.060000	24.936501
8.070000	24.936501
8.080000	24.936501
8.090000	24.936501
8.100000	24.936501
8.110000	24.936501
8.120000	24.936501
8.130000	24.936501
8.140000	24.936501
8.150000	24.936501
8.160000	24.936501
8.170000	24.936501
8.180000	24.936501
8.190000	24.936501
8.200000	24.936501
8.210000	24.936501
8.220000	24.936501
8.230000	24.936501
8.240000	24.936501
8.250000	24.936501
8.260000	24.936501
8.270000	24.936501
8.280000	24.936501
8.290000	24.936501
8.300000	24.936501
8.310000	24.936501
8.320000	24.936501
8.330000	24.936501
8.340000	24.936501
8.350000	24.936501
8.360000	24.936501
8.370000	24.936501
8.380000	24.936501
8.390000	24.936501
8.400000	24.936501
8.410000	24.936501
8.420000	24.936501
8.430000	24.936501
8.440000	24.936501
8.450000	24.936501
8.460000	24.936501
8.470000	24.936501
8.480000	24.936501
8.490000	24.936501
8.500000	24.935534
8.510000	24.935534
8.520000	24.935534
8.530000	24.935534
8.540000	24.935534
8.550000	24.935534
8.560000	24.935534
8.570000	24.935534
8.580000	24.935534
8.590000	24.935534
8.600000	24.935534
8.610000	24.935534
8.620000	24.935534
8.630000	24.935534
8.640000	24.935534
8.650000	24.935534
8.660000	24.935534
8.670000	24.935534
8.680000	24.935534
8.690000	24.935534
8.700000	24.935534
8.710000	24.935534
8.720000	24.935534
8.730000	24.935534
8.740000	24.935534
8.750000	24.935534
8.760000	24.935534
8.770000	24.935534
8.780000	24.935534
8.790000	24.935534
8.800000	24.935534
8.810000	24.935534
8.820000	24.935534
8.830000	24.935534
8.840000	24.935534
8.850000	24.935534
8.860000	24.935534
8.870000	24.935534
8.880000	24.935534
8.890000	24.935534
8.900000	24.935534
8.910000	24.935534
8.920000	24.935534
8.930000	24.935534
8.940000	24.935534
8.950000	24.935534
8.960000	24.935534
8.970000	24.935534
8.980000	24.935534
8.990000	24.935534
9.000000	24.933841
9.010000	24.933841
9.020000	24.933841
9.030000	24.933841
9.040000	24.933841
9.050000	24.933841
9.060000	24.933841
9.070000	24.933841
9.080000	24.933841
9.090000	24.933841
9.100000	24.933841
9.110000	24.933841
9.120000	24.933841
9.130000	24.933841
9.140000	24.933841
9.150000	24.933841
9.160000	24.933841
9.170000	24.933841
9.180000	24.933841
9.190000	24.933841
9.200000	24.933841
9.210000	24.933841
9.220000	24.933841
9.230000	24.933841
9.240000	24.933841
9.250000	24.933841
9.260000	24.933841
9.270000	24.933841
9.280000	24.933841
9.290000	24.933841
9.300000	24.933841
9.310000	24.933841
9.320000	24.933841
9.330000	24.933841
9.340000	24.933841
9.350000	24.933841
9.360000	24.933841
9.370000	24.933841
9.380000	24.933841
9.390000	24.933841
9.400000	24.933841
9.410000	24.933841
9.420000	24.933841
9.430000	24.933841
9.440000	24.933841
9.450000	24.933841
9.460000	24.933841
9.470000	24.933841
9.480000	24.933841
9.490000	24.933841
9.500000	24.930541
9.510000	24.930541
9.520000	24.930541
9.530000	24.930541
9.540000	24.930541
9.550000	24.930541
9.560000	24.930541
9.570000	24.930541
9.580000	24.930541
9.590000	24.930541
9.600000	24.930541
9.610000	24.930541
9.620000	24.930541
9.630000	24.930541
9.640000	24.930541
9.650000	24.930541
9.660000	24.930541
9.670000	24.930541
9.680000	24.930541
9.690000	24.930541
9.700000	24.930541
9.710000	24.930541
9.720000	24.930541
9.730000	24.930541
9.740000	24.930541
9.750000	24.930541
9.760000	24.930541
9.770000	24.930541
9.780000	24.930541
9.790000	24.930541
9.800000	24.930541
9.810000	24.930541
9.820000	24.930541
9.830000	24.930541
9.840000	24.930541
9.850000	24.930541
9.860000	24.930541
9.870000	24.930541
9.880000	24.930541
9.890000	24.930541
9.900000	24.930541
9.910000	24.930541
9.920000	24.930541
9.930000	24.930541
9.940000	24.930541
9.950000	24.930541
9.960000	24.930541
9.970000	24.930541
9.980000	24.930541
9.990000	24.930541
10.000000	24.927794
10.010000	24.927794
10.020000	24.927794
10.030000	24.927794
10.040000	24.927794
10.050000	24.927794
10.060000	24.927794
10.070000	24.927794
10.080000	24.927794
10.090000	24.927794
10.100000	24.927794
10.110000	24.927794
10.120000	24.927794
10.130000	24.927794
10.140000	24.927794
10.150000	24.927794
10.160000	24.927794
10.170000	24.927794
10.180000	24.927794
10.190000	24.927794
10.200000	24.927794
10.210000	24.927794
10.220000	24.927794
10.230000	24.927794
10.240000	24.927794
10.250000	24.927794
10.260000	24.927794
10.270000	24.927794
10.280000	24.927794
10.290000	24.927794
10.300000	24.927794
10.310000	24.927794
10.320000	24.927794
10.330000	24.927794
10.340000	24.927794
10.350000	24.927794
10.360000	24.927794
10.370000	24.927794
10.380000	24.927794
10.390000	24.927794
10.400000	24.927794
10.410000	24.927794
10.420000	24.927794
10.430000	24.927794
10.440000	24.927794
10.450000	24.927794
10.460000	24.927794
10.470000	24.927794
10.480000	24.927794
10.490000	24.927794
10.500000	24.924934
10.510000	24.924934
10.520000	24.924934
10.530000	24.924934
10.540000	24.924934
10.550000	24.924934
10.560000	24.924934
10.570000	24.924934
10.580000	24.924934
10.590000	24.924934
10.600000	24.924934
10.610000	24.924934
10.620000	24.924934
10.630000	24.924934
10.640000	24.924934
10.650000	24.924934
10.660000	24.924934
10.670000	24.924934
10.680000	24.924934
10.690000	24.924934
10.700000	24.924934
10.710000	24.924934
10.720000	24.924934
10.730000	24.924934
10.740000	24.924934
10.750000	24.924934
10.760000	24.924934
10.770000	24.924934
10.780000	24.924934
10.790000	24.924934
10.800000	24.924934
10.810000	24.924934
10.820000	24.924934
10.830000	24.924934
10.840000	24.924934
10.850000	24.924934
10.860000	24.924934
10.870000	24.924934
10.880000	24.924934
10.890000	24.924934
10.900000	24.924934
10.910000	24.924934
10.920000	24.924934
10.930000	24.924934
10.940000	24.924934
10.950000	24.924934
10.960000	24.924934
10.970000	24.924934
10.980000	24.924934
10.990000	24.924934
11.000000	24.921625
11.010000	24.921625
11.020000	24.921625
11.030000	24.921625
11.040000	24.921625
11.050000	24.921625
11.060000	24.921625
11.070000	24.921625
11.080000	24.921625
11.090000	24.921625
11.100000	24.921625
11.110000	24.921625
11.120000	24.921625
11.130000	24.921625
11.140000	24.921625
11.150000	24.921625
11.160000	24.921625
11.170000	24.921625
11.180000	24.921625
11.190000	24.921625
11.200000	24.921625
11.210000	24.921625
11.220000	24.921625
11.230000	24.921625
11.240000	24.921625
11.250000	24.921625
11.260000	24.921625
11.270000	24.921625
11.280000	24.921625
11.290000	24.921625
11.300000	24.921625
11.310000	24.921625
11.320000	24.921625
11.330000	24.921625
11.340000	24.921625
11.350000	24.921625
11.360000	24.921625
11.370000	24.921625
11.380000	24.921625
11.390000	24.921625
11.400000	24.921625
11.410000	24.921625
11.420000	24.921625
11.430000	24.921625
11.440000	24.921625
11.450000	24.921625
11.460000	24.921625
11.470000	24.921625
11.480000	24.921625
11.490000	24.921625
11.500000	24.918445
11.510000	24.918445
11.520000	24.918445
11.530000	24.918445
11.540000	24.918445
11.550000	24.918445
11.560000	24.918445
11.570000	24.918445
11.580000	24.918445
11.590000	24.918445
11.600000	24.918445
11.610000	24.918445
11.620000	24.918445
11.630000	24.918445
11.640000	24.918445
11.650000	24.918445
11.660000	24.918445
11.670000	24.918445
11.680000	24.918445
11.690000	24.918445
11.700000	24.918445
11.710000	24.918445
11.720000	24.918445
11.730000	24.918445
11.740000	24.918445
11.750000	24.918445
11.760000	24.918445
11.770000	24.918445
11.780000	24.918445
11.790000	24.918445
11.800000	24.918445
11.810000	24.918445
11.820000	24.918445
11.830000	24.918445
11.840000	24.918445
11.850000	24.918445
11.860000	24.918445
11.870000	24.918445
11.880000	24.918445
11.890000	24.918445
11.900000	24.918445
11.910000	24.918445
11.920000	24.918445
11.930000	24.918445
11.940000	24.918445
11.950000	24.918445
11.960000	24.918445
11.970000	24.918445
11.980000	24.918445
11.990000	24.918445
12.000000	24.914989
12.010000	24.914989
12.020000	24.914989
12.030000	24.914989
12.040000	24.914989
12.050000	24.914989
12.060000	24.914989
12.070000	24.914989
12.080000	24.914989
12.090000	24.914989
12.100000	24.914989
12.110000	24.914989
12.120000	24.914989
12.130000	24.914989
12.140000	24.914989
12.150000	24.914989
12.160000	24.914989
12.170000	24.914989
12.180000	24.914989
12.190000	24.914989
12.200000	24.914989
12.210000	24.914989
12.220000	24.914989
12.230000	24.914989
12.240000	24.914989
12.250000	24.914989
12.260000	24.914989
12.270000	24.914989
12.280000	24.914989
12.290000	24.914989
12.300000	24.914989
12.310000	24.914989
12.320000	24.914989
12.330000	24.914989
12.340000	24.914989
12.350000	24.914989
12.360000	24.914989
12.370000	24.914989
12.380000	24.914989
12.390000	24.914989
12.400000	24.914989
12.410000	24.914989
12.420000	24.914989
12.430000	24.914989
12.440000	24.914989
12.450000	24.914989
12.460000	24.914989
12.470000	24.914989
12.480000	24.914989
12.490000	24.914989
12.500000	24.911221
12.510000	24.911221
12.520000	24.911221
12.530000	24.911221
12.540000	24.911221
12.550000	24.911221
12.560000	24.911221
12.570000	24.911221
12.580000	24.911221
12.590000	24.911221
12.600000	24.911221
12.610000	24.911221
12.620000	24.911221
12.630000	24.911221
12.640000	24.911221
12.650000	24.911221
12.660000	24.911221
12.670000	24.911221
12.680000	24.911221
12.690000	24.911221
12.700000	24.911221
12.710000	24.911221
12.720000	24.911221
12.730000	24.911221
12.740000	24.911221
12.750000	24.911221
12.760000	24.911221
12.770000	24.911221
12.780000	24.911221
12.790000	24.911221
12.800000	24.911221
12.810000	24.911221
12.820000	24.911221
12.830000	24.911221
12.840000	24.911221
12.850000	24.911221
12.860000	24.911221
12.870000	24.911221
12.880000	24.911221
12.890000	24.911221
12.900000	24.911221
12.910000	24.911221
12.920000	24.911221
12.930000	24.911221
12.940000	24.911221
12.950000	24.911221
12.960000	24.911221
12.970000	24.911221
12.980000	24.911221
12.990000	24.911221
13.000000	24.907141
13.010000	24.907141
13.020000	24.907141
13.030000	24.907141
13.040000	24.907141
13.050000	24.907141
13.060000	24.907141
13.070000	24.907141
13.080000	24.907141
13.090000	24.907141
13.100000	24.907141
13.110000	24.907141
13.120000	24.907141
13.130000	24.907141
13.140000	24.907141
13.150000	24.907141
13.160000	24.907141
13.170000	24.907141
13.180000	24.907141
13.190000	24.907141
13.200000	24.907141
13.210000	24.907141
13.220000	24.907141
13.230000	24.907141
13.240000	24.907141
13.250000	24.907141
13.260000	24.907141
13.270000	24.907141
13.280000	24.907141
13.290000	24.907141
13.300000	24.907141
13.310000	24.907141
13.320000	24.907141
13.330000	24.907141
13.340000	24.907141
13.350000	24.907141
13.360000	24.907141
13.370000	24.907141
13.380000	24.907141
13.390000	24.907141
13.400000	24.907141
13.410000	24.907141
13.420000	24.907141
13.430000	24.907141
13.440000	24.907141
13.450000	24.907141
13.460000	24.907141
13.470000	24.907141
13.480000	24.907141
13.490000	24.907141
13.500000	24.903269
13.510000	24.903269
13.520000	24.903269
13.530000	24.903269
13.540000	24.903269
13.550000	24.903269
13.560000	24.903269
13.570000	24.903269
13.580000	24.903269
13.590000	24.903269
13.600000	24.903269
13.610000	24.903269
13.620000	24.903269
13.630000	24.903269
13.640000	24.903269
13.650000	24.903269
13.660000	24.903269
13.670000	24.903269
13.680000	24.903269
13.690000	24.903269
13.700000	24.903269
13.710000	24.903269
13.720000	24.903269
13.730000	24.903269
13.740000	24.903269
13.750000	24.903269
13.760000	24.903269
13.770000	24.903269
13.780000	24.903269
13.790000	24.903269
13.800000	24.903269
13.810000	24.903269
13.820000	24.903269
13.830000	24.903269
13.840000	24.903269
13.850000	24.903269
13.860000	24.903269
13.870000	24.903269
13.880000	24.903269
13.890000	24.903269
13.900000	24.903269
13.910000	24.903269
13.920000	24.903269
13.930000	24.903269
13.940000	24.903269
13.950000	24.903269
13.960000	24.903269
13.970000	24.903269
13.980000	24.903269
13.990000	24.903269
14.000000	24.898532
14.010000	24.898532
14.020000	24.898532
14.030000	24.898532
14.040000	24.898532
14.050000	24.898532
14.060000	24.898532
14.070000	24.898532
14.080000	24.898532
14.090000	24.898532
14.100000	24.898532
14.110000	24.898532
14.120000	24.898532
14.130000	24.898532
14.140000	24.898532
14.150000	24.898532
14.160000	24.898532
14.170000	24.898532
14.180000	24.898532
14.190000	24.898532
14.200000	24.898532
14.210000	24.898532
14.220000	24.898532
14.230000	24.898532
14.240000	24.898532
14.250000	24.898532
14.260000	24.898532
14.270000	24.898532
14.280000	24.898532
14.290000	24.898532
14.300000	24.898532
14.310000	24.898532
14.320000	24.898532
14.330000	24.898532
14.340000	24.898532
14.350000	24.898532
14.360000	24.898532
14.370000	24.898532
14.380000	24.898532
14.390000	24.898532
14.400000	24.898532
14.410000	24.898532
14.420000	24.898532
14.430000	24.898532
14.440000	24.898532
14.450000	24.898532
14.460000	24.898532
14.470000	24.898532
14.480000	24.898532
14.490000	24.898532
14.500000	24.894486
14.510000	24.894486
14.520000	24.894486
14.530000	24.894486
14.540000	24.894486
14.550000	24.894486
14.560000	24.894486
14.570000	24.894486
14.580000	24.894486
14.590000	24.894486
14.600000	24.894486
14.610000	24.894486
14.620000	24.894486
14.630000	24.894486
14.640000	24.894486
14.650000	24.894486
14.660000	24.894486
14.670000	24.894486
14.680000	24.894486
14.690000	24.894486
14.700000	24.894486
14.710000	24.894486
14.720000	24.894486
14.730000	24.894486
14.740000	24.894486
14.750000	24.894486
14.760000	24.894486
14.770000	24.894486
14.780000	24.894486
14.790000	24.894486
14.800000	24.894486
14.810000	24.894486
14.820000	24.894486
14.830000	24.894486
14.840000	24.894486
14.850000	24.894486
14.860000	24.894486
14.870000	24.894486
14.880000	24.894486
14.890000	24.894486
14.900000	24.894486
14.910000	24.894486
14.920000	24.894486
14.930000	24.894486
14.940000	24.894486
14.950000	24.894486
14.960000	24.894486
14.970000	24.894486
14.980000	24.894486
14.990000	24.894486
15.000000	24.889921
15.010000	24.889921
15.020000	24.889921
15.030000	24.889921
15.040000	24.889921
15.050000	24.889921
15.060000	24.889921
15.070000	24.889921
15.080000	24.889921
15.090000	24.889921
15.100000	24.889921
15.110000	24.889921
15.120000	24.889921
15.130000	24.889921
15.140000	24.889921
15.150000	24.889921
15.160000	24.889921
15.170000	24.889921
15.180000	24.889921
15.190000	24.889921
15.200000	24.889921
15.210000	24.889921
15.220000	24.889921
15.230000	24.889921
15.240000	24.889921
15.250000	24.889921
15.260000	24.889921
15.270000	24.889921
15.280000	24.889921
15.290000	24.889921
15.300000	24.889921
15.310000	24.889921
15.320000	24.889921
15.330000	24.889921
15.340000	24.889921
15.350000	24.889921
15.360000	24.889921
15.370000	24.889921
15.380000	24.889921
15.390000	24.889921
15.400000	24.889921
15.410000	24.889921
15.420000	24.889921
15.430000	24.889921
15.440000	24.889921
15.450000	24.889921
15.460000	24.889921
15.470000	24.889921
15.480000	24.889921
15.490000	24.889921
15.500000	24.885373
15.510000	24.885373
15.520000	24.885373
15.530000	24.885373
15.540000	24.885373
15.550000	24.885373
15.560000	24.885373
15.570000	24.885373
15.580000	24.885373
15.590000	24.885373
15.600000	24.885373
15.610000	24.885373
15.620000	24.885373
15.630000	24.885373
15.640000	24.885373
15.650000	24.885373
15.660000	24.885373
15.670000	24.885373
15.680000	24.885373
15.690000	24.885373
15.700000	24.885373
15.710000	24.885373
15.720000	24.885373
15.730000	24.885373
15.740000	24.885373
15.750000	24.885373
15.760000	24.885373
15.770000	24.885373
15.780000	24.885373
15.790000	24.885373
15.800000	24.885373
15.810000	24.885373
15.820000	24.885373
15.830000	24.885373
15.840000	24.885373
15.850000	24.885373
15.860000	24.885373
15.870000	24.885373
15.880000	24.885373
15.890000	24.885373
15.900000	24.885373
15.910000	24.885373
15.920000	24.885373
15.930000	24.885373
15.940000	24.885373
15.950000	24.885373
15.960000	24.885373
15.970000	24.885373
15.980000	24.885373
15.990000	24.885373
16.000000	24.881058
16.010000	24.881058
16.020000	24.881058
16.030000	24.881058
16.040000	24.881058
16.050000	24.881058
16.060000	24.881058
16.070000	24.881058
16.080000	24.881058
16.090000	24.881058
16.100000	24.881058
16.110000	24.881058
16.120000	24.881058
16.130000	24.881058
16.140000	24.881058
16.150000	24.881058
16.160000	24.881058
16.170000	24.881058
16.180000	24.881058
16.190000	24.881058
16.200000	24.881058
16.210000	24.881058
16.220000	24.881058
16.230000	24.881058
16.240000	24.881058
16.250000	24.881058
16.260000	24.881058
16.270000	24.881058
16.280000	24.881058
16.290000	24.881058
16.300000	24.881058
16.310000	24.881058
16.320000	24.881058
16.330000	24.881058
16.340000	24.881058
16.350000	24.881058
16.360000	24.881058
16.370000	24.881058
16.380000	24.881058
16.390000	24.881058
16.400000	24.881058
16.410000	24.881058
16.420000	24.881058
16.430000	24.881058
16.440000	24.881058
16.450000	24.881058
16.460000	24.881058
16.470000	24.881058
16.480000	24.881058
16.490000	24.881058
16.500000	24.877045
16.510000	24.877045
16.520000	24.877045
16.530000	24.877045
16.540000	24.877045
16.550000	24.877045
16.560000	24.877045
16.570000	24.877045
16.580000	24.877045
16.590000	24.877045
16.600000	24.877045
16.610000	24.877045
16.620000	24.877045
16.630000	24.877045
16.640000	24.877045
16.650000	24.877045
16.660000	24.877045
16.670000	24.877045
16.680000	24.877045
16.690000	24.877045
16.700000	24.877045
16.710000	24.877045
16.720000	24.877045
16.730000	24.877045
16.740000	24.877045
16.750000	24.877045
16.760000	24.877045
16.770000	24.877045
16.780000	24.877045
16.790000	24.877045
16.800000	24.877045
16.810000	24.877045
16.820000	24.877045
16.830000	24.877045
16.840000	24.877045
16.850000	24.877045
16.860000	24.877045
16.870000	24.877045
16.880000	24.877045
16.890000	24.877045
16.900000	24.877045
16.910000	24.877045
16.920000	24.877045
16.930000	24.877045
16.940000	24.877045
16.950000	24.877045
16.960000	24.877045
16.970000	24.877045
16.980000	24.877045
16.990000	24.877045
17.000000	24.872660
17.010000	24.872660
17.020000	24.872660
17.030000	24.872660
17.040000	24.872660
17.050000	24.872660
17.060000	24.872660
17.070000	24.872660
17.080000	24.872660
17.090000	24.872660
17.100000	24.872660
17.110000	24.872660
17.120000	24.872660
17.130000	24.872660
17.140000	24.872660
17.150000	24.872660
17.160000	24.872660
17.170000	24.872660
17.180000	24.872660
17.190000	24.872660
17.200000	24.872660
17.210000	24.872660
17.220000	24.872660
17.230000	24.872660
17.240000	24.872660
17.250000	24.872660
17.260000	24.872660
17.270000	24.872660
17.280000	24.872660
17.290000	24.872660
17.300000	24.872660
17.310000	24.872660
17.320000	24.872660
17.330000	24.872660
17.340000	24.872660
17.350000	24.872660
17.360000	24.872660
17.370000	24.872660
17.380000	24.872660
17.390000	24.872660
17.400000	24.872660
17.410000	24.872660
17.420000	24.872660
17.430000	24.872660
17.440000	24.872660
17.450000	24.872660
17.460000	24.872660
17.470000	24.872660
17.480000	24.872660
17.490000	24.872660
17.500000	24.868716
17.510000	24.868716
17.520000	24.868716
17.530000	24.868716
17.540000	24.868716
17.550000	24.868716
17.560000	24.868716
17.570000	24.868716
17.580000	24.868716
17.590000	24.868716
17.600000	24.868716
17.610000	24.868716
17.620000	24.868716
17.630000	24.868716
17.640000	24.868716
17.650000	24.868716
17.660000	24.868716
17.670000	24.868716
17.680000	24.868716
17.690000	24.868716
17.700000	24.868716
17.710000	24.868716
17.720000	24.868716
17.730000	24.868716
17.740000	24.868716
17.750000	24.868716
17.760000	24.868716
17.770000	24.868716
17.780000	24.868716
17.790000	24.868716
17.800000	24.868716
17.810000	24.868716
17.820000	24.868716
17.830000	24.868716
17.840000	24.868716
17.850000	24.868716
17.860000	24.868716
17.870000	24.868716
17.880000	24.868716
17.890000	24.868716
17.900000	24.868716
17.910000	24.868716
17.920000	24.868716
17.930000	24.868716
17.940000	24.868716
17.950000	24.868716
17.960000	24.868716
17.970000	24.868716
17.980000	24.868716
17.990000	24.868716
