LabVIEW Measurement	
Writer_Version	2
Reader_Version	2
Separator	Tab
Decimal_Separator	.
Multi_Headings	No
X_Columns	One
Time_Pref	Absolute
Operator	biomech-dyno
Date	2023/05/23
Time	16:26:31.1792034999998606061
***End_of_Header***	
	
Channels	1	
Samples	10	
Date	2023/05/23	
Time	18:12:25.5017838999996935759	
X_Dimension	Time	
X0	0.0000000000000000E+0	
Delta_X	0.010000	
***End_of_Header***		
X_Value	Untitled	Comment
0.000000	24.924087
0.010000	24.924087
0.020000	24.924087
0.030000	24.924087
0.040000	24.924087
0.050000	24.924087
0.060000	24.924087
0.070000	24.924087
0.080000	24.924087
0.090000	24.924087
0.100000	24.924087
0.110000	24.924087
0.120000	24.924087
0.130000	24.924087
0.140000	24.924087
0.150000	24.924087
0.160000	24.924087
0.170000	24.924087
0.180000	24.924087
0.190000	24.924087
0.200000	24.924087
0.210000	24.924087
0.220000	24.924087
0.230000	24.924087
0.240000	24.924087
0.250000	24.924087
0.260000	24.924087
0.270000	24.924087
0.280000	24.924087
0.290000	24.924087
0.300000	24.924087
0.310000	24.924087
0.320000	24.924087
0.330000	24.924087
0.340000	24.924087
0.350000	24.924087
0.360000	24.924087
0.370000	24.924087
0.380000	24.924087
0.390000	24.924087
0.400000	24.924087
0.410000	24.924087
0.420000	24.924087
0.430000	24.924087
0.440000	24.924087
0.450000	24.924087
0.460000	24.924087
0.470000	24.924087
0.480000	24.924087
0.490000	24.924087
0.500000	24.937788
0.510000	24.937788
0.520000	24.937788
0.530000	24.937788
0.540000	24.937788
0.550000	24.937788
0.560000	24.937788
0.570000	24.937788
0.580000	24.937788
0.590000	24.937788
0.600000	24.937788
0.610000	24.937788
0.620000	24.937788
0.630000	24.937788
0.640000	24.937788
0.650000	24.937788
0.660000	24.937788
0.670000	24.937788
0.680000	24.937788
0.690000	24.937788
0.700000	24.937788
0.710000	24.937788
0.720000	24.937788
0.730000	24.937788
0.740000	24.937788
0.750000	24.937788
0.760000	24.937788
0.770000	24.937788
0.780000	24.937788
0.790000	24.937788
0.800000	24.937788
0.810000	24.937788
0.820000	24.937788
0.830000	24.937788
0.840000	24.937788
0.850000	24.937788
0.860000	24.937788
0.870000	24.937788
0.880000	24.937788
0.890000	24.937788
0.900000	24.937788
0.910000	24.937788
0.920000	24.937788
0.930000	24.937788
0.940000	24.937788
0.950000	24.937788
0.960000	24.937788
0.970000	24.937788
0.980000	24.937788
0.990000	24.937788
1.000000	25.047352
1.010000	25.047352
1.020000	25.047352
1.030000	25.047352
1.040000	25.047352
1.050000	25.047352
1.060000	25.047352
1.070000	25.047352
1.080000	25.047352
1.090000	25.047352
1.100000	25.047352
1.110000	25.047352
1.120000	25.047352
1.130000	25.047352
1.140000	25.047352
1.150000	25.047352
1.160000	25.047352
1.170000	25.047352
1.180000	25.047352
1.190000	25.047352
1.200000	25.047352
1.210000	25.047352
1.220000	25.047352
1.230000	25.047352
1.240000	25.047352
1.250000	25.047352
1.260000	25.047352
1.270000	25.047352
1.280000	25.047352
1.290000	25.047352
1.300000	25.047352
1.310000	25.047352
1.320000	25.047352
1.330000	25.047352
1.340000	25.047352
1.350000	25.047352
1.360000	25.047352
1.370000	25.047352
1.380000	25.047352
1.390000	25.047352
1.400000	25.047352
1.410000	25.047352
1.420000	25.047352
1.430000	25.047352
1.440000	25.047352
1.450000	25.047352
1.460000	25.047352
1.470000	25.047352
1.480000	25.047352
1.490000	25.047352
1.500000	25.303745
1.510000	25.303745
1.520000	25.303745
1.530000	25.303745
1.540000	25.303745
1.550000	25.303745
1.560000	25.303745
1.570000	25.303745
1.580000	25.303745
1.590000	25.303745
1.600000	25.303745
1.610000	25.303745
1.620000	25.303745
1.630000	25.303745
1.640000	25.303745
1.650000	25.303745
1.660000	25.303745
1.670000	25.303745
1.680000	25.303745
1.690000	25.303745
1.700000	25.303745
1.710000	25.303745
1.720000	25.303745
1.730000	25.303745
1.740000	25.303745
1.750000	25.303745
1.760000	25.303745
1.770000	25.303745
1.780000	25.303745
1.790000	25.303745
1.800000	25.303745
1.810000	25.303745
1.820000	25.303745
1.830000	25.303745
1.840000	25.303745
1.850000	25.303745
1.860000	25.303745
1.870000	25.303745
1.880000	25.303745
1.890000	25.303745
1.900000	25.303745
1.910000	25.303745
1.920000	25.303745
1.930000	25.303745
1.940000	25.303745
1.950000	25.303745
1.960000	25.303745
1.970000	25.303745
1.980000	25.303745
1.990000	25.303745
2.000000	25.678798
2.010000	25.678798
2.020000	25.678798
2.030000	25.678798
2.040000	25.678798
2.050000	25.678798
2.060000	25.678798
2.070000	25.678798
2.080000	25.678798
2.090000	25.678798
2.100000	25.678798
2.110000	25.678798
2.120000	25.678798
2.130000	25.678798
2.140000	25.678798
2.150000	25.678798
2.160000	25.678798
2.170000	25.678798
2.180000	25.678798
2.190000	25.678798
2.200000	25.678798
2.210000	25.678798
2.220000	25.678798
2.230000	25.678798
2.240000	25.678798
2.250000	25.678798
2.260000	25.678798
2.270000	25.678798
2.280000	25.678798
2.290000	25.678798
2.300000	25.678798
2.310000	25.678798
2.320000	25.678798
2.330000	25.678798
2.340000	25.678798
2.350000	25.678798
2.360000	25.678798
2.370000	25.678798
2.380000	25.678798
2.390000	25.678798
2.400000	25.678798
2.410000	25.678798
2.420000	25.678798
2.430000	25.678798
2.440000	25.678798
2.450000	25.678798
2.460000	25.678798
2.470000	25.678798
2.480000	25.678798
2.490000	25.678798
2.500000	26.141991
2.510000	26.141991
2.520000	26.141991
2.530000	26.141991
2.540000	26.141991
2.550000	26.141991
2.560000	26.141991
2.570000	26.141991
2.580000	26.141991
2.590000	26.141991
2.600000	26.141991
2.610000	26.141991
2.620000	26.141991
2.630000	26.141991
2.640000	26.141991
2.650000	26.141991
2.660000	26.141991
2.670000	26.141991
2.680000	26.141991
2.690000	26.141991
2.700000	26.141991
2.710000	26.141991
2.720000	26.141991
2.730000	26.141991
2.740000	26.141991
2.750000	26.141991
2.760000	26.141991
2.770000	26.141991
2.780000	26.141991
2.790000	26.141991
2.800000	26.141991
2.810000	26.141991
2.820000	26.141991
2.830000	26.141991
2.840000	26.141991
2.850000	26.141991
2.860000	26.141991
2.870000	26.141991
2.880000	26.141991
2.890000	26.141991
2.900000	26.141991
2.910000	26.141991
2.920000	26.141991
2.930000	26.141991
2.940000	26.141991
2.950000	26.141991
2.960000	26.141991
2.970000	26.141991
2.980000	26.141991
2.990000	26.141991
3.000000	26.668895
3.010000	26.668895
3.020000	26.668895
3.030000	26.668895
3.040000	26.668895
3.050000	26.668895
3.060000	26.668895
3.070000	26.668895
3.080000	26.668895
3.090000	26.668895
3.100000	26.668895
3.110000	26.668895
3.120000	26.668895
3.130000	26.668895
3.140000	26.668895
3.150000	26.668895
3.160000	26.668895
3.170000	26.668895
3.180000	26.668895
3.190000	26.668895
3.200000	26.668895
3.210000	26.668895
3.220000	26.668895
3.230000	26.668895
3.240000	26.668895
3.250000	26.668895
3.260000	26.668895
3.270000	26.668895
3.280000	26.668895
3.290000	26.668895
3.300000	26.668895
3.310000	26.668895
3.320000	26.668895
3.330000	26.668895
3.340000	26.668895
3.350000	26.668895
3.360000	26.668895
3.370000	26.668895
3.380000	26.668895
3.390000	26.668895
3.400000	26.668895
3.410000	26.668895
3.420000	26.668895
3.430000	26.668895
3.440000	26.668895
3.450000	26.668895
3.460000	26.668895
3.470000	26.668895
3.480000	26.668895
3.490000	26.668895
3.500000	27.212581
3.510000	27.212581
3.520000	27.212581
3.530000	27.212581
3.540000	27.212581
3.550000	27.212581
3.560000	27.212581
3.570000	27.212581
3.580000	27.212581
3.590000	27.212581
3.600000	27.212581
3.610000	27.212581
3.620000	27.212581
3.630000	27.212581
3.640000	27.212581
3.650000	27.212581
3.660000	27.212581
3.670000	27.212581
3.680000	27.212581
3.690000	27.212581
3.700000	27.212581
3.710000	27.212581
3.720000	27.212581
3.730000	27.212581
3.740000	27.212581
3.750000	27.212581
3.760000	27.212581
3.770000	27.212581
3.780000	27.212581
3.790000	27.212581
3.800000	27.212581
3.810000	27.212581
3.820000	27.212581
3.830000	27.212581
3.840000	27.212581
3.850000	27.212581
3.860000	27.212581
3.870000	27.212581
3.880000	27.212581
3.890000	27.212581
3.900000	27.212581
3.910000	27.212581
3.920000	27.212581
3.930000	27.212581
3.940000	27.212581
3.950000	27.212581
3.960000	27.212581
3.970000	27.212581
3.980000	27.212581
3.990000	27.212581
4.000000	27.669686
4.010000	27.669686
4.020000	27.669686
4.030000	27.669686
4.040000	27.669686
4.050000	27.669686
4.060000	27.669686
4.070000	27.669686
4.080000	27.669686
4.090000	27.669686
4.100000	27.669686
4.110000	27.669686
4.120000	27.669686
4.130000	27.669686
4.140000	27.669686
4.150000	27.669686
4.160000	27.669686
4.170000	27.669686
4.180000	27.669686
4.190000	27.669686
4.200000	27.669686
4.210000	27.669686
4.220000	27.669686
4.230000	27.669686
4.240000	27.669686
4.250000	27.669686
4.260000	27.669686
4.270000	27.669686
4.280000	27.669686
4.290000	27.669686
4.300000	27.669686
4.310000	27.669686
4.320000	27.669686
4.330000	27.669686
4.340000	27.669686
4.350000	27.669686
4.360000	27.669686
4.370000	27.669686
4.380000	27.669686
4.390000	27.669686
4.400000	27.669686
4.410000	27.669686
4.420000	27.669686
4.430000	27.669686
4.440000	27.669686
4.450000	27.669686
4.460000	27.669686
4.470000	27.669686
4.480000	27.669686
4.490000	27.669686
4.500000	28.009687
4.510000	28.009687
4.520000	28.009687
4.530000	28.009687
4.540000	28.009687
4.550000	28.009687
4.560000	28.009687
4.570000	28.009687
4.580000	28.009687
4.590000	28.009687
4.600000	28.009687
4.610000	28.009687
4.620000	28.009687
4.630000	28.009687
4.640000	28.009687
4.650000	28.009687
4.660000	28.009687
4.670000	28.009687
4.680000	28.009687
4.690000	28.009687
4.700000	28.009687
4.710000	28.009687
4.720000	28.009687
4.730000	28.009687
4.740000	28.009687
4.750000	28.009687
4.760000	28.009687
4.770000	28.009687
4.780000	28.009687
4.790000	28.009687
4.800000	28.009687
4.810000	28.009687
4.820000	28.009687
4.830000	28.009687
4.840000	28.009687
4.850000	28.009687
4.860000	28.009687
4.870000	28.009687
4.880000	28.009687
4.890000	28.009687
4.900000	28.009687
4.910000	28.009687
4.920000	28.009687
4.930000	28.009687
4.940000	28.009687
4.950000	28.009687
4.960000	28.009687
4.970000	28.009687
4.980000	28.009687
4.990000	28.009687
5.000000	28.249864
5.010000	28.249864
5.020000	28.249864
5.030000	28.249864
5.040000	28.249864
5.050000	28.249864
5.060000	28.249864
5.070000	28.249864
5.080000	28.249864
5.090000	28.249864
5.100000	28.249864
5.110000	28.249864
5.120000	28.249864
5.130000	28.249864
5.140000	28.249864
5.150000	28.249864
5.160000	28.249864
5.170000	28.249864
5.180000	28.249864
5.190000	28.249864
5.200000	28.249864
5.210000	28.249864
5.220000	28.249864
5.230000	28.249864
5.240000	28.249864
5.250000	28.249864
5.260000	28.249864
5.270000	28.249864
5.280000	28.249864
5.290000	28.249864
5.300000	28.249864
5.310000	28.249864
5.320000	28.249864
5.330000	28.249864
5.340000	28.249864
5.350000	28.249864
5.360000	28.249864
5.370000	28.249864
5.380000	28.249864
5.390000	28.249864
5.400000	28.249864
5.410000	28.249864
5.420000	28.249864
5.430000	28.249864
5.440000	28.249864
5.450000	28.249864
5.460000	28.249864
5.470000	28.249864
5.480000	28.249864
5.490000	28.249864
5.500000	28.415864
5.510000	28.415864
5.520000	28.415864
5.530000	28.415864
5.540000	28.415864
5.550000	28.415864
5.560000	28.415864
5.570000	28.415864
5.580000	28.415864
5.590000	28.415864
5.600000	28.415864
5.610000	28.415864
5.620000	28.415864
5.630000	28.415864
5.640000	28.415864
5.650000	28.415864
5.660000	28.415864
5.670000	28.415864
5.680000	28.415864
5.690000	28.415864
5.700000	28.415864
5.710000	28.415864
5.720000	28.415864
5.730000	28.415864
5.740000	28.415864
5.750000	28.415864
5.760000	28.415864
5.770000	28.415864
5.780000	28.415864
5.790000	28.415864
5.800000	28.415864
5.810000	28.415864
5.820000	28.415864
5.830000	28.415864
5.840000	28.415864
5.850000	28.415864
5.860000	28.415864
5.870000	28.415864
5.880000	28.415864
5.890000	28.415864
5.900000	28.415864
5.910000	28.415864
5.920000	28.415864
5.930000	28.415864
5.940000	28.415864
5.950000	28.415864
5.960000	28.415864
5.970000	28.415864
5.980000	28.415864
5.990000	28.415864
6.000000	28.522293
6.010000	28.522293
6.020000	28.522293
6.030000	28.522293
6.040000	28.522293
6.050000	28.522293
6.060000	28.522293
6.070000	28.522293
6.080000	28.522293
6.090000	28.522293
6.100000	28.522293
6.110000	28.522293
6.120000	28.522293
6.130000	28.522293
6.140000	28.522293
6.150000	28.522293
6.160000	28.522293
6.170000	28.522293
6.180000	28.522293
6.190000	28.522293
6.200000	28.522293
6.210000	28.522293
6.220000	28.522293
6.230000	28.522293
6.240000	28.522293
6.250000	28.522293
6.260000	28.522293
6.270000	28.522293
6.280000	28.522293
6.290000	28.522293
6.300000	28.522293
6.310000	28.522293
6.320000	28.522293
6.330000	28.522293
6.340000	28.522293
6.350000	28.522293
6.360000	28.522293
6.370000	28.522293
6.380000	28.522293
6.390000	28.522293
6.400000	28.522293
6.410000	28.522293
6.420000	28.522293
6.430000	28.522293
6.440000	28.522293
6.450000	28.522293
6.460000	28.522293
6.470000	28.522293
6.480000	28.522293
6.490000	28.522293
6.500000	28.583393
6.510000	28.583393
6.520000	28.583393
6.530000	28.583393
6.540000	28.583393
6.550000	28.583393
6.560000	28.583393
6.570000	28.583393
6.580000	28.583393
6.590000	28.583393
6.600000	28.583393
6.610000	28.583393
6.620000	28.583393
6.630000	28.583393
6.640000	28.583393
6.650000	28.583393
6.660000	28.583393
6.670000	28.583393
6.680000	28.583393
6.690000	28.583393
6.700000	28.583393
6.710000	28.583393
6.720000	28.583393
6.730000	28.583393
6.740000	28.583393
6.750000	28.583393
6.760000	28.583393
6.770000	28.583393
6.780000	28.583393
6.790000	28.583393
6.800000	28.583393
6.810000	28.583393
6.820000	28.583393
6.830000	28.583393
6.840000	28.583393
6.850000	28.583393
6.860000	28.583393
6.870000	28.583393
6.880000	28.583393
6.890000	28.583393
6.900000	28.583393
6.910000	28.583393
6.920000	28.583393
6.930000	28.583393
6.940000	28.583393
6.950000	28.583393
6.960000	28.583393
6.970000	28.583393
6.980000	28.583393
6.990000	28.583393
7.000000	28.610335
7.010000	28.610335
7.020000	28.610335
7.030000	28.610335
7.040000	28.610335
7.050000	28.610335
7.060000	28.610335
7.070000	28.610335
7.080000	28.610335
7.090000	28.610335
7.100000	28.610335
7.110000	28.610335
7.120000	28.610335
7.130000	28.610335
7.140000	28.610335
7.150000	28.610335
7.160000	28.610335
7.170000	28.610335
7.180000	28.610335
7.190000	28.610335
7.200000	28.610335
7.210000	28.610335
7.220000	28.610335
7.230000	28.610335
7.240000	28.610335
7.250000	28.610335
7.260000	28.610335
7.270000	28.610335
7.280000	28.610335
7.290000	28.610335
7.300000	28.610335
7.310000	28.610335
7.320000	28.610335
7.330000	28.610335
7.340000	28.610335
7.350000	28.610335
7.360000	28.610335
7.370000	28.610335
7.380000	28.610335
7.390000	28.610335
7.400000	28.610335
7.410000	28.610335
7.420000	28.610335
7.430000	28.610335
7.440000	28.610335
7.450000	28.610335
7.460000	28.610335
7.470000	28.610335
7.480000	28.610335
7.490000	28.610335
7.500000	28.611589
7.510000	28.611589
7.520000	28.611589
7.530000	28.611589
7.540000	28.611589
7.550000	28.611589
7.560000	28.611589
7.570000	28.611589
7.580000	28.611589
7.590000	28.611589
7.600000	28.611589
7.610000	28.611589
7.620000	28.611589
7.630000	28.611589
7.640000	28.611589
7.650000	28.611589
7.660000	28.611589
7.670000	28.611589
7.680000	28.611589
7.690000	28.611589
7.700000	28.611589
7.710000	28.611589
7.720000	28.611589
7.730000	28.611589
7.740000	28.611589
7.750000	28.611589
7.760000	28.611589
7.770000	28.611589
7.780000	28.611589
7.790000	28.611589
7.800000	28.611589
7.810000	28.611589
7.820000	28.611589
7.830000	28.611589
7.840000	28.611589
7.850000	28.611589
7.860000	28.611589
7.870000	28.611589
7.880000	28.611589
7.890000	28.611589
7.900000	28.611589
7.910000	28.611589
7.920000	28.611589
7.930000	28.611589
7.940000	28.611589
7.950000	28.611589
7.960000	28.611589
7.970000	28.611589
7.980000	28.611589
7.990000	28.611589
8.000000	28.595043
8.010000	28.595043
8.020000	28.595043
8.030000	28.595043
8.040000	28.595043
8.050000	28.595043
8.060000	28.595043
8.070000	28.595043
8.080000	28.595043
8.090000	28.595043
8.100000	28.595043
8.110000	28.595043
8.120000	28.595043
8.130000	28.595043
8.140000	28.595043
8.150000	28.595043
8.160000	28.595043
8.170000	28.595043
8.180000	28.595043
8.190000	28.595043
8.200000	28.595043
8.210000	28.595043
8.220000	28.595043
8.230000	28.595043
8.240000	28.595043
8.250000	28.595043
8.260000	28.595043
8.270000	28.595043
8.280000	28.595043
8.290000	28.595043
8.300000	28.595043
8.310000	28.595043
8.320000	28.595043
8.330000	28.595043
8.340000	28.595043
8.350000	28.595043
8.360000	28.595043
8.370000	28.595043
8.380000	28.595043
8.390000	28.595043
8.400000	28.595043
8.410000	28.595043
8.420000	28.595043
8.430000	28.595043
8.440000	28.595043
8.450000	28.595043
8.460000	28.595043
8.470000	28.595043
8.480000	28.595043
8.490000	28.595043
8.500000	28.566211
8.510000	28.566211
8.520000	28.566211
8.530000	28.566211
8.540000	28.566211
8.550000	28.566211
8.560000	28.566211
8.570000	28.566211
8.580000	28.566211
8.590000	28.566211
8.600000	28.566211
8.610000	28.566211
8.620000	28.566211
8.630000	28.566211
8.640000	28.566211
8.650000	28.566211
8.660000	28.566211
8.670000	28.566211
8.680000	28.566211
8.690000	28.566211
8.700000	28.566211
8.710000	28.566211
8.720000	28.566211
8.730000	28.566211
8.740000	28.566211
8.750000	28.566211
8.760000	28.566211
8.770000	28.566211
8.780000	28.566211
8.790000	28.566211
8.800000	28.566211
8.810000	28.566211
8.820000	28.566211
8.830000	28.566211
8.840000	28.566211
8.850000	28.566211
8.860000	28.566211
8.870000	28.566211
8.880000	28.566211
8.890000	28.566211
8.900000	28.566211
8.910000	28.566211
8.920000	28.566211
8.930000	28.566211
8.940000	28.566211
8.950000	28.566211
8.960000	28.566211
8.970000	28.566211
8.980000	28.566211
8.990000	28.566211
9.000000	28.524999
9.010000	28.524999
9.020000	28.524999
9.030000	28.524999
9.040000	28.524999
9.050000	28.524999
9.060000	28.524999
9.070000	28.524999
9.080000	28.524999
9.090000	28.524999
9.100000	28.524999
9.110000	28.524999
9.120000	28.524999
9.130000	28.524999
9.140000	28.524999
9.150000	28.524999
9.160000	28.524999
9.170000	28.524999
9.180000	28.524999
9.190000	28.524999
9.200000	28.524999
9.210000	28.524999
9.220000	28.524999
9.230000	28.524999
9.240000	28.524999
9.250000	28.524999
9.260000	28.524999
9.270000	28.524999
9.280000	28.524999
9.290000	28.524999
9.300000	28.524999
9.310000	28.524999
9.320000	28.524999
9.330000	28.524999
9.340000	28.524999
9.350000	28.524999
9.360000	28.524999
9.370000	28.524999
9.380000	28.524999
9.390000	28.524999
9.400000	28.524999
9.410000	28.524999
9.420000	28.524999
9.430000	28.524999
9.440000	28.524999
9.450000	28.524999
9.460000	28.524999
9.470000	28.524999
9.480000	28.524999
9.490000	28.524999
9.500000	28.474914
9.510000	28.474914
9.520000	28.474914
9.530000	28.474914
9.540000	28.474914
9.550000	28.474914
9.560000	28.474914
9.570000	28.474914
9.580000	28.474914
9.590000	28.474914
9.600000	28.474914
9.610000	28.474914
9.620000	28.474914
9.630000	28.474914
9.640000	28.474914
9.650000	28.474914
9.660000	28.474914
9.670000	28.474914
9.680000	28.474914
9.690000	28.474914
9.700000	28.474914
9.710000	28.474914
9.720000	28.474914
9.730000	28.474914
9.740000	28.474914
9.750000	28.474914
9.760000	28.474914
9.770000	28.474914
9.780000	28.474914
9.790000	28.474914
9.800000	28.474914
9.810000	28.474914
9.820000	28.474914
9.830000	28.474914
9.840000	28.474914
9.850000	28.474914
9.860000	28.474914
9.870000	28.474914
9.880000	28.474914
9.890000	28.474914
9.900000	28.474914
9.910000	28.474914
9.920000	28.474914
9.930000	28.474914
9.940000	28.474914
9.950000	28.474914
9.960000	28.474914
9.970000	28.474914
9.980000	28.474914
9.990000	28.474914
10.000000	28.419658
10.010000	28.419658
10.020000	28.419658
10.030000	28.419658
10.040000	28.419658
10.050000	28.419658
10.060000	28.419658
10.070000	28.419658
10.080000	28.419658
10.090000	28.419658
10.100000	28.419658
10.110000	28.419658
10.120000	28.419658
10.130000	28.419658
10.140000	28.419658
10.150000	28.419658
10.160000	28.419658
10.170000	28.419658
10.180000	28.419658
10.190000	28.419658
10.200000	28.419658
10.210000	28.419658
10.220000	28.419658
10.230000	28.419658
10.240000	28.419658
10.250000	28.419658
10.260000	28.419658
10.270000	28.419658
10.280000	28.419658
10.290000	28.419658
10.300000	28.419658
10.310000	28.419658
10.320000	28.419658
10.330000	28.419658
10.340000	28.419658
10.350000	28.419658
10.360000	28.419658
10.370000	28.419658
10.380000	28.419658
10.390000	28.419658
10.400000	28.419658
10.410000	28.419658
10.420000	28.419658
10.430000	28.419658
10.440000	28.419658
10.450000	28.419658
10.460000	28.419658
10.470000	28.419658
10.480000	28.419658
10.490000	28.419658
10.500000	28.360913
10.510000	28.360913
10.520000	28.360913
10.530000	28.360913
10.540000	28.360913
10.550000	28.360913
10.560000	28.360913
10.570000	28.360913
10.580000	28.360913
10.590000	28.360913
10.600000	28.360913
10.610000	28.360913
10.620000	28.360913
10.630000	28.360913
10.640000	28.360913
10.650000	28.360913
10.660000	28.360913
10.670000	28.360913
10.680000	28.360913
10.690000	28.360913
10.700000	28.360913
10.710000	28.360913
10.720000	28.360913
10.730000	28.360913
10.740000	28.360913
10.750000	28.360913
10.760000	28.360913
10.770000	28.360913
10.780000	28.360913
10.790000	28.360913
10.800000	28.360913
10.810000	28.360913
10.820000	28.360913
10.830000	28.360913
10.840000	28.360913
10.850000	28.360913
10.860000	28.360913
10.870000	28.360913
10.880000	28.360913
10.890000	28.360913
10.900000	28.360913
10.910000	28.360913
10.920000	28.360913
10.930000	28.360913
10.940000	28.360913
10.950000	28.360913
10.960000	28.360913
10.970000	28.360913
10.980000	28.360913
10.990000	28.360913
11.000000	28.297769
11.010000	28.297769
11.020000	28.297769
11.030000	28.297769
11.040000	28.297769
11.050000	28.297769
11.060000	28.297769
11.070000	28.297769
11.080000	28.297769
11.090000	28.297769
11.100000	28.297769
11.110000	28.297769
11.120000	28.297769
11.130000	28.297769
11.140000	28.297769
11.150000	28.297769
11.160000	28.297769
11.170000	28.297769
11.180000	28.297769
11.190000	28.297769
11.200000	28.297769
11.210000	28.297769
11.220000	28.297769
11.230000	28.297769
11.240000	28.297769
11.250000	28.297769
11.260000	28.297769
11.270000	28.297769
11.280000	28.297769
11.290000	28.297769
11.300000	28.297769
11.310000	28.297769
11.320000	28.297769
11.330000	28.297769
11.340000	28.297769
11.350000	28.297769
11.360000	28.297769
11.370000	28.297769
11.380000	28.297769
11.390000	28.297769
11.400000	28.297769
11.410000	28.297769
11.420000	28.297769
11.430000	28.297769
11.440000	28.297769
11.450000	28.297769
11.460000	28.297769
11.470000	28.297769
11.480000	28.297769
11.490000	28.297769
11.500000	28.232861
11.510000	28.232861
11.520000	28.232861
11.530000	28.232861
11.540000	28.232861
11.550000	28.232861
11.560000	28.232861
11.570000	28.232861
11.580000	28.232861
11.590000	28.232861
11.600000	28.232861
11.610000	28.232861
11.620000	28.232861
11.630000	28.232861
11.640000	28.232861
11.650000	28.232861
11.660000	28.232861
11.670000	28.232861
11.680000	28.232861
11.690000	28.232861
11.700000	28.232861
11.710000	28.232861
11.720000	28.232861
11.730000	28.232861
11.740000	28.232861
11.750000	28.232861
11.760000	28.232861
11.770000	28.232861
11.780000	28.232861
11.790000	28.232861
11.800000	28.232861
11.810000	28.232861
11.820000	28.232861
11.830000	28.232861
11.840000	28.232861
11.850000	28.232861
11.860000	28.232861
11.870000	28.232861
11.880000	28.232861
11.890000	28.232861
11.900000	28.232861
11.910000	28.232861
11.920000	28.232861
11.930000	28.232861
11.940000	28.232861
11.950000	28.232861
11.960000	28.232861
11.970000	28.232861
11.980000	28.232861
11.990000	28.232861
12.000000	28.166804
12.010000	28.166804
12.020000	28.166804
12.030000	28.166804
12.040000	28.166804
12.050000	28.166804
12.060000	28.166804
12.070000	28.166804
12.080000	28.166804
12.090000	28.166804
12.100000	28.166804
12.110000	28.166804
12.120000	28.166804
12.130000	28.166804
12.140000	28.166804
12.150000	28.166804
12.160000	28.166804
12.170000	28.166804
12.180000	28.166804
12.190000	28.166804
12.200000	28.166804
12.210000	28.166804
12.220000	28.166804
12.230000	28.166804
12.240000	28.166804
12.250000	28.166804
12.260000	28.166804
12.270000	28.166804
12.280000	28.166804
12.290000	28.166804
12.300000	28.166804
12.310000	28.166804
12.320000	28.166804
12.330000	28.166804
12.340000	28.166804
12.350000	28.166804
12.360000	28.166804
12.370000	28.166804
12.380000	28.166804
12.390000	28.166804
12.400000	28.166804
12.410000	28.166804
12.420000	28.166804
12.430000	28.166804
12.440000	28.166804
12.450000	28.166804
12.460000	28.166804
12.470000	28.166804
12.480000	28.166804
12.490000	28.166804
12.500000	28.100213
12.510000	28.100213
12.520000	28.100213
12.530000	28.100213
12.540000	28.100213
12.550000	28.100213
12.560000	28.100213
12.570000	28.100213
12.580000	28.100213
12.590000	28.100213
12.600000	28.100213
12.610000	28.100213
12.620000	28.100213
12.630000	28.100213
12.640000	28.100213
12.650000	28.100213
12.660000	28.100213
12.670000	28.100213
12.680000	28.100213
12.690000	28.100213
12.700000	28.100213
12.710000	28.100213
12.720000	28.100213
12.730000	28.100213
12.740000	28.100213
12.750000	28.100213
12.760000	28.100213
12.770000	28.100213
12.780000	28.100213
12.790000	28.100213
12.800000	28.100213
12.810000	28.100213
12.820000	28.100213
12.830000	28.100213
12.840000	28.100213
12.850000	28.100213
12.860000	28.100213
12.870000	28.100213
12.880000	28.100213
12.890000	28.100213
12.900000	28.100213
12.910000	28.100213
12.920000	28.100213
12.930000	28.100213
12.940000	28.100213
12.950000	28.100213
12.960000	28.100213
12.970000	28.100213
12.980000	28.100213
12.990000	28.100213
13.000000	28.033735
13.010000	28.033735
13.020000	28.033735
13.030000	28.033735
13.040000	28.033735
13.050000	28.033735
13.060000	28.033735
13.070000	28.033735
13.080000	28.033735
13.090000	28.033735
13.100000	28.033735
13.110000	28.033735
13.120000	28.033735
13.130000	28.033735
13.140000	28.033735
13.150000	28.033735
13.160000	28.033735
13.170000	28.033735
13.180000	28.033735
13.190000	28.033735
13.200000	28.033735
13.210000	28.033735
13.220000	28.033735
13.230000	28.033735
13.240000	28.033735
13.250000	28.033735
13.260000	28.033735
13.270000	28.033735
13.280000	28.033735
13.290000	28.033735
13.300000	28.033735
13.310000	28.033735
13.320000	28.033735
13.330000	28.033735
13.340000	28.033735
13.350000	28.033735
13.360000	28.033735
13.370000	28.033735
13.380000	28.033735
13.390000	28.033735
13.400000	28.033735
13.410000	28.033735
13.420000	28.033735
13.430000	28.033735
13.440000	28.033735
13.450000	28.033735
13.460000	28.033735
13.470000	28.033735
13.480000	28.033735
13.490000	28.033735
13.500000	27.967232
13.510000	27.967232
13.520000	27.967232
13.530000	27.967232
13.540000	27.967232
13.550000	27.967232
13.560000	27.967232
13.570000	27.967232
13.580000	27.967232
13.590000	27.967232
13.600000	27.967232
13.610000	27.967232
13.620000	27.967232
13.630000	27.967232
13.640000	27.967232
13.650000	27.967232
13.660000	27.967232
13.670000	27.967232
13.680000	27.967232
13.690000	27.967232
13.700000	27.967232
13.710000	27.967232
13.720000	27.967232
13.730000	27.967232
13.740000	27.967232
13.750000	27.967232
13.760000	27.967232
13.770000	27.967232
13.780000	27.967232
13.790000	27.967232
13.800000	27.967232
13.810000	27.967232
13.820000	27.967232
13.830000	27.967232
13.840000	27.967232
13.850000	27.967232
13.860000	27.967232
13.870000	27.967232
13.880000	27.967232
13.890000	27.967232
13.900000	27.967232
13.910000	27.967232
13.920000	27.967232
13.930000	27.967232
13.940000	27.967232
13.950000	27.967232
13.960000	27.967232
13.970000	27.967232
13.980000	27.967232
13.990000	27.967232
14.000000	27.901976
14.010000	27.901976
14.020000	27.901976
14.030000	27.901976
14.040000	27.901976
14.050000	27.901976
14.060000	27.901976
14.070000	27.901976
14.080000	27.901976
14.090000	27.901976
14.100000	27.901976
14.110000	27.901976
14.120000	27.901976
14.130000	27.901976
14.140000	27.901976
14.150000	27.901976
14.160000	27.901976
14.170000	27.901976
14.180000	27.901976
14.190000	27.901976
14.200000	27.901976
14.210000	27.901976
14.220000	27.901976
14.230000	27.901976
14.240000	27.901976
14.250000	27.901976
14.260000	27.901976
14.270000	27.901976
14.280000	27.901976
14.290000	27.901976
14.300000	27.901976
14.310000	27.901976
14.320000	27.901976
14.330000	27.901976
14.340000	27.901976
14.350000	27.901976
14.360000	27.901976
14.370000	27.901976
14.380000	27.901976
14.390000	27.901976
14.400000	27.901976
14.410000	27.901976
14.420000	27.901976
14.430000	27.901976
14.440000	27.901976
14.450000	27.901976
14.460000	27.901976
14.470000	27.901976
14.480000	27.901976
14.490000	27.901976
14.500000	27.837766
14.510000	27.837766
14.520000	27.837766
14.530000	27.837766
14.540000	27.837766
14.550000	27.837766
14.560000	27.837766
14.570000	27.837766
14.580000	27.837766
14.590000	27.837766
14.600000	27.837766
14.610000	27.837766
14.620000	27.837766
14.630000	27.837766
14.640000	27.837766
14.650000	27.837766
14.660000	27.837766
14.670000	27.837766
14.680000	27.837766
14.690000	27.837766
14.700000	27.837766
14.710000	27.837766
14.720000	27.837766
14.730000	27.837766
14.740000	27.837766
14.750000	27.837766
14.760000	27.837766
14.770000	27.837766
14.780000	27.837766
14.790000	27.837766
14.800000	27.837766
14.810000	27.837766
14.820000	27.837766
14.830000	27.837766
14.840000	27.837766
14.850000	27.837766
14.860000	27.837766
14.870000	27.837766
14.880000	27.837766
14.890000	27.837766
14.900000	27.837766
14.910000	27.837766
14.920000	27.837766
14.930000	27.837766
14.940000	27.837766
14.950000	27.837766
14.960000	27.837766
14.970000	27.837766
14.980000	27.837766
14.990000	27.837766
15.000000	27.774581
15.010000	27.774581
15.020000	27.774581
15.030000	27.774581
15.040000	27.774581
15.050000	27.774581
15.060000	27.774581
15.070000	27.774581
15.080000	27.774581
15.090000	27.774581
15.100000	27.774581
15.110000	27.774581
15.120000	27.774581
15.130000	27.774581
15.140000	27.774581
15.150000	27.774581
15.160000	27.774581
15.170000	27.774581
15.180000	27.774581
15.190000	27.774581
15.200000	27.774581
15.210000	27.774581
15.220000	27.774581
15.230000	27.774581
15.240000	27.774581
15.250000	27.774581
15.260000	27.774581
15.270000	27.774581
15.280000	27.774581
15.290000	27.774581
15.300000	27.774581
15.310000	27.774581
15.320000	27.774581
15.330000	27.774581
15.340000	27.774581
15.350000	27.774581
15.360000	27.774581
15.370000	27.774581
15.380000	27.774581
15.390000	27.774581
15.400000	27.774581
15.410000	27.774581
15.420000	27.774581
15.430000	27.774581
15.440000	27.774581
15.450000	27.774581
15.460000	27.774581
15.470000	27.774581
15.480000	27.774581
15.490000	27.774581
15.500000	27.712876
15.510000	27.712876
15.520000	27.712876
15.530000	27.712876
15.540000	27.712876
15.550000	27.712876
15.560000	27.712876
15.570000	27.712876
15.580000	27.712876
15.590000	27.712876
15.600000	27.712876
15.610000	27.712876
15.620000	27.712876
15.630000	27.712876
15.640000	27.712876
15.650000	27.712876
15.660000	27.712876
15.670000	27.712876
15.680000	27.712876
15.690000	27.712876
15.700000	27.712876
15.710000	27.712876
15.720000	27.712876
15.730000	27.712876
15.740000	27.712876
15.750000	27.712876
15.760000	27.712876
15.770000	27.712876
15.780000	27.712876
15.790000	27.712876
15.800000	27.712876
15.810000	27.712876
15.820000	27.712876
15.830000	27.712876
15.840000	27.712876
15.850000	27.712876
15.860000	27.712876
15.870000	27.712876
15.880000	27.712876
15.890000	27.712876
15.900000	27.712876
15.910000	27.712876
15.920000	27.712876
15.930000	27.712876
15.940000	27.712876
15.950000	27.712876
15.960000	27.712876
15.970000	27.712876
15.980000	27.712876
15.990000	27.712876
16.000000	27.651549
16.010000	27.651549
16.020000	27.651549
16.030000	27.651549
16.040000	27.651549
16.050000	27.651549
16.060000	27.651549
16.070000	27.651549
16.080000	27.651549
16.090000	27.651549
16.100000	27.651549
16.110000	27.651549
16.120000	27.651549
16.130000	27.651549
16.140000	27.651549
16.150000	27.651549
16.160000	27.651549
16.170000	27.651549
16.180000	27.651549
16.190000	27.651549
16.200000	27.651549
16.210000	27.651549
16.220000	27.651549
16.230000	27.651549
16.240000	27.651549
16.250000	27.651549
16.260000	27.651549
16.270000	27.651549
16.280000	27.651549
16.290000	27.651549
16.300000	27.651549
16.310000	27.651549
16.320000	27.651549
16.330000	27.651549
16.340000	27.651549
16.350000	27.651549
16.360000	27.651549
16.370000	27.651549
16.380000	27.651549
16.390000	27.651549
16.400000	27.651549
16.410000	27.651549
16.420000	27.651549
16.430000	27.651549
16.440000	27.651549
16.450000	27.651549
16.460000	27.651549
16.470000	27.651549
16.480000	27.651549
16.490000	27.651549
16.500000	27.591561
16.510000	27.591561
16.520000	27.591561
16.530000	27.591561
16.540000	27.591561
16.550000	27.591561
16.560000	27.591561
16.570000	27.591561
16.580000	27.591561
16.590000	27.591561
16.600000	27.591561
16.610000	27.591561
16.620000	27.591561
16.630000	27.591561
16.640000	27.591561
16.650000	27.591561
16.660000	27.591561
16.670000	27.591561
16.680000	27.591561
16.690000	27.591561
16.700000	27.591561
16.710000	27.591561
16.720000	27.591561
16.730000	27.591561
16.740000	27.591561
16.750000	27.591561
16.760000	27.591561
16.770000	27.591561
16.780000	27.591561
16.790000	27.591561
16.800000	27.591561
16.810000	27.591561
16.820000	27.591561
16.830000	27.591561
16.840000	27.591561
16.850000	27.591561
16.860000	27.591561
16.870000	27.591561
16.880000	27.591561
16.890000	27.591561
16.900000	27.591561
16.910000	27.591561
16.920000	27.591561
16.930000	27.591561
16.940000	27.591561
16.950000	27.591561
16.960000	27.591561
16.970000	27.591561
16.980000	27.591561
16.990000	27.591561
17.000000	27.534582
17.010000	27.534582
17.020000	27.534582
17.030000	27.534582
17.040000	27.534582
17.050000	27.534582
17.060000	27.534582
17.070000	27.534582
17.080000	27.534582
17.090000	27.534582
17.100000	27.534582
17.110000	27.534582
17.120000	27.534582
17.130000	27.534582
17.140000	27.534582
17.150000	27.534582
17.160000	27.534582
17.170000	27.534582
17.180000	27.534582
17.190000	27.534582
17.200000	27.534582
17.210000	27.534582
17.220000	27.534582
17.230000	27.534582
17.240000	27.534582
17.250000	27.534582
17.260000	27.534582
17.270000	27.534582
17.280000	27.534582
17.290000	27.534582
17.300000	27.534582
17.310000	27.534582
17.320000	27.534582
17.330000	27.534582
17.340000	27.534582
17.350000	27.534582
17.360000	27.534582
17.370000	27.534582
17.380000	27.534582
17.390000	27.534582
17.400000	27.534582
17.410000	27.534582
17.420000	27.534582
17.430000	27.534582
17.440000	27.534582
17.450000	27.534582
17.460000	27.534582
17.470000	27.534582
17.480000	27.534582
17.490000	27.534582
17.500000	27.479710
17.510000	27.479710
17.520000	27.479710
17.530000	27.479710
17.540000	27.479710
17.550000	27.479710
17.560000	27.479710
17.570000	27.479710
17.580000	27.479710
17.590000	27.479710
17.600000	27.479710
17.610000	27.479710
17.620000	27.479710
17.630000	27.479710
17.640000	27.479710
17.650000	27.479710
17.660000	27.479710
17.670000	27.479710
17.680000	27.479710
17.690000	27.479710
17.700000	27.479710
17.710000	27.479710
17.720000	27.479710
17.730000	27.479710
17.740000	27.479710
17.750000	27.479710
17.760000	27.479710
17.770000	27.479710
17.780000	27.479710
17.790000	27.479710
17.800000	27.479710
17.810000	27.479710
17.820000	27.479710
17.830000	27.479710
17.840000	27.479710
17.850000	27.479710
17.860000	27.479710
17.870000	27.479710
17.880000	27.479710
17.890000	27.479710
17.900000	27.479710
17.910000	27.479710
17.920000	27.479710
17.930000	27.479710
17.940000	27.479710
17.950000	27.479710
17.960000	27.479710
17.970000	27.479710
17.980000	27.479710
17.990000	27.479710
