LabVIEW Measurement	
Writer_Version	2
Reader_Version	2
Separator	Tab
Decimal_Separator	.
Multi_Headings	No
X_Columns	One
Time_Pref	Absolute
Operator	biomech-dyno
Date	2023/05/23
Time	16:26:31.1792034999998606061
***End_of_Header***	
	
Channels	1	
Samples	10	
Date	2023/05/23	
Time	18:11:07.9976047999999546369	
X_Dimension	Time	
X0	0.0000000000000000E+0	
Delta_X	0.010000	
***End_of_Header***		
X_Value	Untitled	Comment
0.000000	24.641999
0.010000	24.641999
0.020000	24.641999
0.030000	24.641999
0.040000	24.641999
0.050000	24.641999
0.060000	24.641999
0.070000	24.641999
0.080000	24.641999
0.090000	24.641999
0.100000	24.641999
0.110000	24.641999
0.120000	24.641999
0.130000	24.641999
0.140000	24.641999
0.150000	24.641999
0.160000	24.641999
0.170000	24.641999
0.180000	24.641999
0.190000	24.641999
0.200000	24.641999
0.210000	24.641999
0.220000	24.641999
0.230000	24.641999
0.240000	24.641999
0.250000	24.641999
0.260000	24.641999
0.270000	24.641999
0.280000	24.641999
0.290000	24.641999
0.300000	24.641999
0.310000	24.641999
0.320000	24.641999
0.330000	24.641999
0.340000	24.641999
0.350000	24.641999
0.360000	24.641999
0.370000	24.641999
0.380000	24.641999
0.390000	24.641999
0.400000	24.641999
0.410000	24.641999
0.420000	24.641999
0.430000	24.641999
0.440000	24.641999
0.450000	24.641999
0.460000	24.641999
0.470000	24.641999
0.480000	24.641999
0.490000	24.641999
0.500000	24.646362
0.510000	24.646362
0.520000	24.646362
0.530000	24.646362
0.540000	24.646362
0.550000	24.646362
0.560000	24.646362
0.570000	24.646362
0.580000	24.646362
0.590000	24.646362
0.600000	24.646362
0.610000	24.646362
0.620000	24.646362
0.630000	24.646362
0.640000	24.646362
0.650000	24.646362
0.660000	24.646362
0.670000	24.646362
0.680000	24.646362
0.690000	24.646362
0.700000	24.646362
0.710000	24.646362
0.720000	24.646362
0.730000	24.646362
0.740000	24.646362
0.750000	24.646362
0.760000	24.646362
0.770000	24.646362
0.780000	24.646362
0.790000	24.646362
0.800000	24.646362
0.810000	24.646362
0.820000	24.646362
0.830000	24.646362
0.840000	24.646362
0.850000	24.646362
0.860000	24.646362
0.870000	24.646362
0.880000	24.646362
0.890000	24.646362
0.900000	24.646362
0.910000	24.646362
0.920000	24.646362
0.930000	24.646362
0.940000	24.646362
0.950000	24.646362
0.960000	24.646362
0.970000	24.646362
0.980000	24.646362
0.990000	24.646362
1.000000	24.675631
1.010000	24.675631
1.020000	24.675631
1.030000	24.675631
1.040000	24.675631
1.050000	24.675631
1.060000	24.675631
1.070000	24.675631
1.080000	24.675631
1.090000	24.675631
1.100000	24.675631
1.110000	24.675631
1.120000	24.675631
1.130000	24.675631
1.140000	24.675631
1.150000	24.675631
1.160000	24.675631
1.170000	24.675631
1.180000	24.675631
1.190000	24.675631
1.200000	24.675631
1.210000	24.675631
1.220000	24.675631
1.230000	24.675631
1.240000	24.675631
1.250000	24.675631
1.260000	24.675631
1.270000	24.675631
1.280000	24.675631
1.290000	24.675631
1.300000	24.675631
1.310000	24.675631
1.320000	24.675631
1.330000	24.675631
1.340000	24.675631
1.350000	24.675631
1.360000	24.675631
1.370000	24.675631
1.380000	24.675631
1.390000	24.675631
1.400000	24.675631
1.410000	24.675631
1.420000	24.675631
1.430000	24.675631
1.440000	24.675631
1.450000	24.675631
1.460000	24.675631
1.470000	24.675631
1.480000	24.675631
1.490000	24.675631
1.500000	24.741791
1.510000	24.741791
1.520000	24.741791
1.530000	24.741791
1.540000	24.741791
1.550000	24.741791
1.560000	24.741791
1.570000	24.741791
1.580000	24.741791
1.590000	24.741791
1.600000	24.741791
1.610000	24.741791
1.620000	24.741791
1.630000	24.741791
1.640000	24.741791
1.650000	24.741791
1.660000	24.741791
1.670000	24.741791
1.680000	24.741791
1.690000	24.741791
1.700000	24.741791
1.710000	24.741791
1.720000	24.741791
1.730000	24.741791
1.740000	24.741791
1.750000	24.741791
1.760000	24.741791
1.770000	24.741791
1.780000	24.741791
1.790000	24.741791
1.800000	24.741791
1.810000	24.741791
1.820000	24.741791
1.830000	24.741791
1.840000	24.741791
1.850000	24.741791
1.860000	24.741791
1.870000	24.741791
1.880000	24.741791
1.890000	24.741791
1.900000	24.741791
1.910000	24.741791
1.920000	24.741791
1.930000	24.741791
1.940000	24.741791
1.950000	24.741791
1.960000	24.741791
1.970000	24.741791
1.980000	24.741791
1.990000	24.741791
2.000000	24.836995
2.010000	24.836995
2.020000	24.836995
2.030000	24.836995
2.040000	24.836995
2.050000	24.836995
2.060000	24.836995
2.070000	24.836995
2.080000	24.836995
2.090000	24.836995
2.100000	24.836995
2.110000	24.836995
2.120000	24.836995
2.130000	24.836995
2.140000	24.836995
2.150000	24.836995
2.160000	24.836995
2.170000	24.836995
2.180000	24.836995
2.190000	24.836995
2.200000	24.836995
2.210000	24.836995
2.220000	24.836995
2.230000	24.836995
2.240000	24.836995
2.250000	24.836995
2.260000	24.836995
2.270000	24.836995
2.280000	24.836995
2.290000	24.836995
2.300000	24.836995
2.310000	24.836995
2.320000	24.836995
2.330000	24.836995
2.340000	24.836995
2.350000	24.836995
2.360000	24.836995
2.370000	24.836995
2.380000	24.836995
2.390000	24.836995
2.400000	24.836995
2.410000	24.836995
2.420000	24.836995
2.430000	24.836995
2.440000	24.836995
2.450000	24.836995
2.460000	24.836995
2.470000	24.836995
2.480000	24.836995
2.490000	24.836995
2.500000	24.954655
2.510000	24.954655
2.520000	24.954655
2.530000	24.954655
2.540000	24.954655
2.550000	24.954655
2.560000	24.954655
2.570000	24.954655
2.580000	24.954655
2.590000	24.954655
2.600000	24.954655
2.610000	24.954655
2.620000	24.954655
2.630000	24.954655
2.640000	24.954655
2.650000	24.954655
2.660000	24.954655
2.670000	24.954655
2.680000	24.954655
2.690000	24.954655
2.700000	24.954655
2.710000	24.954655
2.720000	24.954655
2.730000	24.954655
2.740000	24.954655
2.750000	24.954655
2.760000	24.954655
2.770000	24.954655
2.780000	24.954655
2.790000	24.954655
2.800000	24.954655
2.810000	24.954655
2.820000	24.954655
2.830000	24.954655
2.840000	24.954655
2.850000	24.954655
2.860000	24.954655
2.870000	24.954655
2.880000	24.954655
2.890000	24.954655
2.900000	24.954655
2.910000	24.954655
2.920000	24.954655
2.930000	24.954655
2.940000	24.954655
2.950000	24.954655
2.960000	24.954655
2.970000	24.954655
2.980000	24.954655
2.990000	24.954655
3.000000	25.087839
3.010000	25.087839
3.020000	25.087839
3.030000	25.087839
3.040000	25.087839
3.050000	25.087839
3.060000	25.087839
3.070000	25.087839
3.080000	25.087839
3.090000	25.087839
3.100000	25.087839
3.110000	25.087839
3.120000	25.087839
3.130000	25.087839
3.140000	25.087839
3.150000	25.087839
3.160000	25.087839
3.170000	25.087839
3.180000	25.087839
3.190000	25.087839
3.200000	25.087839
3.210000	25.087839
3.220000	25.087839
3.230000	25.087839
3.240000	25.087839
3.250000	25.087839
3.260000	25.087839
3.270000	25.087839
3.280000	25.087839
3.290000	25.087839
3.300000	25.087839
3.310000	25.087839
3.320000	25.087839
3.330000	25.087839
3.340000	25.087839
3.350000	25.087839
3.360000	25.087839
3.370000	25.087839
3.380000	25.087839
3.390000	25.087839
3.400000	25.087839
3.410000	25.087839
3.420000	25.087839
3.430000	25.087839
3.440000	25.087839
3.450000	25.087839
3.460000	25.087839
3.470000	25.087839
3.480000	25.087839
3.490000	25.087839
3.500000	25.226291
3.510000	25.226291
3.520000	25.226291
3.530000	25.226291
3.540000	25.226291
3.550000	25.226291
3.560000	25.226291
3.570000	25.226291
3.580000	25.226291
3.590000	25.226291
3.600000	25.226291
3.610000	25.226291
3.620000	25.226291
3.630000	25.226291
3.640000	25.226291
3.650000	25.226291
3.660000	25.226291
3.670000	25.226291
3.680000	25.226291
3.690000	25.226291
3.700000	25.226291
3.710000	25.226291
3.720000	25.226291
3.730000	25.226291
3.740000	25.226291
3.750000	25.226291
3.760000	25.226291
3.770000	25.226291
3.780000	25.226291
3.790000	25.226291
3.800000	25.226291
3.810000	25.226291
3.820000	25.226291
3.830000	25.226291
3.840000	25.226291
3.850000	25.226291
3.860000	25.226291
3.870000	25.226291
3.880000	25.226291
3.890000	25.226291
3.900000	25.226291
3.910000	25.226291
3.920000	25.226291
3.930000	25.226291
3.940000	25.226291
3.950000	25.226291
3.960000	25.226291
3.970000	25.226291
3.980000	25.226291
3.990000	25.226291
4.000000	25.343514
4.010000	25.343514
4.020000	25.343514
4.030000	25.343514
4.040000	25.343514
4.050000	25.343514
4.060000	25.343514
4.070000	25.343514
4.080000	25.343514
4.090000	25.343514
4.100000	25.343514
4.110000	25.343514
4.120000	25.343514
4.130000	25.343514
4.140000	25.343514
4.150000	25.343514
4.160000	25.343514
4.170000	25.343514
4.180000	25.343514
4.190000	25.343514
4.200000	25.343514
4.210000	25.343514
4.220000	25.343514
4.230000	25.343514
4.240000	25.343514
4.250000	25.343514
4.260000	25.343514
4.270000	25.343514
4.280000	25.343514
4.290000	25.343514
4.300000	25.343514
4.310000	25.343514
4.320000	25.343514
4.330000	25.343514
4.340000	25.343514
4.350000	25.343514
4.360000	25.343514
4.370000	25.343514
4.380000	25.343514
4.390000	25.343514
4.400000	25.343514
4.410000	25.343514
4.420000	25.343514
4.430000	25.343514
4.440000	25.343514
4.450000	25.343514
4.460000	25.343514
4.470000	25.343514
4.480000	25.343514
4.490000	25.343514
4.500000	25.431633
4.510000	25.431633
4.520000	25.431633
4.530000	25.431633
4.540000	25.431633
4.550000	25.431633
4.560000	25.431633
4.570000	25.431633
4.580000	25.431633
4.590000	25.431633
4.600000	25.431633
4.610000	25.431633
4.620000	25.431633
4.630000	25.431633
4.640000	25.431633
4.650000	25.431633
4.660000	25.431633
4.670000	25.431633
4.680000	25.431633
4.690000	25.431633
4.700000	25.431633
4.710000	25.431633
4.720000	25.431633
4.730000	25.431633
4.740000	25.431633
4.750000	25.431633
4.760000	25.431633
4.770000	25.431633
4.780000	25.431633
4.790000	25.431633
4.800000	25.431633
4.810000	25.431633
4.820000	25.431633
4.830000	25.431633
4.840000	25.431633
4.850000	25.431633
4.860000	25.431633
4.870000	25.431633
4.880000	25.431633
4.890000	25.431633
4.900000	25.431633
4.910000	25.431633
4.920000	25.431633
4.930000	25.431633
4.940000	25.431633
4.950000	25.431633
4.960000	25.431633
4.970000	25.431633
4.980000	25.431633
4.990000	25.431633
5.000000	25.493940
5.010000	25.493940
5.020000	25.493940
5.030000	25.493940
5.040000	25.493940
5.050000	25.493940
5.060000	25.493940
5.070000	25.493940
5.080000	25.493940
5.090000	25.493940
5.100000	25.493940
5.110000	25.493940
5.120000	25.493940
5.130000	25.493940
5.140000	25.493940
5.150000	25.493940
5.160000	25.493940
5.170000	25.493940
5.180000	25.493940
5.190000	25.493940
5.200000	25.493940
5.210000	25.493940
5.220000	25.493940
5.230000	25.493940
5.240000	25.493940
5.250000	25.493940
5.260000	25.493940
5.270000	25.493940
5.280000	25.493940
5.290000	25.493940
5.300000	25.493940
5.310000	25.493940
5.320000	25.493940
5.330000	25.493940
5.340000	25.493940
5.350000	25.493940
5.360000	25.493940
5.370000	25.493940
5.380000	25.493940
5.390000	25.493940
5.400000	25.493940
5.410000	25.493940
5.420000	25.493940
5.430000	25.493940
5.440000	25.493940
5.450000	25.493940
5.460000	25.493940
5.470000	25.493940
5.480000	25.493940
5.490000	25.493940
5.500000	25.536652
5.510000	25.536652
5.520000	25.536652
5.530000	25.536652
5.540000	25.536652
5.550000	25.536652
5.560000	25.536652
5.570000	25.536652
5.580000	25.536652
5.590000	25.536652
5.600000	25.536652
5.610000	25.536652
5.620000	25.536652
5.630000	25.536652
5.640000	25.536652
5.650000	25.536652
5.660000	25.536652
5.670000	25.536652
5.680000	25.536652
5.690000	25.536652
5.700000	25.536652
5.710000	25.536652
5.720000	25.536652
5.730000	25.536652
5.740000	25.536652
5.750000	25.536652
5.760000	25.536652
5.770000	25.536652
5.780000	25.536652
5.790000	25.536652
5.800000	25.536652
5.810000	25.536652
5.820000	25.536652
5.830000	25.536652
5.840000	25.536652
5.850000	25.536652
5.860000	25.536652
5.870000	25.536652
5.880000	25.536652
5.890000	25.536652
5.900000	25.536652
5.910000	25.536652
5.920000	25.536652
5.930000	25.536652
5.940000	25.536652
5.950000	25.536652
5.960000	25.536652
5.970000	25.536652
5.980000	25.536652
5.990000	25.536652
6.000000	25.564031
6.010000	25.564031
6.020000	25.564031
6.030000	25.564031
6.040000	25.564031
6.050000	25.564031
6.060000	25.564031
6.070000	25.564031
6.080000	25.564031
6.090000	25.564031
6.100000	25.564031
6.110000	25.564031
6.120000	25.564031
6.130000	25.564031
6.140000	25.564031
6.150000	25.564031
6.160000	25.564031
6.170000	25.564031
6.180000	25.564031
6.190000	25.564031
6.200000	25.564031
6.210000	25.564031
6.220000	25.564031
6.230000	25.564031
6.240000	25.564031
6.250000	25.564031
6.260000	25.564031
6.270000	25.564031
6.280000	25.564031
6.290000	25.564031
6.300000	25.564031
6.310000	25.564031
6.320000	25.564031
6.330000	25.564031
6.340000	25.564031
6.350000	25.564031
6.360000	25.564031
6.370000	25.564031
6.380000	25.564031
6.390000	25.564031
6.400000	25.564031
6.410000	25.564031
6.420000	25.564031
6.430000	25.564031
6.440000	25.564031
6.450000	25.564031
6.460000	25.564031
6.470000	25.564031
6.480000	25.564031
6.490000	25.564031
6.500000	25.580588
6.510000	25.580588
6.520000	25.580588
6.530000	25.580588
6.540000	25.580588
6.550000	25.580588
6.560000	25.580588
6.570000	25.580588
6.580000	25.580588
6.590000	25.580588
6.600000	25.580588
6.610000	25.580588
6.620000	25.580588
6.630000	25.580588
6.640000	25.580588
6.650000	25.580588
6.660000	25.580588
6.670000	25.580588
6.680000	25.580588
6.690000	25.580588
6.700000	25.580588
6.710000	25.580588
6.720000	25.580588
6.730000	25.580588
6.740000	25.580588
6.750000	25.580588
6.760000	25.580588
6.770000	25.580588
6.780000	25.580588
6.790000	25.580588
6.800000	25.580588
6.810000	25.580588
6.820000	25.580588
6.830000	25.580588
6.840000	25.580588
6.850000	25.580588
6.860000	25.580588
6.870000	25.580588
6.880000	25.580588
6.890000	25.580588
6.900000	25.580588
6.910000	25.580588
6.920000	25.580588
6.930000	25.580588
6.940000	25.580588
6.950000	25.580588
6.960000	25.580588
6.970000	25.580588
6.980000	25.580588
6.990000	25.580588
7.000000	25.587807
7.010000	25.587807
7.020000	25.587807
7.030000	25.587807
7.040000	25.587807
7.050000	25.587807
7.060000	25.587807
7.070000	25.587807
7.080000	25.587807
7.090000	25.587807
7.100000	25.587807
7.110000	25.587807
7.120000	25.587807
7.130000	25.587807
7.140000	25.587807
7.150000	25.587807
7.160000	25.587807
7.170000	25.587807
7.180000	25.587807
7.190000	25.587807
7.200000	25.587807
7.210000	25.587807
7.220000	25.587807
7.230000	25.587807
7.240000	25.587807
7.250000	25.587807
7.260000	25.587807
7.270000	25.587807
7.280000	25.587807
7.290000	25.587807
7.300000	25.587807
7.310000	25.587807
7.320000	25.587807
7.330000	25.587807
7.340000	25.587807
7.350000	25.587807
7.360000	25.587807
7.370000	25.587807
7.380000	25.587807
7.390000	25.587807
7.400000	25.587807
7.410000	25.587807
7.420000	25.587807
7.430000	25.587807
7.440000	25.587807
7.450000	25.587807
7.460000	25.587807
7.470000	25.587807
7.480000	25.587807
7.490000	25.587807
7.500000	25.588054
7.510000	25.588054
7.520000	25.588054
7.530000	25.588054
7.540000	25.588054
7.550000	25.588054
7.560000	25.588054
7.570000	25.588054
7.580000	25.588054
7.590000	25.588054
7.600000	25.588054
7.610000	25.588054
7.620000	25.588054
7.630000	25.588054
7.640000	25.588054
7.650000	25.588054
7.660000	25.588054
7.670000	25.588054
7.680000	25.588054
7.690000	25.588054
7.700000	25.588054
7.710000	25.588054
7.720000	25.588054
7.730000	25.588054
7.740000	25.588054
7.750000	25.588054
7.760000	25.588054
7.770000	25.588054
7.780000	25.588054
7.790000	25.588054
7.800000	25.588054
7.810000	25.588054
7.820000	25.588054
7.830000	25.588054
7.840000	25.588054
7.850000	25.588054
7.860000	25.588054
7.870000	25.588054
7.880000	25.588054
7.890000	25.588054
7.900000	25.588054
7.910000	25.588054
7.920000	25.588054
7.930000	25.588054
7.940000	25.588054
7.950000	25.588054
7.960000	25.588054
7.970000	25.588054
7.980000	25.588054
7.990000	25.588054
8.000000	25.583997
8.010000	25.583997
8.020000	25.583997
8.030000	25.583997
8.040000	25.583997
8.050000	25.583997
8.060000	25.583997
8.070000	25.583997
8.080000	25.583997
8.090000	25.583997
8.100000	25.583997
8.110000	25.583997
8.120000	25.583997
8.130000	25.583997
8.140000	25.583997
8.150000	25.583997
8.160000	25.583997
8.170000	25.583997
8.180000	25.583997
8.190000	25.583997
8.200000	25.583997
8.210000	25.583997
8.220000	25.583997
8.230000	25.583997
8.240000	25.583997
8.250000	25.583997
8.260000	25.583997
8.270000	25.583997
8.280000	25.583997
8.290000	25.583997
8.300000	25.583997
8.310000	25.583997
8.320000	25.583997
8.330000	25.583997
8.340000	25.583997
8.350000	25.583997
8.360000	25.583997
8.370000	25.583997
8.380000	25.583997
8.390000	25.583997
8.400000	25.583997
8.410000	25.583997
8.420000	25.583997
8.430000	25.583997
8.440000	25.583997
8.450000	25.583997
8.460000	25.583997
8.470000	25.583997
8.480000	25.583997
8.490000	25.583997
8.500000	25.576504
8.510000	25.576504
8.520000	25.576504
8.530000	25.576504
8.540000	25.576504
8.550000	25.576504
8.560000	25.576504
8.570000	25.576504
8.580000	25.576504
8.590000	25.576504
8.600000	25.576504
8.610000	25.576504
8.620000	25.576504
8.630000	25.576504
8.640000	25.576504
8.650000	25.576504
8.660000	25.576504
8.670000	25.576504
8.680000	25.576504
8.690000	25.576504
8.700000	25.576504
8.710000	25.576504
8.720000	25.576504
8.730000	25.576504
8.740000	25.576504
8.750000	25.576504
8.760000	25.576504
8.770000	25.576504
8.780000	25.576504
8.790000	25.576504
8.800000	25.576504
8.810000	25.576504
8.820000	25.576504
8.830000	25.576504
8.840000	25.576504
8.850000	25.576504
8.860000	25.576504
8.870000	25.576504
8.880000	25.576504
8.890000	25.576504
8.900000	25.576504
8.910000	25.576504
8.920000	25.576504
8.930000	25.576504
8.940000	25.576504
8.950000	25.576504
8.960000	25.576504
8.970000	25.576504
8.980000	25.576504
8.990000	25.576504
9.000000	25.566146
9.010000	25.566146
9.020000	25.566146
9.030000	25.566146
9.040000	25.566146
9.050000	25.566146
9.060000	25.566146
9.070000	25.566146
9.080000	25.566146
9.090000	25.566146
9.100000	25.566146
9.110000	25.566146
9.120000	25.566146
9.130000	25.566146
9.140000	25.566146
9.150000	25.566146
9.160000	25.566146
9.170000	25.566146
9.180000	25.566146
9.190000	25.566146
9.200000	25.566146
9.210000	25.566146
9.220000	25.566146
9.230000	25.566146
9.240000	25.566146
9.250000	25.566146
9.260000	25.566146
9.270000	25.566146
9.280000	25.566146
9.290000	25.566146
9.300000	25.566146
9.310000	25.566146
9.320000	25.566146
9.330000	25.566146
9.340000	25.566146
9.350000	25.566146
9.360000	25.566146
9.370000	25.566146
9.380000	25.566146
9.390000	25.566146
9.400000	25.566146
9.410000	25.566146
9.420000	25.566146
9.430000	25.566146
9.440000	25.566146
9.450000	25.566146
9.460000	25.566146
9.470000	25.566146
9.480000	25.566146
9.490000	25.566146
9.500000	25.553277
9.510000	25.553277
9.520000	25.553277
9.530000	25.553277
9.540000	25.553277
9.550000	25.553277
9.560000	25.553277
9.570000	25.553277
9.580000	25.553277
9.590000	25.553277
9.600000	25.553277
9.610000	25.553277
9.620000	25.553277
9.630000	25.553277
9.640000	25.553277
9.650000	25.553277
9.660000	25.553277
9.670000	25.553277
9.680000	25.553277
9.690000	25.553277
9.700000	25.553277
9.710000	25.553277
9.720000	25.553277
9.730000	25.553277
9.740000	25.553277
9.750000	25.553277
9.760000	25.553277
9.770000	25.553277
9.780000	25.553277
9.790000	25.553277
9.800000	25.553277
9.810000	25.553277
9.820000	25.553277
9.830000	25.553277
9.840000	25.553277
9.850000	25.553277
9.860000	25.553277
9.870000	25.553277
9.880000	25.553277
9.890000	25.553277
9.900000	25.553277
9.910000	25.553277
9.920000	25.553277
9.930000	25.553277
9.940000	25.553277
9.950000	25.553277
9.960000	25.553277
9.970000	25.553277
9.980000	25.553277
9.990000	25.553277
10.000000	25.538887
10.010000	25.538887
10.020000	25.538887
10.030000	25.538887
10.040000	25.538887
10.050000	25.538887
10.060000	25.538887
10.070000	25.538887
10.080000	25.538887
10.090000	25.538887
10.100000	25.538887
10.110000	25.538887
10.120000	25.538887
10.130000	25.538887
10.140000	25.538887
10.150000	25.538887
10.160000	25.538887
10.170000	25.538887
10.180000	25.538887
10.190000	25.538887
10.200000	25.538887
10.210000	25.538887
10.220000	25.538887
10.230000	25.538887
10.240000	25.538887
10.250000	25.538887
10.260000	25.538887
10.270000	25.538887
10.280000	25.538887
10.290000	25.538887
10.300000	25.538887
10.310000	25.538887
10.320000	25.538887
10.330000	25.538887
10.340000	25.538887
10.350000	25.538887
10.360000	25.538887
10.370000	25.538887
10.380000	25.538887
10.390000	25.538887
10.400000	25.538887
10.410000	25.538887
10.420000	25.538887
10.430000	25.538887
10.440000	25.538887
10.450000	25.538887
10.460000	25.538887
10.470000	25.538887
10.480000	25.538887
10.490000	25.538887
10.500000	25.523955
10.510000	25.523955
10.520000	25.523955
10.530000	25.523955
10.540000	25.523955
10.550000	25.523955
10.560000	25.523955
10.570000	25.523955
10.580000	25.523955
10.590000	25.523955
10.600000	25.523955
10.610000	25.523955
10.620000	25.523955
10.630000	25.523955
10.640000	25.523955
10.650000	25.523955
10.660000	25.523955
10.670000	25.523955
10.680000	25.523955
10.690000	25.523955
10.700000	25.523955
10.710000	25.523955
10.720000	25.523955
10.730000	25.523955
10.740000	25.523955
10.750000	25.523955
10.760000	25.523955
10.770000	25.523955
10.780000	25.523955
10.790000	25.523955
10.800000	25.523955
10.810000	25.523955
10.820000	25.523955
10.830000	25.523955
10.840000	25.523955
10.850000	25.523955
10.860000	25.523955
10.870000	25.523955
10.880000	25.523955
10.890000	25.523955
10.900000	25.523955
10.910000	25.523955
10.920000	25.523955
10.930000	25.523955
10.940000	25.523955
10.950000	25.523955
10.960000	25.523955
10.970000	25.523955
10.980000	25.523955
10.990000	25.523955
11.000000	25.508062
11.010000	25.508062
11.020000	25.508062
11.030000	25.508062
11.040000	25.508062
11.050000	25.508062
11.060000	25.508062
11.070000	25.508062
11.080000	25.508062
11.090000	25.508062
11.100000	25.508062
11.110000	25.508062
11.120000	25.508062
11.130000	25.508062
11.140000	25.508062
11.150000	25.508062
11.160000	25.508062
11.170000	25.508062
11.180000	25.508062
11.190000	25.508062
11.200000	25.508062
11.210000	25.508062
11.220000	25.508062
11.230000	25.508062
11.240000	25.508062
11.250000	25.508062
11.260000	25.508062
11.270000	25.508062
11.280000	25.508062
11.290000	25.508062
11.300000	25.508062
11.310000	25.508062
11.320000	25.508062
11.330000	25.508062
11.340000	25.508062
11.350000	25.508062
11.360000	25.508062
11.370000	25.508062
11.380000	25.508062
11.390000	25.508062
11.400000	25.508062
11.410000	25.508062
11.420000	25.508062
11.430000	25.508062
11.440000	25.508062
11.450000	25.508062
11.460000	25.508062
11.470000	25.508062
11.480000	25.508062
11.490000	25.508062
11.500000	25.491447
11.510000	25.491447
11.520000	25.491447
11.530000	25.491447
11.540000	25.491447
11.550000	25.491447
11.560000	25.491447
11.570000	25.491447
11.580000	25.491447
11.590000	25.491447
11.600000	25.491447
11.610000	25.491447
11.620000	25.491447
11.630000	25.491447
11.640000	25.491447
11.650000	25.491447
11.660000	25.491447
11.670000	25.491447
11.680000	25.491447
11.690000	25.491447
11.700000	25.491447
11.710000	25.491447
11.720000	25.491447
11.730000	25.491447
11.740000	25.491447
11.750000	25.491447
11.760000	25.491447
11.770000	25.491447
11.780000	25.491447
11.790000	25.491447
11.800000	25.491447
11.810000	25.491447
11.820000	25.491447
11.830000	25.491447
11.840000	25.491447
11.850000	25.491447
11.860000	25.491447
11.870000	25.491447
11.880000	25.491447
11.890000	25.491447
11.900000	25.491447
11.910000	25.491447
11.920000	25.491447
11.930000	25.491447
11.940000	25.491447
11.950000	25.491447
11.960000	25.491447
11.970000	25.491447
11.980000	25.491447
11.990000	25.491447
12.000000	25.474074
12.010000	25.474074
12.020000	25.474074
12.030000	25.474074
12.040000	25.474074
12.050000	25.474074
12.060000	25.474074
12.070000	25.474074
12.080000	25.474074
12.090000	25.474074
12.100000	25.474074
12.110000	25.474074
12.120000	25.474074
12.130000	25.474074
12.140000	25.474074
12.150000	25.474074
12.160000	25.474074
12.170000	25.474074
12.180000	25.474074
12.190000	25.474074
12.200000	25.474074
12.210000	25.474074
12.220000	25.474074
12.230000	25.474074
12.240000	25.474074
12.250000	25.474074
12.260000	25.474074
12.270000	25.474074
12.280000	25.474074
12.290000	25.474074
12.300000	25.474074
12.310000	25.474074
12.320000	25.474074
12.330000	25.474074
12.340000	25.474074
12.350000	25.474074
12.360000	25.474074
12.370000	25.474074
12.380000	25.474074
12.390000	25.474074
12.400000	25.474074
12.410000	25.474074
12.420000	25.474074
12.430000	25.474074
12.440000	25.474074
12.450000	25.474074
12.460000	25.474074
12.470000	25.474074
12.480000	25.474074
12.490000	25.474074
12.500000	25.456439
12.510000	25.456439
12.520000	25.456439
12.530000	25.456439
12.540000	25.456439
12.550000	25.456439
12.560000	25.456439
12.570000	25.456439
12.580000	25.456439
12.590000	25.456439
12.600000	25.456439
12.610000	25.456439
12.620000	25.456439
12.630000	25.456439
12.640000	25.456439
12.650000	25.456439
12.660000	25.456439
12.670000	25.456439
12.680000	25.456439
12.690000	25.456439
12.700000	25.456439
12.710000	25.456439
12.720000	25.456439
12.730000	25.456439
12.740000	25.456439
12.750000	25.456439
12.760000	25.456439
12.770000	25.456439
12.780000	25.456439
12.790000	25.456439
12.800000	25.456439
12.810000	25.456439
12.820000	25.456439
12.830000	25.456439
12.840000	25.456439
12.850000	25.456439
12.860000	25.456439
12.870000	25.456439
12.880000	25.456439
12.890000	25.456439
12.900000	25.456439
12.910000	25.456439
12.920000	25.456439
12.930000	25.456439
12.940000	25.456439
12.950000	25.456439
12.960000	25.456439
12.970000	25.456439
12.980000	25.456439
12.990000	25.456439
13.000000	25.439387
13.010000	25.439387
13.020000	25.439387
13.030000	25.439387
13.040000	25.439387
13.050000	25.439387
13.060000	25.439387
13.070000	25.439387
13.080000	25.439387
13.090000	25.439387
13.100000	25.439387
13.110000	25.439387
13.120000	25.439387
13.130000	25.439387
13.140000	25.439387
13.150000	25.439387
13.160000	25.439387
13.170000	25.439387
13.180000	25.439387
13.190000	25.439387
13.200000	25.439387
13.210000	25.439387
13.220000	25.439387
13.230000	25.439387
13.240000	25.439387
13.250000	25.439387
13.260000	25.439387
13.270000	25.439387
13.280000	25.439387
13.290000	25.439387
13.300000	25.439387
13.310000	25.439387
13.320000	25.439387
13.330000	25.439387
13.340000	25.439387
13.350000	25.439387
13.360000	25.439387
13.370000	25.439387
13.380000	25.439387
13.390000	25.439387
13.400000	25.439387
13.410000	25.439387
13.420000	25.439387
13.430000	25.439387
13.440000	25.439387
13.450000	25.439387
13.460000	25.439387
13.470000	25.439387
13.480000	25.439387
13.490000	25.439387
13.500000	25.422766
13.510000	25.422766
13.520000	25.422766
13.530000	25.422766
13.540000	25.422766
13.550000	25.422766
13.560000	25.422766
13.570000	25.422766
13.580000	25.422766
13.590000	25.422766
13.600000	25.422766
13.610000	25.422766
13.620000	25.422766
13.630000	25.422766
13.640000	25.422766
13.650000	25.422766
13.660000	25.422766
13.670000	25.422766
13.680000	25.422766
13.690000	25.422766
13.700000	25.422766
13.710000	25.422766
13.720000	25.422766
13.730000	25.422766
13.740000	25.422766
13.750000	25.422766
13.760000	25.422766
13.770000	25.422766
13.780000	25.422766
13.790000	25.422766
13.800000	25.422766
13.810000	25.422766
13.820000	25.422766
13.830000	25.422766
13.840000	25.422766
13.850000	25.422766
13.860000	25.422766
13.870000	25.422766
13.880000	25.422766
13.890000	25.422766
13.900000	25.422766
13.910000	25.422766
13.920000	25.422766
13.930000	25.422766
13.940000	25.422766
13.950000	25.422766
13.960000	25.422766
13.970000	25.422766
13.980000	25.422766
13.990000	25.422766
14.000000	25.405813
14.010000	25.405813
14.020000	25.405813
14.030000	25.405813
14.040000	25.405813
14.050000	25.405813
14.060000	25.405813
14.070000	25.405813
14.080000	25.405813
14.090000	25.405813
14.100000	25.405813
14.110000	25.405813
14.120000	25.405813
14.130000	25.405813
14.140000	25.405813
14.150000	25.405813
14.160000	25.405813
14.170000	25.405813
14.180000	25.405813
14.190000	25.405813
14.200000	25.405813
14.210000	25.405813
14.220000	25.405813
14.230000	25.405813
14.240000	25.405813
14.250000	25.405813
14.260000	25.405813
14.270000	25.405813
14.280000	25.405813
14.290000	25.405813
14.300000	25.405813
14.310000	25.405813
14.320000	25.405813
14.330000	25.405813
14.340000	25.405813
14.350000	25.405813
14.360000	25.405813
14.370000	25.405813
14.380000	25.405813
14.390000	25.405813
14.400000	25.405813
14.410000	25.405813
14.420000	25.405813
14.430000	25.405813
14.440000	25.405813
14.450000	25.405813
14.460000	25.405813
14.470000	25.405813
14.480000	25.405813
14.490000	25.405813
14.500000	25.389044
14.510000	25.389044
14.520000	25.389044
14.530000	25.389044
14.540000	25.389044
14.550000	25.389044
14.560000	25.389044
14.570000	25.389044
14.580000	25.389044
14.590000	25.389044
14.600000	25.389044
14.610000	25.389044
14.620000	25.389044
14.630000	25.389044
14.640000	25.389044
14.650000	25.389044
14.660000	25.389044
14.670000	25.389044
14.680000	25.389044
14.690000	25.389044
14.700000	25.389044
14.710000	25.389044
14.720000	25.389044
14.730000	25.389044
14.740000	25.389044
14.750000	25.389044
14.760000	25.389044
14.770000	25.389044
14.780000	25.389044
14.790000	25.389044
14.800000	25.389044
14.810000	25.389044
14.820000	25.389044
14.830000	25.389044
14.840000	25.389044
14.850000	25.389044
14.860000	25.389044
14.870000	25.389044
14.880000	25.389044
14.890000	25.389044
14.900000	25.389044
14.910000	25.389044
14.920000	25.389044
14.930000	25.389044
14.940000	25.389044
14.950000	25.389044
14.960000	25.389044
14.970000	25.389044
14.980000	25.389044
14.990000	25.389044
15.000000	25.373047
15.010000	25.373047
15.020000	25.373047
15.030000	25.373047
15.040000	25.373047
15.050000	25.373047
15.060000	25.373047
15.070000	25.373047
15.080000	25.373047
15.090000	25.373047
15.100000	25.373047
15.110000	25.373047
15.120000	25.373047
15.130000	25.373047
15.140000	25.373047
15.150000	25.373047
15.160000	25.373047
15.170000	25.373047
15.180000	25.373047
15.190000	25.373047
15.200000	25.373047
15.210000	25.373047
15.220000	25.373047
15.230000	25.373047
15.240000	25.373047
15.250000	25.373047
15.260000	25.373047
15.270000	25.373047
15.280000	25.373047
15.290000	25.373047
15.300000	25.373047
15.310000	25.373047
15.320000	25.373047
15.330000	25.373047
15.340000	25.373047
15.350000	25.373047
15.360000	25.373047
15.370000	25.373047
15.380000	25.373047
15.390000	25.373047
15.400000	25.373047
15.410000	25.373047
15.420000	25.373047
15.430000	25.373047
15.440000	25.373047
15.450000	25.373047
15.460000	25.373047
15.470000	25.373047
15.480000	25.373047
15.490000	25.373047
15.500000	25.356703
15.510000	25.356703
15.520000	25.356703
15.530000	25.356703
15.540000	25.356703
15.550000	25.356703
15.560000	25.356703
15.570000	25.356703
15.580000	25.356703
15.590000	25.356703
15.600000	25.356703
15.610000	25.356703
15.620000	25.356703
15.630000	25.356703
15.640000	25.356703
15.650000	25.356703
15.660000	25.356703
15.670000	25.356703
15.680000	25.356703
15.690000	25.356703
15.700000	25.356703
15.710000	25.356703
15.720000	25.356703
15.730000	25.356703
15.740000	25.356703
15.750000	25.356703
15.760000	25.356703
15.770000	25.356703
15.780000	25.356703
15.790000	25.356703
15.800000	25.356703
15.810000	25.356703
15.820000	25.356703
15.830000	25.356703
15.840000	25.356703
15.850000	25.356703
15.860000	25.356703
15.870000	25.356703
15.880000	25.356703
15.890000	25.356703
15.900000	25.356703
15.910000	25.356703
15.920000	25.356703
15.930000	25.356703
15.940000	25.356703
15.950000	25.356703
15.960000	25.356703
15.970000	25.356703
15.980000	25.356703
15.990000	25.356703
16.000000	25.340713
16.010000	25.340713
16.020000	25.340713
16.030000	25.340713
16.040000	25.340713
16.050000	25.340713
16.060000	25.340713
16.070000	25.340713
16.080000	25.340713
16.090000	25.340713
16.100000	25.340713
16.110000	25.340713
16.120000	25.340713
16.130000	25.340713
16.140000	25.340713
16.150000	25.340713
16.160000	25.340713
16.170000	25.340713
16.180000	25.340713
16.190000	25.340713
16.200000	25.340713
16.210000	25.340713
16.220000	25.340713
16.230000	25.340713
16.240000	25.340713
16.250000	25.340713
16.260000	25.340713
16.270000	25.340713
16.280000	25.340713
16.290000	25.340713
16.300000	25.340713
16.310000	25.340713
16.320000	25.340713
16.330000	25.340713
16.340000	25.340713
16.350000	25.340713
16.360000	25.340713
16.370000	25.340713
16.380000	25.340713
16.390000	25.340713
16.400000	25.340713
16.410000	25.340713
16.420000	25.340713
16.430000	25.340713
16.440000	25.340713
16.450000	25.340713
16.460000	25.340713
16.470000	25.340713
16.480000	25.340713
16.490000	25.340713
16.500000	25.325146
16.510000	25.325146
16.520000	25.325146
16.530000	25.325146
16.540000	25.325146
16.550000	25.325146
16.560000	25.325146
16.570000	25.325146
16.580000	25.325146
16.590000	25.325146
16.600000	25.325146
16.610000	25.325146
16.620000	25.325146
16.630000	25.325146
16.640000	25.325146
16.650000	25.325146
16.660000	25.325146
16.670000	25.325146
16.680000	25.325146
16.690000	25.325146
16.700000	25.325146
16.710000	25.325146
16.720000	25.325146
16.730000	25.325146
16.740000	25.325146
16.750000	25.325146
16.760000	25.325146
16.770000	25.325146
16.780000	25.325146
16.790000	25.325146
16.800000	25.325146
16.810000	25.325146
16.820000	25.325146
16.830000	25.325146
16.840000	25.325146
16.850000	25.325146
16.860000	25.325146
16.870000	25.325146
16.880000	25.325146
16.890000	25.325146
16.900000	25.325146
16.910000	25.325146
16.920000	25.325146
16.930000	25.325146
16.940000	25.325146
16.950000	25.325146
16.960000	25.325146
16.970000	25.325146
16.980000	25.325146
16.990000	25.325146
17.000000	25.310131
17.010000	25.310131
17.020000	25.310131
17.030000	25.310131
17.040000	25.310131
17.050000	25.310131
17.060000	25.310131
17.070000	25.310131
17.080000	25.310131
17.090000	25.310131
17.100000	25.310131
17.110000	25.310131
17.120000	25.310131
17.130000	25.310131
17.140000	25.310131
17.150000	25.310131
17.160000	25.310131
17.170000	25.310131
17.180000	25.310131
17.190000	25.310131
17.200000	25.310131
17.210000	25.310131
17.220000	25.310131
17.230000	25.310131
17.240000	25.310131
17.250000	25.310131
17.260000	25.310131
17.270000	25.310131
17.280000	25.310131
17.290000	25.310131
17.300000	25.310131
17.310000	25.310131
17.320000	25.310131
17.330000	25.310131
17.340000	25.310131
17.350000	25.310131
17.360000	25.310131
17.370000	25.310131
17.380000	25.310131
17.390000	25.310131
17.400000	25.310131
17.410000	25.310131
17.420000	25.310131
17.430000	25.310131
17.440000	25.310131
17.450000	25.310131
17.460000	25.310131
17.470000	25.310131
17.480000	25.310131
17.490000	25.310131
17.500000	25.295155
17.510000	25.295155
17.520000	25.295155
17.530000	25.295155
17.540000	25.295155
17.550000	25.295155
17.560000	25.295155
17.570000	25.295155
17.580000	25.295155
17.590000	25.295155
17.600000	25.295155
17.610000	25.295155
17.620000	25.295155
17.630000	25.295155
17.640000	25.295155
17.650000	25.295155
17.660000	25.295155
17.670000	25.295155
17.680000	25.295155
17.690000	25.295155
17.700000	25.295155
17.710000	25.295155
17.720000	25.295155
17.730000	25.295155
17.740000	25.295155
17.750000	25.295155
17.760000	25.295155
17.770000	25.295155
17.780000	25.295155
17.790000	25.295155
17.800000	25.295155
17.810000	25.295155
17.820000	25.295155
17.830000	25.295155
17.840000	25.295155
17.850000	25.295155
17.860000	25.295155
17.870000	25.295155
17.880000	25.295155
17.890000	25.295155
17.900000	25.295155
17.910000	25.295155
17.920000	25.295155
17.930000	25.295155
17.940000	25.295155
17.950000	25.295155
17.960000	25.295155
17.970000	25.295155
17.980000	25.295155
17.990000	25.295155
