LabVIEW Measurement	
Writer_Version	2
Reader_Version	2
Separator	Tab
Decimal_Separator	.
Multi_Headings	No
X_Columns	One
Time_Pref	Absolute
Operator	biomech-dyno
Date	2023/05/23
Time	16:26:31.1792034999998606061
***End_of_Header***	
	
Channels	1	
Samples	10	
Date	2023/05/23	
Time	18:10:00.5177315999996853183	
X_Dimension	Time	
X0	0.0000000000000000E+0	
Delta_X	0.010000	
***End_of_Header***		
X_Value	Untitled	Comment
0.000000	24.745962
0.010000	24.745962
0.020000	24.745962
0.030000	24.745962
0.040000	24.745962
0.050000	24.745962
0.060000	24.745962
0.070000	24.745962
0.080000	24.745962
0.090000	24.745962
0.100000	24.745962
0.110000	24.745962
0.120000	24.745962
0.130000	24.745962
0.140000	24.745962
0.150000	24.745962
0.160000	24.745962
0.170000	24.745962
0.180000	24.745962
0.190000	24.745962
0.200000	24.745962
0.210000	24.745962
0.220000	24.745962
0.230000	24.745962
0.240000	24.745962
0.250000	24.745962
0.260000	24.745962
0.270000	24.745962
0.280000	24.745962
0.290000	24.745962
0.300000	24.745962
0.310000	24.745962
0.320000	24.745962
0.330000	24.745962
0.340000	24.745962
0.350000	24.745962
0.360000	24.745962
0.370000	24.745962
0.380000	24.745962
0.390000	24.745962
0.400000	24.745962
0.410000	24.745962
0.420000	24.745962
0.430000	24.745962
0.440000	24.745962
0.450000	24.745962
0.460000	24.745962
0.470000	24.745962
0.480000	24.745962
0.490000	24.745962
0.500000	24.749613
0.510000	24.749613
0.520000	24.749613
0.530000	24.749613
0.540000	24.749613
0.550000	24.749613
0.560000	24.749613
0.570000	24.749613
0.580000	24.749613
0.590000	24.749613
0.600000	24.749613
0.610000	24.749613
0.620000	24.749613
0.630000	24.749613
0.640000	24.749613
0.650000	24.749613
0.660000	24.749613
0.670000	24.749613
0.680000	24.749613
0.690000	24.749613
0.700000	24.749613
0.710000	24.749613
0.720000	24.749613
0.730000	24.749613
0.740000	24.749613
0.750000	24.749613
0.760000	24.749613
0.770000	24.749613
0.780000	24.749613
0.790000	24.749613
0.800000	24.749613
0.810000	24.749613
0.820000	24.749613
0.830000	24.749613
0.840000	24.749613
0.850000	24.749613
0.860000	24.749613
0.870000	24.749613
0.880000	24.749613
0.890000	24.749613
0.900000	24.749613
0.910000	24.749613
0.920000	24.749613
0.930000	24.749613
0.940000	24.749613
0.950000	24.749613
0.960000	24.749613
0.970000	24.749613
0.980000	24.749613
0.990000	24.749613
1.000000	24.756758
1.010000	24.756758
1.020000	24.756758
1.030000	24.756758
1.040000	24.756758
1.050000	24.756758
1.060000	24.756758
1.070000	24.756758
1.080000	24.756758
1.090000	24.756758
1.100000	24.756758
1.110000	24.756758
1.120000	24.756758
1.130000	24.756758
1.140000	24.756758
1.150000	24.756758
1.160000	24.756758
1.170000	24.756758
1.180000	24.756758
1.190000	24.756758
1.200000	24.756758
1.210000	24.756758
1.220000	24.756758
1.230000	24.756758
1.240000	24.756758
1.250000	24.756758
1.260000	24.756758
1.270000	24.756758
1.280000	24.756758
1.290000	24.756758
1.300000	24.756758
1.310000	24.756758
1.320000	24.756758
1.330000	24.756758
1.340000	24.756758
1.350000	24.756758
1.360000	24.756758
1.370000	24.756758
1.380000	24.756758
1.390000	24.756758
1.400000	24.756758
1.410000	24.756758
1.420000	24.756758
1.430000	24.756758
1.440000	24.756758
1.450000	24.756758
1.460000	24.756758
1.470000	24.756758
1.480000	24.756758
1.490000	24.756758
1.500000	24.770308
1.510000	24.770308
1.520000	24.770308
1.530000	24.770308
1.540000	24.770308
1.550000	24.770308
1.560000	24.770308
1.570000	24.770308
1.580000	24.770308
1.590000	24.770308
1.600000	24.770308
1.610000	24.770308
1.620000	24.770308
1.630000	24.770308
1.640000	24.770308
1.650000	24.770308
1.660000	24.770308
1.670000	24.770308
1.680000	24.770308
1.690000	24.770308
1.700000	24.770308
1.710000	24.770308
1.720000	24.770308
1.730000	24.770308
1.740000	24.770308
1.750000	24.770308
1.760000	24.770308
1.770000	24.770308
1.780000	24.770308
1.790000	24.770308
1.800000	24.770308
1.810000	24.770308
1.820000	24.770308
1.830000	24.770308
1.840000	24.770308
1.850000	24.770308
1.860000	24.770308
1.870000	24.770308
1.880000	24.770308
1.890000	24.770308
1.900000	24.770308
1.910000	24.770308
1.920000	24.770308
1.930000	24.770308
1.940000	24.770308
1.950000	24.770308
1.960000	24.770308
1.970000	24.770308
1.980000	24.770308
1.990000	24.770308
2.000000	24.789408
2.010000	24.789408
2.020000	24.789408
2.030000	24.789408
2.040000	24.789408
2.050000	24.789408
2.060000	24.789408
2.070000	24.789408
2.080000	24.789408
2.090000	24.789408
2.100000	24.789408
2.110000	24.789408
2.120000	24.789408
2.130000	24.789408
2.140000	24.789408
2.150000	24.789408
2.160000	24.789408
2.170000	24.789408
2.180000	24.789408
2.190000	24.789408
2.200000	24.789408
2.210000	24.789408
2.220000	24.789408
2.230000	24.789408
2.240000	24.789408
2.250000	24.789408
2.260000	24.789408
2.270000	24.789408
2.280000	24.789408
2.290000	24.789408
2.300000	24.789408
2.310000	24.789408
2.320000	24.789408
2.330000	24.789408
2.340000	24.789408
2.350000	24.789408
2.360000	24.789408
2.370000	24.789408
2.380000	24.789408
2.390000	24.789408
2.400000	24.789408
2.410000	24.789408
2.420000	24.789408
2.430000	24.789408
2.440000	24.789408
2.450000	24.789408
2.460000	24.789408
2.470000	24.789408
2.480000	24.789408
2.490000	24.789408
2.500000	24.812493
2.510000	24.812493
2.520000	24.812493
2.530000	24.812493
2.540000	24.812493
2.550000	24.812493
2.560000	24.812493
2.570000	24.812493
2.580000	24.812493
2.590000	24.812493
2.600000	24.812493
2.610000	24.812493
2.620000	24.812493
2.630000	24.812493
2.640000	24.812493
2.650000	24.812493
2.660000	24.812493
2.670000	24.812493
2.680000	24.812493
2.690000	24.812493
2.700000	24.812493
2.710000	24.812493
2.720000	24.812493
2.730000	24.812493
2.740000	24.812493
2.750000	24.812493
2.760000	24.812493
2.770000	24.812493
2.780000	24.812493
2.790000	24.812493
2.800000	24.812493
2.810000	24.812493
2.820000	24.812493
2.830000	24.812493
2.840000	24.812493
2.850000	24.812493
2.860000	24.812493
2.870000	24.812493
2.880000	24.812493
2.890000	24.812493
2.900000	24.812493
2.910000	24.812493
2.920000	24.812493
2.930000	24.812493
2.940000	24.812493
2.950000	24.812493
2.960000	24.812493
2.970000	24.812493
2.980000	24.812493
2.990000	24.812493
3.000000	24.837609
3.010000	24.837609
3.020000	24.837609
3.030000	24.837609
3.040000	24.837609
3.050000	24.837609
3.060000	24.837609
3.070000	24.837609
3.080000	24.837609
3.090000	24.837609
3.100000	24.837609
3.110000	24.837609
3.120000	24.837609
3.130000	24.837609
3.140000	24.837609
3.150000	24.837609
3.160000	24.837609
3.170000	24.837609
3.180000	24.837609
3.190000	24.837609
3.200000	24.837609
3.210000	24.837609
3.220000	24.837609
3.230000	24.837609
3.240000	24.837609
3.250000	24.837609
3.260000	24.837609
3.270000	24.837609
3.280000	24.837609
3.290000	24.837609
3.300000	24.837609
3.310000	24.837609
3.320000	24.837609
3.330000	24.837609
3.340000	24.837609
3.350000	24.837609
3.360000	24.837609
3.370000	24.837609
3.380000	24.837609
3.390000	24.837609
3.400000	24.837609
3.410000	24.837609
3.420000	24.837609
3.430000	24.837609
3.440000	24.837609
3.450000	24.837609
3.460000	24.837609
3.470000	24.837609
3.480000	24.837609
3.490000	24.837609
3.500000	24.863543
3.510000	24.863543
3.520000	24.863543
3.530000	24.863543
3.540000	24.863543
3.550000	24.863543
3.560000	24.863543
3.570000	24.863543
3.580000	24.863543
3.590000	24.863543
3.600000	24.863543
3.610000	24.863543
3.620000	24.863543
3.630000	24.863543
3.640000	24.863543
3.650000	24.863543
3.660000	24.863543
3.670000	24.863543
3.680000	24.863543
3.690000	24.863543
3.700000	24.863543
3.710000	24.863543
3.720000	24.863543
3.730000	24.863543
3.740000	24.863543
3.750000	24.863543
3.760000	24.863543
3.770000	24.863543
3.780000	24.863543
3.790000	24.863543
3.800000	24.863543
3.810000	24.863543
3.820000	24.863543
3.830000	24.863543
3.840000	24.863543
3.850000	24.863543
3.860000	24.863543
3.870000	24.863543
3.880000	24.863543
3.890000	24.863543
3.900000	24.863543
3.910000	24.863543
3.920000	24.863543
3.930000	24.863543
3.940000	24.863543
3.950000	24.863543
3.960000	24.863543
3.970000	24.863543
3.980000	24.863543
3.990000	24.863543
4.000000	24.886437
4.010000	24.886437
4.020000	24.886437
4.030000	24.886437
4.040000	24.886437
4.050000	24.886437
4.060000	24.886437
4.070000	24.886437
4.080000	24.886437
4.090000	24.886437
4.100000	24.886437
4.110000	24.886437
4.120000	24.886437
4.130000	24.886437
4.140000	24.886437
4.150000	24.886437
4.160000	24.886437
4.170000	24.886437
4.180000	24.886437
4.190000	24.886437
4.200000	24.886437
4.210000	24.886437
4.220000	24.886437
4.230000	24.886437
4.240000	24.886437
4.250000	24.886437
4.260000	24.886437
4.270000	24.886437
4.280000	24.886437
4.290000	24.886437
4.300000	24.886437
4.310000	24.886437
4.320000	24.886437
4.330000	24.886437
4.340000	24.886437
4.350000	24.886437
4.360000	24.886437
4.370000	24.886437
4.380000	24.886437
4.390000	24.886437
4.400000	24.886437
4.410000	24.886437
4.420000	24.886437
4.430000	24.886437
4.440000	24.886437
4.450000	24.886437
4.460000	24.886437
4.470000	24.886437
4.480000	24.886437
4.490000	24.886437
4.500000	24.905715
4.510000	24.905715
4.520000	24.905715
4.530000	24.905715
4.540000	24.905715
4.550000	24.905715
4.560000	24.905715
4.570000	24.905715
4.580000	24.905715
4.590000	24.905715
4.600000	24.905715
4.610000	24.905715
4.620000	24.905715
4.630000	24.905715
4.640000	24.905715
4.650000	24.905715
4.660000	24.905715
4.670000	24.905715
4.680000	24.905715
4.690000	24.905715
4.700000	24.905715
4.710000	24.905715
4.720000	24.905715
4.730000	24.905715
4.740000	24.905715
4.750000	24.905715
4.760000	24.905715
4.770000	24.905715
4.780000	24.905715
4.790000	24.905715
4.800000	24.905715
4.810000	24.905715
4.820000	24.905715
4.830000	24.905715
4.840000	24.905715
4.850000	24.905715
4.860000	24.905715
4.870000	24.905715
4.880000	24.905715
4.890000	24.905715
4.900000	24.905715
4.910000	24.905715
4.920000	24.905715
4.930000	24.905715
4.940000	24.905715
4.950000	24.905715
4.960000	24.905715
4.970000	24.905715
4.980000	24.905715
4.990000	24.905715
5.000000	24.920510
5.010000	24.920510
5.020000	24.920510
5.030000	24.920510
5.040000	24.920510
5.050000	24.920510
5.060000	24.920510
5.070000	24.920510
5.080000	24.920510
5.090000	24.920510
5.100000	24.920510
5.110000	24.920510
5.120000	24.920510
5.130000	24.920510
5.140000	24.920510
5.150000	24.920510
5.160000	24.920510
5.170000	24.920510
5.180000	24.920510
5.190000	24.920510
5.200000	24.920510
5.210000	24.920510
5.220000	24.920510
5.230000	24.920510
5.240000	24.920510
5.250000	24.920510
5.260000	24.920510
5.270000	24.920510
5.280000	24.920510
5.290000	24.920510
5.300000	24.920510
5.310000	24.920510
5.320000	24.920510
5.330000	24.920510
5.340000	24.920510
5.350000	24.920510
5.360000	24.920510
5.370000	24.920510
5.380000	24.920510
5.390000	24.920510
5.400000	24.920510
5.410000	24.920510
5.420000	24.920510
5.430000	24.920510
5.440000	24.920510
5.450000	24.920510
5.460000	24.920510
5.470000	24.920510
5.480000	24.920510
5.490000	24.920510
5.500000	24.931267
5.510000	24.931267
5.520000	24.931267
5.530000	24.931267
5.540000	24.931267
5.550000	24.931267
5.560000	24.931267
5.570000	24.931267
5.580000	24.931267
5.590000	24.931267
5.600000	24.931267
5.610000	24.931267
5.620000	24.931267
5.630000	24.931267
5.640000	24.931267
5.650000	24.931267
5.660000	24.931267
5.670000	24.931267
5.680000	24.931267
5.690000	24.931267
5.700000	24.931267
5.710000	24.931267
5.720000	24.931267
5.730000	24.931267
5.740000	24.931267
5.750000	24.931267
5.760000	24.931267
5.770000	24.931267
5.780000	24.931267
5.790000	24.931267
5.800000	24.931267
5.810000	24.931267
5.820000	24.931267
5.830000	24.931267
5.840000	24.931267
5.850000	24.931267
5.860000	24.931267
5.870000	24.931267
5.880000	24.931267
5.890000	24.931267
5.900000	24.931267
5.910000	24.931267
5.920000	24.931267
5.930000	24.931267
5.940000	24.931267
5.950000	24.931267
5.960000	24.931267
5.970000	24.931267
5.980000	24.931267
5.990000	24.931267
6.000000	24.939568
6.010000	24.939568
6.020000	24.939568
6.030000	24.939568
6.040000	24.939568
6.050000	24.939568
6.060000	24.939568
6.070000	24.939568
6.080000	24.939568
6.090000	24.939568
6.100000	24.939568
6.110000	24.939568
6.120000	24.939568
6.130000	24.939568
6.140000	24.939568
6.150000	24.939568
6.160000	24.939568
6.170000	24.939568
6.180000	24.939568
6.190000	24.939568
6.200000	24.939568
6.210000	24.939568
6.220000	24.939568
6.230000	24.939568
6.240000	24.939568
6.250000	24.939568
6.260000	24.939568
6.270000	24.939568
6.280000	24.939568
6.290000	24.939568
6.300000	24.939568
6.310000	24.939568
6.320000	24.939568
6.330000	24.939568
6.340000	24.939568
6.350000	24.939568
6.360000	24.939568
6.370000	24.939568
6.380000	24.939568
6.390000	24.939568
6.400000	24.939568
6.410000	24.939568
6.420000	24.939568
6.430000	24.939568
6.440000	24.939568
6.450000	24.939568
6.460000	24.939568
6.470000	24.939568
6.480000	24.939568
6.490000	24.939568
6.500000	24.945026
6.510000	24.945026
6.520000	24.945026
6.530000	24.945026
6.540000	24.945026
6.550000	24.945026
6.560000	24.945026
6.570000	24.945026
6.580000	24.945026
6.590000	24.945026
6.600000	24.945026
6.610000	24.945026
6.620000	24.945026
6.630000	24.945026
6.640000	24.945026
6.650000	24.945026
6.660000	24.945026
6.670000	24.945026
6.680000	24.945026
6.690000	24.945026
6.700000	24.945026
6.710000	24.945026
6.720000	24.945026
6.730000	24.945026
6.740000	24.945026
6.750000	24.945026
6.760000	24.945026
6.770000	24.945026
6.780000	24.945026
6.790000	24.945026
6.800000	24.945026
6.810000	24.945026
6.820000	24.945026
6.830000	24.945026
6.840000	24.945026
6.850000	24.945026
6.860000	24.945026
6.870000	24.945026
6.880000	24.945026
6.890000	24.945026
6.900000	24.945026
6.910000	24.945026
6.920000	24.945026
6.930000	24.945026
6.940000	24.945026
6.950000	24.945026
6.960000	24.945026
6.970000	24.945026
6.980000	24.945026
6.990000	24.945026
7.000000	24.948576
7.010000	24.948576
7.020000	24.948576
7.030000	24.948576
7.040000	24.948576
7.050000	24.948576
7.060000	24.948576
7.070000	24.948576
7.080000	24.948576
7.090000	24.948576
7.100000	24.948576
7.110000	24.948576
7.120000	24.948576
7.130000	24.948576
7.140000	24.948576
7.150000	24.948576
7.160000	24.948576
7.170000	24.948576
7.180000	24.948576
7.190000	24.948576
7.200000	24.948576
7.210000	24.948576
7.220000	24.948576
7.230000	24.948576
7.240000	24.948576
7.250000	24.948576
7.260000	24.948576
7.270000	24.948576
7.280000	24.948576
7.290000	24.948576
7.300000	24.948576
7.310000	24.948576
7.320000	24.948576
7.330000	24.948576
7.340000	24.948576
7.350000	24.948576
7.360000	24.948576
7.370000	24.948576
7.380000	24.948576
7.390000	24.948576
7.400000	24.948576
7.410000	24.948576
7.420000	24.948576
7.430000	24.948576
7.440000	24.948576
7.450000	24.948576
7.460000	24.948576
7.470000	24.948576
7.480000	24.948576
7.490000	24.948576
7.500000	24.950424
7.510000	24.950424
7.520000	24.950424
7.530000	24.950424
7.540000	24.950424
7.550000	24.950424
7.560000	24.950424
7.570000	24.950424
7.580000	24.950424
7.590000	24.950424
7.600000	24.950424
7.610000	24.950424
7.620000	24.950424
7.630000	24.950424
7.640000	24.950424
7.650000	24.950424
7.660000	24.950424
7.670000	24.950424
7.680000	24.950424
7.690000	24.950424
7.700000	24.950424
7.710000	24.950424
7.720000	24.950424
7.730000	24.950424
7.740000	24.950424
7.750000	24.950424
7.760000	24.950424
7.770000	24.950424
7.780000	24.950424
7.790000	24.950424
7.800000	24.950424
7.810000	24.950424
7.820000	24.950424
7.830000	24.950424
7.840000	24.950424
7.850000	24.950424
7.860000	24.950424
7.870000	24.950424
7.880000	24.950424
7.890000	24.950424
7.900000	24.950424
7.910000	24.950424
7.920000	24.950424
7.930000	24.950424
7.940000	24.950424
7.950000	24.950424
7.960000	24.950424
7.970000	24.950424
7.980000	24.950424
7.990000	24.950424
8.000000	24.951589
8.010000	24.951589
8.020000	24.951589
8.030000	24.951589
8.040000	24.951589
8.050000	24.951589
8.060000	24.951589
8.070000	24.951589
8.080000	24.951589
8.090000	24.951589
8.100000	24.951589
8.110000	24.951589
8.120000	24.951589
8.130000	24.951589
8.140000	24.951589
8.150000	24.951589
8.160000	24.951589
8.170000	24.951589
8.180000	24.951589
8.190000	24.951589
8.200000	24.951589
8.210000	24.951589
8.220000	24.951589
8.230000	24.951589
8.240000	24.951589
8.250000	24.951589
8.260000	24.951589
8.270000	24.951589
8.280000	24.951589
8.290000	24.951589
8.300000	24.951589
8.310000	24.951589
8.320000	24.951589
8.330000	24.951589
8.340000	24.951589
8.350000	24.951589
8.360000	24.951589
8.370000	24.951589
8.380000	24.951589
8.390000	24.951589
8.400000	24.951589
8.410000	24.951589
8.420000	24.951589
8.430000	24.951589
8.440000	24.951589
8.450000	24.951589
8.460000	24.951589
8.470000	24.951589
8.480000	24.951589
8.490000	24.951589
8.500000	24.951563
8.510000	24.951563
8.520000	24.951563
8.530000	24.951563
8.540000	24.951563
8.550000	24.951563
8.560000	24.951563
8.570000	24.951563
8.580000	24.951563
8.590000	24.951563
8.600000	24.951563
8.610000	24.951563
8.620000	24.951563
8.630000	24.951563
8.640000	24.951563
8.650000	24.951563
8.660000	24.951563
8.670000	24.951563
8.680000	24.951563
8.690000	24.951563
8.700000	24.951563
8.710000	24.951563
8.720000	24.951563
8.730000	24.951563
8.740000	24.951563
8.750000	24.951563
8.760000	24.951563
8.770000	24.951563
8.780000	24.951563
8.790000	24.951563
8.800000	24.951563
8.810000	24.951563
8.820000	24.951563
8.830000	24.951563
8.840000	24.951563
8.850000	24.951563
8.860000	24.951563
8.870000	24.951563
8.880000	24.951563
8.890000	24.951563
8.900000	24.951563
8.910000	24.951563
8.920000	24.951563
8.930000	24.951563
8.940000	24.951563
8.950000	24.951563
8.960000	24.951563
8.970000	24.951563
8.980000	24.951563
8.990000	24.951563
9.000000	24.950683
9.010000	24.950683
9.020000	24.950683
9.030000	24.950683
9.040000	24.950683
9.050000	24.950683
9.060000	24.950683
9.070000	24.950683
9.080000	24.950683
9.090000	24.950683
9.100000	24.950683
9.110000	24.950683
9.120000	24.950683
9.130000	24.950683
9.140000	24.950683
9.150000	24.950683
9.160000	24.950683
9.170000	24.950683
9.180000	24.950683
9.190000	24.950683
9.200000	24.950683
9.210000	24.950683
9.220000	24.950683
9.230000	24.950683
9.240000	24.950683
9.250000	24.950683
9.260000	24.950683
9.270000	24.950683
9.280000	24.950683
9.290000	24.950683
9.300000	24.950683
9.310000	24.950683
9.320000	24.950683
9.330000	24.950683
9.340000	24.950683
9.350000	24.950683
9.360000	24.950683
9.370000	24.950683
9.380000	24.950683
9.390000	24.950683
9.400000	24.950683
9.410000	24.950683
9.420000	24.950683
9.430000	24.950683
9.440000	24.950683
9.450000	24.950683
9.460000	24.950683
9.470000	24.950683
9.480000	24.950683
9.490000	24.950683
9.500000	24.948956
9.510000	24.948956
9.520000	24.948956
9.530000	24.948956
9.540000	24.948956
9.550000	24.948956
9.560000	24.948956
9.570000	24.948956
9.580000	24.948956
9.590000	24.948956
9.600000	24.948956
9.610000	24.948956
9.620000	24.948956
9.630000	24.948956
9.640000	24.948956
9.650000	24.948956
9.660000	24.948956
9.670000	24.948956
9.680000	24.948956
9.690000	24.948956
9.700000	24.948956
9.710000	24.948956
9.720000	24.948956
9.730000	24.948956
9.740000	24.948956
9.750000	24.948956
9.760000	24.948956
9.770000	24.948956
9.780000	24.948956
9.790000	24.948956
9.800000	24.948956
9.810000	24.948956
9.820000	24.948956
9.830000	24.948956
9.840000	24.948956
9.850000	24.948956
9.860000	24.948956
9.870000	24.948956
9.880000	24.948956
9.890000	24.948956
9.900000	24.948956
9.910000	24.948956
9.920000	24.948956
9.930000	24.948956
9.940000	24.948956
9.950000	24.948956
9.960000	24.948956
9.970000	24.948956
9.980000	24.948956
9.990000	24.948956
10.000000	24.947082
10.010000	24.947082
10.020000	24.947082
10.030000	24.947082
10.040000	24.947082
10.050000	24.947082
10.060000	24.947082
10.070000	24.947082
10.080000	24.947082
10.090000	24.947082
10.100000	24.947082
10.110000	24.947082
10.120000	24.947082
10.130000	24.947082
10.140000	24.947082
10.150000	24.947082
10.160000	24.947082
10.170000	24.947082
10.180000	24.947082
10.190000	24.947082
10.200000	24.947082
10.210000	24.947082
10.220000	24.947082
10.230000	24.947082
10.240000	24.947082
10.250000	24.947082
10.260000	24.947082
10.270000	24.947082
10.280000	24.947082
10.290000	24.947082
10.300000	24.947082
10.310000	24.947082
10.320000	24.947082
10.330000	24.947082
10.340000	24.947082
10.350000	24.947082
10.360000	24.947082
10.370000	24.947082
10.380000	24.947082
10.390000	24.947082
10.400000	24.947082
10.410000	24.947082
10.420000	24.947082
10.430000	24.947082
10.440000	24.947082
10.450000	24.947082
10.460000	24.947082
10.470000	24.947082
10.480000	24.947082
10.490000	24.947082
10.500000	24.944793
10.510000	24.944793
10.520000	24.944793
10.530000	24.944793
10.540000	24.944793
10.550000	24.944793
10.560000	24.944793
10.570000	24.944793
10.580000	24.944793
10.590000	24.944793
10.600000	24.944793
10.610000	24.944793
10.620000	24.944793
10.630000	24.944793
10.640000	24.944793
10.650000	24.944793
10.660000	24.944793
10.670000	24.944793
10.680000	24.944793
10.690000	24.944793
10.700000	24.944793
10.710000	24.944793
10.720000	24.944793
10.730000	24.944793
10.740000	24.944793
10.750000	24.944793
10.760000	24.944793
10.770000	24.944793
10.780000	24.944793
10.790000	24.944793
10.800000	24.944793
10.810000	24.944793
10.820000	24.944793
10.830000	24.944793
10.840000	24.944793
10.850000	24.944793
10.860000	24.944793
10.870000	24.944793
10.880000	24.944793
10.890000	24.944793
10.900000	24.944793
10.910000	24.944793
10.920000	24.944793
10.930000	24.944793
10.940000	24.944793
10.950000	24.944793
10.960000	24.944793
10.970000	24.944793
10.980000	24.944793
10.990000	24.944793
11.000000	24.941701
11.010000	24.941701
11.020000	24.941701
11.030000	24.941701
11.040000	24.941701
11.050000	24.941701
11.060000	24.941701
11.070000	24.941701
11.080000	24.941701
11.090000	24.941701
11.100000	24.941701
11.110000	24.941701
11.120000	24.941701
11.130000	24.941701
11.140000	24.941701
11.150000	24.941701
11.160000	24.941701
11.170000	24.941701
11.180000	24.941701
11.190000	24.941701
11.200000	24.941701
11.210000	24.941701
11.220000	24.941701
11.230000	24.941701
11.240000	24.941701
11.250000	24.941701
11.260000	24.941701
11.270000	24.941701
11.280000	24.941701
11.290000	24.941701
11.300000	24.941701
11.310000	24.941701
11.320000	24.941701
11.330000	24.941701
11.340000	24.941701
11.350000	24.941701
11.360000	24.941701
11.370000	24.941701
11.380000	24.941701
11.390000	24.941701
11.400000	24.941701
11.410000	24.941701
11.420000	24.941701
11.430000	24.941701
11.440000	24.941701
11.450000	24.941701
11.460000	24.941701
11.470000	24.941701
11.480000	24.941701
11.490000	24.941701
11.500000	24.938428
11.510000	24.938428
11.520000	24.938428
11.530000	24.938428
11.540000	24.938428
11.550000	24.938428
11.560000	24.938428
11.570000	24.938428
11.580000	24.938428
11.590000	24.938428
11.600000	24.938428
11.610000	24.938428
11.620000	24.938428
11.630000	24.938428
11.640000	24.938428
11.650000	24.938428
11.660000	24.938428
11.670000	24.938428
11.680000	24.938428
11.690000	24.938428
11.700000	24.938428
11.710000	24.938428
11.720000	24.938428
11.730000	24.938428
11.740000	24.938428
11.750000	24.938428
11.760000	24.938428
11.770000	24.938428
11.780000	24.938428
11.790000	24.938428
11.800000	24.938428
11.810000	24.938428
11.820000	24.938428
11.830000	24.938428
11.840000	24.938428
11.850000	24.938428
11.860000	24.938428
11.870000	24.938428
11.880000	24.938428
11.890000	24.938428
11.900000	24.938428
11.910000	24.938428
11.920000	24.938428
11.930000	24.938428
11.940000	24.938428
11.950000	24.938428
11.960000	24.938428
11.970000	24.938428
11.980000	24.938428
11.990000	24.938428
12.000000	24.935353
12.010000	24.935353
12.020000	24.935353
12.030000	24.935353
12.040000	24.935353
12.050000	24.935353
12.060000	24.935353
12.070000	24.935353
12.080000	24.935353
12.090000	24.935353
12.100000	24.935353
12.110000	24.935353
12.120000	24.935353
12.130000	24.935353
12.140000	24.935353
12.150000	24.935353
12.160000	24.935353
12.170000	24.935353
12.180000	24.935353
12.190000	24.935353
12.200000	24.935353
12.210000	24.935353
12.220000	24.935353
12.230000	24.935353
12.240000	24.935353
12.250000	24.935353
12.260000	24.935353
12.270000	24.935353
12.280000	24.935353
12.290000	24.935353
12.300000	24.935353
12.310000	24.935353
12.320000	24.935353
12.330000	24.935353
12.340000	24.935353
12.350000	24.935353
12.360000	24.935353
12.370000	24.935353
12.380000	24.935353
12.390000	24.935353
12.400000	24.935353
12.410000	24.935353
12.420000	24.935353
12.430000	24.935353
12.440000	24.935353
12.450000	24.935353
12.460000	24.935353
12.470000	24.935353
12.480000	24.935353
12.490000	24.935353
12.500000	24.932156
12.510000	24.932156
12.520000	24.932156
12.530000	24.932156
12.540000	24.932156
12.550000	24.932156
12.560000	24.932156
12.570000	24.932156
12.580000	24.932156
12.590000	24.932156
12.600000	24.932156
12.610000	24.932156
12.620000	24.932156
12.630000	24.932156
12.640000	24.932156
12.650000	24.932156
12.660000	24.932156
12.670000	24.932156
12.680000	24.932156
12.690000	24.932156
12.700000	24.932156
12.710000	24.932156
12.720000	24.932156
12.730000	24.932156
12.740000	24.932156
12.750000	24.932156
12.760000	24.932156
12.770000	24.932156
12.780000	24.932156
12.790000	24.932156
12.800000	24.932156
12.810000	24.932156
12.820000	24.932156
12.830000	24.932156
12.840000	24.932156
12.850000	24.932156
12.860000	24.932156
12.870000	24.932156
12.880000	24.932156
12.890000	24.932156
12.900000	24.932156
12.910000	24.932156
12.920000	24.932156
12.930000	24.932156
12.940000	24.932156
12.950000	24.932156
12.960000	24.932156
12.970000	24.932156
12.980000	24.932156
12.990000	24.932156
13.000000	24.928494
13.010000	24.928494
13.020000	24.928494
13.030000	24.928494
13.040000	24.928494
13.050000	24.928494
13.060000	24.928494
13.070000	24.928494
13.080000	24.928494
13.090000	24.928494
13.100000	24.928494
13.110000	24.928494
13.120000	24.928494
13.130000	24.928494
13.140000	24.928494
13.150000	24.928494
13.160000	24.928494
13.170000	24.928494
13.180000	24.928494
13.190000	24.928494
13.200000	24.928494
13.210000	24.928494
13.220000	24.928494
13.230000	24.928494
13.240000	24.928494
13.250000	24.928494
13.260000	24.928494
13.270000	24.928494
13.280000	24.928494
13.290000	24.928494
13.300000	24.928494
13.310000	24.928494
13.320000	24.928494
13.330000	24.928494
13.340000	24.928494
13.350000	24.928494
13.360000	24.928494
13.370000	24.928494
13.380000	24.928494
13.390000	24.928494
13.400000	24.928494
13.410000	24.928494
13.420000	24.928494
13.430000	24.928494
13.440000	24.928494
13.450000	24.928494
13.460000	24.928494
13.470000	24.928494
13.480000	24.928494
13.490000	24.928494
13.500000	24.925064
13.510000	24.925064
13.520000	24.925064
13.530000	24.925064
13.540000	24.925064
13.550000	24.925064
13.560000	24.925064
13.570000	24.925064
13.580000	24.925064
13.590000	24.925064
13.600000	24.925064
13.610000	24.925064
13.620000	24.925064
13.630000	24.925064
13.640000	24.925064
13.650000	24.925064
13.660000	24.925064
13.670000	24.925064
13.680000	24.925064
13.690000	24.925064
13.700000	24.925064
13.710000	24.925064
13.720000	24.925064
13.730000	24.925064
13.740000	24.925064
13.750000	24.925064
13.760000	24.925064
13.770000	24.925064
13.780000	24.925064
13.790000	24.925064
13.800000	24.925064
13.810000	24.925064
13.820000	24.925064
13.830000	24.925064
13.840000	24.925064
13.850000	24.925064
13.860000	24.925064
13.870000	24.925064
13.880000	24.925064
13.890000	24.925064
13.900000	24.925064
13.910000	24.925064
13.920000	24.925064
13.930000	24.925064
13.940000	24.925064
13.950000	24.925064
13.960000	24.925064
13.970000	24.925064
13.980000	24.925064
13.990000	24.925064
14.000000	24.921867
14.010000	24.921867
14.020000	24.921867
14.030000	24.921867
14.040000	24.921867
14.050000	24.921867
14.060000	24.921867
14.070000	24.921867
14.080000	24.921867
14.090000	24.921867
14.100000	24.921867
14.110000	24.921867
14.120000	24.921867
14.130000	24.921867
14.140000	24.921867
14.150000	24.921867
14.160000	24.921867
14.170000	24.921867
14.180000	24.921867
14.190000	24.921867
14.200000	24.921867
14.210000	24.921867
14.220000	24.921867
14.230000	24.921867
14.240000	24.921867
14.250000	24.921867
14.260000	24.921867
14.270000	24.921867
14.280000	24.921867
14.290000	24.921867
14.300000	24.921867
14.310000	24.921867
14.320000	24.921867
14.330000	24.921867
14.340000	24.921867
14.350000	24.921867
14.360000	24.921867
14.370000	24.921867
14.380000	24.921867
14.390000	24.921867
14.400000	24.921867
14.410000	24.921867
14.420000	24.921867
14.430000	24.921867
14.440000	24.921867
14.450000	24.921867
14.460000	24.921867
14.470000	24.921867
14.480000	24.921867
14.490000	24.921867
14.500000	24.918428
14.510000	24.918428
14.520000	24.918428
14.530000	24.918428
14.540000	24.918428
14.550000	24.918428
14.560000	24.918428
14.570000	24.918428
14.580000	24.918428
14.590000	24.918428
14.600000	24.918428
14.610000	24.918428
14.620000	24.918428
14.630000	24.918428
14.640000	24.918428
14.650000	24.918428
14.660000	24.918428
14.670000	24.918428
14.680000	24.918428
14.690000	24.918428
14.700000	24.918428
14.710000	24.918428
14.720000	24.918428
14.730000	24.918428
14.740000	24.918428
14.750000	24.918428
14.760000	24.918428
14.770000	24.918428
14.780000	24.918428
14.790000	24.918428
14.800000	24.918428
14.810000	24.918428
14.820000	24.918428
14.830000	24.918428
14.840000	24.918428
14.850000	24.918428
14.860000	24.918428
14.870000	24.918428
14.880000	24.918428
14.890000	24.918428
14.900000	24.918428
14.910000	24.918428
14.920000	24.918428
14.930000	24.918428
14.940000	24.918428
14.950000	24.918428
14.960000	24.918428
14.970000	24.918428
14.980000	24.918428
14.990000	24.918428
15.000000	24.914384
15.010000	24.914384
15.020000	24.914384
15.030000	24.914384
15.040000	24.914384
15.050000	24.914384
15.060000	24.914384
15.070000	24.914384
15.080000	24.914384
15.090000	24.914384
15.100000	24.914384
15.110000	24.914384
15.120000	24.914384
15.130000	24.914384
15.140000	24.914384
15.150000	24.914384
15.160000	24.914384
15.170000	24.914384
15.180000	24.914384
15.190000	24.914384
15.200000	24.914384
15.210000	24.914384
15.220000	24.914384
15.230000	24.914384
15.240000	24.914384
15.250000	24.914384
15.260000	24.914384
15.270000	24.914384
15.280000	24.914384
15.290000	24.914384
15.300000	24.914384
15.310000	24.914384
15.320000	24.914384
15.330000	24.914384
15.340000	24.914384
15.350000	24.914384
15.360000	24.914384
15.370000	24.914384
15.380000	24.914384
15.390000	24.914384
15.400000	24.914384
15.410000	24.914384
15.420000	24.914384
15.430000	24.914384
15.440000	24.914384
15.450000	24.914384
15.460000	24.914384
15.470000	24.914384
15.480000	24.914384
15.490000	24.914384
15.500000	24.910313
15.510000	24.910313
15.520000	24.910313
15.530000	24.910313
15.540000	24.910313
15.550000	24.910313
15.560000	24.910313
15.570000	24.910313
15.580000	24.910313
15.590000	24.910313
15.600000	24.910313
15.610000	24.910313
15.620000	24.910313
15.630000	24.910313
15.640000	24.910313
15.650000	24.910313
15.660000	24.910313
15.670000	24.910313
15.680000	24.910313
15.690000	24.910313
15.700000	24.910313
15.710000	24.910313
15.720000	24.910313
15.730000	24.910313
15.740000	24.910313
15.750000	24.910313
15.760000	24.910313
15.770000	24.910313
15.780000	24.910313
15.790000	24.910313
15.800000	24.910313
15.810000	24.910313
15.820000	24.910313
15.830000	24.910313
15.840000	24.910313
15.850000	24.910313
15.860000	24.910313
15.870000	24.910313
15.880000	24.910313
15.890000	24.910313
15.900000	24.910313
15.910000	24.910313
15.920000	24.910313
15.930000	24.910313
15.940000	24.910313
15.950000	24.910313
15.960000	24.910313
15.970000	24.910313
15.980000	24.910313
15.990000	24.910313
16.000000	24.906260
16.010000	24.906260
16.020000	24.906260
16.030000	24.906260
16.040000	24.906260
16.050000	24.906260
16.060000	24.906260
16.070000	24.906260
16.080000	24.906260
16.090000	24.906260
16.100000	24.906260
16.110000	24.906260
16.120000	24.906260
16.130000	24.906260
16.140000	24.906260
16.150000	24.906260
16.160000	24.906260
16.170000	24.906260
16.180000	24.906260
16.190000	24.906260
16.200000	24.906260
16.210000	24.906260
16.220000	24.906260
16.230000	24.906260
16.240000	24.906260
16.250000	24.906260
16.260000	24.906260
16.270000	24.906260
16.280000	24.906260
16.290000	24.906260
16.300000	24.906260
16.310000	24.906260
16.320000	24.906260
16.330000	24.906260
16.340000	24.906260
16.350000	24.906260
16.360000	24.906260
16.370000	24.906260
16.380000	24.906260
16.390000	24.906260
16.400000	24.906260
16.410000	24.906260
16.420000	24.906260
16.430000	24.906260
16.440000	24.906260
16.450000	24.906260
16.460000	24.906260
16.470000	24.906260
16.480000	24.906260
16.490000	24.906260
16.500000	24.902387
16.510000	24.902387
16.520000	24.902387
16.530000	24.902387
16.540000	24.902387
16.550000	24.902387
16.560000	24.902387
16.570000	24.902387
16.580000	24.902387
16.590000	24.902387
16.600000	24.902387
16.610000	24.902387
16.620000	24.902387
16.630000	24.902387
16.640000	24.902387
16.650000	24.902387
16.660000	24.902387
16.670000	24.902387
16.680000	24.902387
16.690000	24.902387
16.700000	24.902387
16.710000	24.902387
16.720000	24.902387
16.730000	24.902387
16.740000	24.902387
16.750000	24.902387
16.760000	24.902387
16.770000	24.902387
16.780000	24.902387
16.790000	24.902387
16.800000	24.902387
16.810000	24.902387
16.820000	24.902387
16.830000	24.902387
16.840000	24.902387
16.850000	24.902387
16.860000	24.902387
16.870000	24.902387
16.880000	24.902387
16.890000	24.902387
16.900000	24.902387
16.910000	24.902387
16.920000	24.902387
16.930000	24.902387
16.940000	24.902387
16.950000	24.902387
16.960000	24.902387
16.970000	24.902387
16.980000	24.902387
16.990000	24.902387
17.000000	24.897356
17.010000	24.897356
17.020000	24.897356
17.030000	24.897356
17.040000	24.897356
17.050000	24.897356
17.060000	24.897356
17.070000	24.897356
17.080000	24.897356
17.090000	24.897356
17.100000	24.897356
17.110000	24.897356
17.120000	24.897356
17.130000	24.897356
17.140000	24.897356
17.150000	24.897356
17.160000	24.897356
17.170000	24.897356
17.180000	24.897356
17.190000	24.897356
17.200000	24.897356
17.210000	24.897356
17.220000	24.897356
17.230000	24.897356
17.240000	24.897356
17.250000	24.897356
17.260000	24.897356
17.270000	24.897356
17.280000	24.897356
17.290000	24.897356
17.300000	24.897356
17.310000	24.897356
17.320000	24.897356
17.330000	24.897356
17.340000	24.897356
17.350000	24.897356
17.360000	24.897356
17.370000	24.897356
17.380000	24.897356
17.390000	24.897356
17.400000	24.897356
17.410000	24.897356
17.420000	24.897356
17.430000	24.897356
17.440000	24.897356
17.450000	24.897356
17.460000	24.897356
17.470000	24.897356
17.480000	24.897356
17.490000	24.897356
17.500000	24.893449
17.510000	24.893449
17.520000	24.893449
17.530000	24.893449
17.540000	24.893449
17.550000	24.893449
17.560000	24.893449
17.570000	24.893449
17.580000	24.893449
17.590000	24.893449
17.600000	24.893449
17.610000	24.893449
17.620000	24.893449
17.630000	24.893449
17.640000	24.893449
17.650000	24.893449
17.660000	24.893449
17.670000	24.893449
17.680000	24.893449
17.690000	24.893449
17.700000	24.893449
17.710000	24.893449
17.720000	24.893449
17.730000	24.893449
17.740000	24.893449
17.750000	24.893449
17.760000	24.893449
17.770000	24.893449
17.780000	24.893449
17.790000	24.893449
17.800000	24.893449
17.810000	24.893449
17.820000	24.893449
17.830000	24.893449
17.840000	24.893449
17.850000	24.893449
17.860000	24.893449
17.870000	24.893449
17.880000	24.893449
17.890000	24.893449
17.900000	24.893449
17.910000	24.893449
17.920000	24.893449
17.930000	24.893449
17.940000	24.893449
17.950000	24.893449
17.960000	24.893449
17.970000	24.893449
17.980000	24.893449
17.990000	24.893449
