LabVIEW Measurement	
Writer_Version	2
Reader_Version	2
Separator	Tab
Decimal_Separator	.
Multi_Headings	No
X_Columns	One
Time_Pref	Absolute
Operator	biomech-dyno
Date	2023/05/23
Time	16:26:31.1792034999998606061
***End_of_Header***	
	
Channels	1	
Samples	10	
Date	2023/05/23	
Time	18:09:26.7933388999995426104	
X_Dimension	Time	
X0	0.0000000000000000E+0	
Delta_X	0.010000	
***End_of_Header***		
X_Value	Untitled	Comment
0.000000	24.879813
0.010000	24.879813
0.020000	24.879813
0.030000	24.879813
0.040000	24.879813
0.050000	24.879813
0.060000	24.879813
0.070000	24.879813
0.080000	24.879813
0.090000	24.879813
0.100000	24.879813
0.110000	24.879813
0.120000	24.879813
0.130000	24.879813
0.140000	24.879813
0.150000	24.879813
0.160000	24.879813
0.170000	24.879813
0.180000	24.879813
0.190000	24.879813
0.200000	24.879813
0.210000	24.879813
0.220000	24.879813
0.230000	24.879813
0.240000	24.879813
0.250000	24.879813
0.260000	24.879813
0.270000	24.879813
0.280000	24.879813
0.290000	24.879813
0.300000	24.879813
0.310000	24.879813
0.320000	24.879813
0.330000	24.879813
0.340000	24.879813
0.350000	24.879813
0.360000	24.879813
0.370000	24.879813
0.380000	24.879813
0.390000	24.879813
0.400000	24.879813
0.410000	24.879813
0.420000	24.879813
0.430000	24.879813
0.440000	24.879813
0.450000	24.879813
0.460000	24.879813
0.470000	24.879813
0.480000	24.879813
0.490000	24.879813
0.500000	24.887275
0.510000	24.887275
0.520000	24.887275
0.530000	24.887275
0.540000	24.887275
0.550000	24.887275
0.560000	24.887275
0.570000	24.887275
0.580000	24.887275
0.590000	24.887275
0.600000	24.887275
0.610000	24.887275
0.620000	24.887275
0.630000	24.887275
0.640000	24.887275
0.650000	24.887275
0.660000	24.887275
0.670000	24.887275
0.680000	24.887275
0.690000	24.887275
0.700000	24.887275
0.710000	24.887275
0.720000	24.887275
0.730000	24.887275
0.740000	24.887275
0.750000	24.887275
0.760000	24.887275
0.770000	24.887275
0.780000	24.887275
0.790000	24.887275
0.800000	24.887275
0.810000	24.887275
0.820000	24.887275
0.830000	24.887275
0.840000	24.887275
0.850000	24.887275
0.860000	24.887275
0.870000	24.887275
0.880000	24.887275
0.890000	24.887275
0.900000	24.887275
0.910000	24.887275
0.920000	24.887275
0.930000	24.887275
0.940000	24.887275
0.950000	24.887275
0.960000	24.887275
0.970000	24.887275
0.980000	24.887275
0.990000	24.887275
1.000000	24.895117
1.010000	24.895117
1.020000	24.895117
1.030000	24.895117
1.040000	24.895117
1.050000	24.895117
1.060000	24.895117
1.070000	24.895117
1.080000	24.895117
1.090000	24.895117
1.100000	24.895117
1.110000	24.895117
1.120000	24.895117
1.130000	24.895117
1.140000	24.895117
1.150000	24.895117
1.160000	24.895117
1.170000	24.895117
1.180000	24.895117
1.190000	24.895117
1.200000	24.895117
1.210000	24.895117
1.220000	24.895117
1.230000	24.895117
1.240000	24.895117
1.250000	24.895117
1.260000	24.895117
1.270000	24.895117
1.280000	24.895117
1.290000	24.895117
1.300000	24.895117
1.310000	24.895117
1.320000	24.895117
1.330000	24.895117
1.340000	24.895117
1.350000	24.895117
1.360000	24.895117
1.370000	24.895117
1.380000	24.895117
1.390000	24.895117
1.400000	24.895117
1.410000	24.895117
1.420000	24.895117
1.430000	24.895117
1.440000	24.895117
1.450000	24.895117
1.460000	24.895117
1.470000	24.895117
1.480000	24.895117
1.490000	24.895117
1.500000	24.903511
1.510000	24.903511
1.520000	24.903511
1.530000	24.903511
1.540000	24.903511
1.550000	24.903511
1.560000	24.903511
1.570000	24.903511
1.580000	24.903511
1.590000	24.903511
1.600000	24.903511
1.610000	24.903511
1.620000	24.903511
1.630000	24.903511
1.640000	24.903511
1.650000	24.903511
1.660000	24.903511
1.670000	24.903511
1.680000	24.903511
1.690000	24.903511
1.700000	24.903511
1.710000	24.903511
1.720000	24.903511
1.730000	24.903511
1.740000	24.903511
1.750000	24.903511
1.760000	24.903511
1.770000	24.903511
1.780000	24.903511
1.790000	24.903511
1.800000	24.903511
1.810000	24.903511
1.820000	24.903511
1.830000	24.903511
1.840000	24.903511
1.850000	24.903511
1.860000	24.903511
1.870000	24.903511
1.880000	24.903511
1.890000	24.903511
1.900000	24.903511
1.910000	24.903511
1.920000	24.903511
1.930000	24.903511
1.940000	24.903511
1.950000	24.903511
1.960000	24.903511
1.970000	24.903511
1.980000	24.903511
1.990000	24.903511
2.000000	24.912197
2.010000	24.912197
2.020000	24.912197
2.030000	24.912197
2.040000	24.912197
2.050000	24.912197
2.060000	24.912197
2.070000	24.912197
2.080000	24.912197
2.090000	24.912197
2.100000	24.912197
2.110000	24.912197
2.120000	24.912197
2.130000	24.912197
2.140000	24.912197
2.150000	24.912197
2.160000	24.912197
2.170000	24.912197
2.180000	24.912197
2.190000	24.912197
2.200000	24.912197
2.210000	24.912197
2.220000	24.912197
2.230000	24.912197
2.240000	24.912197
2.250000	24.912197
2.260000	24.912197
2.270000	24.912197
2.280000	24.912197
2.290000	24.912197
2.300000	24.912197
2.310000	24.912197
2.320000	24.912197
2.330000	24.912197
2.340000	24.912197
2.350000	24.912197
2.360000	24.912197
2.370000	24.912197
2.380000	24.912197
2.390000	24.912197
2.400000	24.912197
2.410000	24.912197
2.420000	24.912197
2.430000	24.912197
2.440000	24.912197
2.450000	24.912197
2.460000	24.912197
2.470000	24.912197
2.480000	24.912197
2.490000	24.912197
2.500000	24.921331
2.510000	24.921331
2.520000	24.921331
2.530000	24.921331
2.540000	24.921331
2.550000	24.921331
2.560000	24.921331
2.570000	24.921331
2.580000	24.921331
2.590000	24.921331
2.600000	24.921331
2.610000	24.921331
2.620000	24.921331
2.630000	24.921331
2.640000	24.921331
2.650000	24.921331
2.660000	24.921331
2.670000	24.921331
2.680000	24.921331
2.690000	24.921331
2.700000	24.921331
2.710000	24.921331
2.720000	24.921331
2.730000	24.921331
2.740000	24.921331
2.750000	24.921331
2.760000	24.921331
2.770000	24.921331
2.780000	24.921331
2.790000	24.921331
2.800000	24.921331
2.810000	24.921331
2.820000	24.921331
2.830000	24.921331
2.840000	24.921331
2.850000	24.921331
2.860000	24.921331
2.870000	24.921331
2.880000	24.921331
2.890000	24.921331
2.900000	24.921331
2.910000	24.921331
2.920000	24.921331
2.930000	24.921331
2.940000	24.921331
2.950000	24.921331
2.960000	24.921331
2.970000	24.921331
2.980000	24.921331
2.990000	24.921331
3.000000	24.931431
3.010000	24.931431
3.020000	24.931431
3.030000	24.931431
3.040000	24.931431
3.050000	24.931431
3.060000	24.931431
3.070000	24.931431
3.080000	24.931431
3.090000	24.931431
3.100000	24.931431
3.110000	24.931431
3.120000	24.931431
3.130000	24.931431
3.140000	24.931431
3.150000	24.931431
3.160000	24.931431
3.170000	24.931431
3.180000	24.931431
3.190000	24.931431
3.200000	24.931431
3.210000	24.931431
3.220000	24.931431
3.230000	24.931431
3.240000	24.931431
3.250000	24.931431
3.260000	24.931431
3.270000	24.931431
3.280000	24.931431
3.290000	24.931431
3.300000	24.931431
3.310000	24.931431
3.320000	24.931431
3.330000	24.931431
3.340000	24.931431
3.350000	24.931431
3.360000	24.931431
3.370000	24.931431
3.380000	24.931431
3.390000	24.931431
3.400000	24.931431
3.410000	24.931431
3.420000	24.931431
3.430000	24.931431
3.440000	24.931431
3.450000	24.931431
3.460000	24.931431
3.470000	24.931431
3.480000	24.931431
3.490000	24.931431
3.500000	24.940907
3.510000	24.940907
3.520000	24.940907
3.530000	24.940907
3.540000	24.940907
3.550000	24.940907
3.560000	24.940907
3.570000	24.940907
3.580000	24.940907
3.590000	24.940907
3.600000	24.940907
3.610000	24.940907
3.620000	24.940907
3.630000	24.940907
3.640000	24.940907
3.650000	24.940907
3.660000	24.940907
3.670000	24.940907
3.680000	24.940907
3.690000	24.940907
3.700000	24.940907
3.710000	24.940907
3.720000	24.940907
3.730000	24.940907
3.740000	24.940907
3.750000	24.940907
3.760000	24.940907
3.770000	24.940907
3.780000	24.940907
3.790000	24.940907
3.800000	24.940907
3.810000	24.940907
3.820000	24.940907
3.830000	24.940907
3.840000	24.940907
3.850000	24.940907
3.860000	24.940907
3.870000	24.940907
3.880000	24.940907
3.890000	24.940907
3.900000	24.940907
3.910000	24.940907
3.920000	24.940907
3.930000	24.940907
3.940000	24.940907
3.950000	24.940907
3.960000	24.940907
3.970000	24.940907
3.980000	24.940907
3.990000	24.940907
4.000000	24.950519
4.010000	24.950519
4.020000	24.950519
4.030000	24.950519
4.040000	24.950519
4.050000	24.950519
4.060000	24.950519
4.070000	24.950519
4.080000	24.950519
4.090000	24.950519
4.100000	24.950519
4.110000	24.950519
4.120000	24.950519
4.130000	24.950519
4.140000	24.950519
4.150000	24.950519
4.160000	24.950519
4.170000	24.950519
4.180000	24.950519
4.190000	24.950519
4.200000	24.950519
4.210000	24.950519
4.220000	24.950519
4.230000	24.950519
4.240000	24.950519
4.250000	24.950519
4.260000	24.950519
4.270000	24.950519
4.280000	24.950519
4.290000	24.950519
4.300000	24.950519
4.310000	24.950519
4.320000	24.950519
4.330000	24.950519
4.340000	24.950519
4.350000	24.950519
4.360000	24.950519
4.370000	24.950519
4.380000	24.950519
4.390000	24.950519
4.400000	24.950519
4.410000	24.950519
4.420000	24.950519
4.430000	24.950519
4.440000	24.950519
4.450000	24.950519
4.460000	24.950519
4.470000	24.950519
4.480000	24.950519
4.490000	24.950519
4.500000	24.959628
4.510000	24.959628
4.520000	24.959628
4.530000	24.959628
4.540000	24.959628
4.550000	24.959628
4.560000	24.959628
4.570000	24.959628
4.580000	24.959628
4.590000	24.959628
4.600000	24.959628
4.610000	24.959628
4.620000	24.959628
4.630000	24.959628
4.640000	24.959628
4.650000	24.959628
4.660000	24.959628
4.670000	24.959628
4.680000	24.959628
4.690000	24.959628
4.700000	24.959628
4.710000	24.959628
4.720000	24.959628
4.730000	24.959628
4.740000	24.959628
4.750000	24.959628
4.760000	24.959628
4.770000	24.959628
4.780000	24.959628
4.790000	24.959628
4.800000	24.959628
4.810000	24.959628
4.820000	24.959628
4.830000	24.959628
4.840000	24.959628
4.850000	24.959628
4.860000	24.959628
4.870000	24.959628
4.880000	24.959628
4.890000	24.959628
4.900000	24.959628
4.910000	24.959628
4.920000	24.959628
4.930000	24.959628
4.940000	24.959628
4.950000	24.959628
4.960000	24.959628
4.970000	24.959628
4.980000	24.959628
4.990000	24.959628
5.000000	24.966914
5.010000	24.966914
5.020000	24.966914
5.030000	24.966914
5.040000	24.966914
5.050000	24.966914
5.060000	24.966914
5.070000	24.966914
5.080000	24.966914
5.090000	24.966914
5.100000	24.966914
5.110000	24.966914
5.120000	24.966914
5.130000	24.966914
5.140000	24.966914
5.150000	24.966914
5.160000	24.966914
5.170000	24.966914
5.180000	24.966914
5.190000	24.966914
5.200000	24.966914
5.210000	24.966914
5.220000	24.966914
5.230000	24.966914
5.240000	24.966914
5.250000	24.966914
5.260000	24.966914
5.270000	24.966914
5.280000	24.966914
5.290000	24.966914
5.300000	24.966914
5.310000	24.966914
5.320000	24.966914
5.330000	24.966914
5.340000	24.966914
5.350000	24.966914
5.360000	24.966914
5.370000	24.966914
5.380000	24.966914
5.390000	24.966914
5.400000	24.966914
5.410000	24.966914
5.420000	24.966914
5.430000	24.966914
5.440000	24.966914
5.450000	24.966914
5.460000	24.966914
5.470000	24.966914
5.480000	24.966914
5.490000	24.966914
5.500000	24.972844
5.510000	24.972844
5.520000	24.972844
5.530000	24.972844
5.540000	24.972844
5.550000	24.972844
5.560000	24.972844
5.570000	24.972844
5.580000	24.972844
5.590000	24.972844
5.600000	24.972844
5.610000	24.972844
5.620000	24.972844
5.630000	24.972844
5.640000	24.972844
5.650000	24.972844
5.660000	24.972844
5.670000	24.972844
5.680000	24.972844
5.690000	24.972844
5.700000	24.972844
5.710000	24.972844
5.720000	24.972844
5.730000	24.972844
5.740000	24.972844
5.750000	24.972844
5.760000	24.972844
5.770000	24.972844
5.780000	24.972844
5.790000	24.972844
5.800000	24.972844
5.810000	24.972844
5.820000	24.972844
5.830000	24.972844
5.840000	24.972844
5.850000	24.972844
5.860000	24.972844
5.870000	24.972844
5.880000	24.972844
5.890000	24.972844
5.900000	24.972844
5.910000	24.972844
5.920000	24.972844
5.930000	24.972844
5.940000	24.972844
5.950000	24.972844
5.960000	24.972844
5.970000	24.972844
5.980000	24.972844
5.990000	24.972844
6.000000	24.977876
6.010000	24.977876
6.020000	24.977876
6.030000	24.977876
6.040000	24.977876
6.050000	24.977876
6.060000	24.977876
6.070000	24.977876
6.080000	24.977876
6.090000	24.977876
6.100000	24.977876
6.110000	24.977876
6.120000	24.977876
6.130000	24.977876
6.140000	24.977876
6.150000	24.977876
6.160000	24.977876
6.170000	24.977876
6.180000	24.977876
6.190000	24.977876
6.200000	24.977876
6.210000	24.977876
6.220000	24.977876
6.230000	24.977876
6.240000	24.977876
6.250000	24.977876
6.260000	24.977876
6.270000	24.977876
6.280000	24.977876
6.290000	24.977876
6.300000	24.977876
6.310000	24.977876
6.320000	24.977876
6.330000	24.977876
6.340000	24.977876
6.350000	24.977876
6.360000	24.977876
6.370000	24.977876
6.380000	24.977876
6.390000	24.977876
6.400000	24.977876
6.410000	24.977876
6.420000	24.977876
6.430000	24.977876
6.440000	24.977876
6.450000	24.977876
6.460000	24.977876
6.470000	24.977876
6.480000	24.977876
6.490000	24.977876
6.500000	24.981777
6.510000	24.981777
6.520000	24.981777
6.530000	24.981777
6.540000	24.981777
6.550000	24.981777
6.560000	24.981777
6.570000	24.981777
6.580000	24.981777
6.590000	24.981777
6.600000	24.981777
6.610000	24.981777
6.620000	24.981777
6.630000	24.981777
6.640000	24.981777
6.650000	24.981777
6.660000	24.981777
6.670000	24.981777
6.680000	24.981777
6.690000	24.981777
6.700000	24.981777
6.710000	24.981777
6.720000	24.981777
6.730000	24.981777
6.740000	24.981777
6.750000	24.981777
6.760000	24.981777
6.770000	24.981777
6.780000	24.981777
6.790000	24.981777
6.800000	24.981777
6.810000	24.981777
6.820000	24.981777
6.830000	24.981777
6.840000	24.981777
6.850000	24.981777
6.860000	24.981777
6.870000	24.981777
6.880000	24.981777
6.890000	24.981777
6.900000	24.981777
6.910000	24.981777
6.920000	24.981777
6.930000	24.981777
6.940000	24.981777
6.950000	24.981777
6.960000	24.981777
6.970000	24.981777
6.980000	24.981777
6.990000	24.981777
7.000000	24.984607
7.010000	24.984607
7.020000	24.984607
7.030000	24.984607
7.040000	24.984607
7.050000	24.984607
7.060000	24.984607
7.070000	24.984607
7.080000	24.984607
7.090000	24.984607
7.100000	24.984607
7.110000	24.984607
7.120000	24.984607
7.130000	24.984607
7.140000	24.984607
7.150000	24.984607
7.160000	24.984607
7.170000	24.984607
7.180000	24.984607
7.190000	24.984607
7.200000	24.984607
7.210000	24.984607
7.220000	24.984607
7.230000	24.984607
7.240000	24.984607
7.250000	24.984607
7.260000	24.984607
7.270000	24.984607
7.280000	24.984607
7.290000	24.984607
7.300000	24.984607
7.310000	24.984607
7.320000	24.984607
7.330000	24.984607
7.340000	24.984607
7.350000	24.984607
7.360000	24.984607
7.370000	24.984607
7.380000	24.984607
7.390000	24.984607
7.400000	24.984607
7.410000	24.984607
7.420000	24.984607
7.430000	24.984607
7.440000	24.984607
7.450000	24.984607
7.460000	24.984607
7.470000	24.984607
7.480000	24.984607
7.490000	24.984607
7.500000	24.986963
7.510000	24.986963
7.520000	24.986963
7.530000	24.986963
7.540000	24.986963
7.550000	24.986963
7.560000	24.986963
7.570000	24.986963
7.580000	24.986963
7.590000	24.986963
7.600000	24.986963
7.610000	24.986963
7.620000	24.986963
7.630000	24.986963
7.640000	24.986963
7.650000	24.986963
7.660000	24.986963
7.670000	24.986963
7.680000	24.986963
7.690000	24.986963
7.700000	24.986963
7.710000	24.986963
7.720000	24.986963
7.730000	24.986963
7.740000	24.986963
7.750000	24.986963
7.760000	24.986963
7.770000	24.986963
7.780000	24.986963
7.790000	24.986963
7.800000	24.986963
7.810000	24.986963
7.820000	24.986963
7.830000	24.986963
7.840000	24.986963
7.850000	24.986963
7.860000	24.986963
7.870000	24.986963
7.880000	24.986963
7.890000	24.986963
7.900000	24.986963
7.910000	24.986963
7.920000	24.986963
7.930000	24.986963
7.940000	24.986963
7.950000	24.986963
7.960000	24.986963
7.970000	24.986963
7.980000	24.986963
7.990000	24.986963
8.000000	24.988870
8.010000	24.988870
8.020000	24.988870
8.030000	24.988870
8.040000	24.988870
8.050000	24.988870
8.060000	24.988870
8.070000	24.988870
8.080000	24.988870
8.090000	24.988870
8.100000	24.988870
8.110000	24.988870
8.120000	24.988870
8.130000	24.988870
8.140000	24.988870
8.150000	24.988870
8.160000	24.988870
8.170000	24.988870
8.180000	24.988870
8.190000	24.988870
8.200000	24.988870
8.210000	24.988870
8.220000	24.988870
8.230000	24.988870
8.240000	24.988870
8.250000	24.988870
8.260000	24.988870
8.270000	24.988870
8.280000	24.988870
8.290000	24.988870
8.300000	24.988870
8.310000	24.988870
8.320000	24.988870
8.330000	24.988870
8.340000	24.988870
8.350000	24.988870
8.360000	24.988870
8.370000	24.988870
8.380000	24.988870
8.390000	24.988870
8.400000	24.988870
8.410000	24.988870
8.420000	24.988870
8.430000	24.988870
8.440000	24.988870
8.450000	24.988870
8.460000	24.988870
8.470000	24.988870
8.480000	24.988870
8.490000	24.988870
8.500000	24.990155
8.510000	24.990155
8.520000	24.990155
8.530000	24.990155
8.540000	24.990155
8.550000	24.990155
8.560000	24.990155
8.570000	24.990155
8.580000	24.990155
8.590000	24.990155
8.600000	24.990155
8.610000	24.990155
8.620000	24.990155
8.630000	24.990155
8.640000	24.990155
8.650000	24.990155
8.660000	24.990155
8.670000	24.990155
8.680000	24.990155
8.690000	24.990155
8.700000	24.990155
8.710000	24.990155
8.720000	24.990155
8.730000	24.990155
8.740000	24.990155
8.750000	24.990155
8.760000	24.990155
8.770000	24.990155
8.780000	24.990155
8.790000	24.990155
8.800000	24.990155
8.810000	24.990155
8.820000	24.990155
8.830000	24.990155
8.840000	24.990155
8.850000	24.990155
8.860000	24.990155
8.870000	24.990155
8.880000	24.990155
8.890000	24.990155
8.900000	24.990155
8.910000	24.990155
8.920000	24.990155
8.930000	24.990155
8.940000	24.990155
8.950000	24.990155
8.960000	24.990155
8.970000	24.990155
8.980000	24.990155
8.990000	24.990155
9.000000	24.991053
9.010000	24.991053
9.020000	24.991053
9.030000	24.991053
9.040000	24.991053
9.050000	24.991053
9.060000	24.991053
9.070000	24.991053
9.080000	24.991053
9.090000	24.991053
9.100000	24.991053
9.110000	24.991053
9.120000	24.991053
9.130000	24.991053
9.140000	24.991053
9.150000	24.991053
9.160000	24.991053
9.170000	24.991053
9.180000	24.991053
9.190000	24.991053
9.200000	24.991053
9.210000	24.991053
9.220000	24.991053
9.230000	24.991053
9.240000	24.991053
9.250000	24.991053
9.260000	24.991053
9.270000	24.991053
9.280000	24.991053
9.290000	24.991053
9.300000	24.991053
9.310000	24.991053
9.320000	24.991053
9.330000	24.991053
9.340000	24.991053
9.350000	24.991053
9.360000	24.991053
9.370000	24.991053
9.380000	24.991053
9.390000	24.991053
9.400000	24.991053
9.410000	24.991053
9.420000	24.991053
9.430000	24.991053
9.440000	24.991053
9.450000	24.991053
9.460000	24.991053
9.470000	24.991053
9.480000	24.991053
9.490000	24.991053
9.500000	24.990725
9.510000	24.990725
9.520000	24.990725
9.530000	24.990725
9.540000	24.990725
9.550000	24.990725
9.560000	24.990725
9.570000	24.990725
9.580000	24.990725
9.590000	24.990725
9.600000	24.990725
9.610000	24.990725
9.620000	24.990725
9.630000	24.990725
9.640000	24.990725
9.650000	24.990725
9.660000	24.990725
9.670000	24.990725
9.680000	24.990725
9.690000	24.990725
9.700000	24.990725
9.710000	24.990725
9.720000	24.990725
9.730000	24.990725
9.740000	24.990725
9.750000	24.990725
9.760000	24.990725
9.770000	24.990725
9.780000	24.990725
9.790000	24.990725
9.800000	24.990725
9.810000	24.990725
9.820000	24.990725
9.830000	24.990725
9.840000	24.990725
9.850000	24.990725
9.860000	24.990725
9.870000	24.990725
9.880000	24.990725
9.890000	24.990725
9.900000	24.990725
9.910000	24.990725
9.920000	24.990725
9.930000	24.990725
9.940000	24.990725
9.950000	24.990725
9.960000	24.990725
9.970000	24.990725
9.980000	24.990725
9.990000	24.990725
10.000000	24.989957
10.010000	24.989957
10.020000	24.989957
10.030000	24.989957
10.040000	24.989957
10.050000	24.989957
10.060000	24.989957
10.070000	24.989957
10.080000	24.989957
10.090000	24.989957
10.100000	24.989957
10.110000	24.989957
10.120000	24.989957
10.130000	24.989957
10.140000	24.989957
10.150000	24.989957
10.160000	24.989957
10.170000	24.989957
10.180000	24.989957
10.190000	24.989957
10.200000	24.989957
10.210000	24.989957
10.220000	24.989957
10.230000	24.989957
10.240000	24.989957
10.250000	24.989957
10.260000	24.989957
10.270000	24.989957
10.280000	24.989957
10.290000	24.989957
10.300000	24.989957
10.310000	24.989957
10.320000	24.989957
10.330000	24.989957
10.340000	24.989957
10.350000	24.989957
10.360000	24.989957
10.370000	24.989957
10.380000	24.989957
10.390000	24.989957
10.400000	24.989957
10.410000	24.989957
10.420000	24.989957
10.430000	24.989957
10.440000	24.989957
10.450000	24.989957
10.460000	24.989957
10.470000	24.989957
10.480000	24.989957
10.490000	24.989957
10.500000	24.989543
10.510000	24.989543
10.520000	24.989543
10.530000	24.989543
10.540000	24.989543
10.550000	24.989543
10.560000	24.989543
10.570000	24.989543
10.580000	24.989543
10.590000	24.989543
10.600000	24.989543
10.610000	24.989543
10.620000	24.989543
10.630000	24.989543
10.640000	24.989543
10.650000	24.989543
10.660000	24.989543
10.670000	24.989543
10.680000	24.989543
10.690000	24.989543
10.700000	24.989543
10.710000	24.989543
10.720000	24.989543
10.730000	24.989543
10.740000	24.989543
10.750000	24.989543
10.760000	24.989543
10.770000	24.989543
10.780000	24.989543
10.790000	24.989543
10.800000	24.989543
10.810000	24.989543
10.820000	24.989543
10.830000	24.989543
10.840000	24.989543
10.850000	24.989543
10.860000	24.989543
10.870000	24.989543
10.880000	24.989543
10.890000	24.989543
10.900000	24.989543
10.910000	24.989543
10.920000	24.989543
10.930000	24.989543
10.940000	24.989543
10.950000	24.989543
10.960000	24.989543
10.970000	24.989543
10.980000	24.989543
10.990000	24.989543
11.000000	24.988706
11.010000	24.988706
11.020000	24.988706
11.030000	24.988706
11.040000	24.988706
11.050000	24.988706
11.060000	24.988706
11.070000	24.988706
11.080000	24.988706
11.090000	24.988706
11.100000	24.988706
11.110000	24.988706
11.120000	24.988706
11.130000	24.988706
11.140000	24.988706
11.150000	24.988706
11.160000	24.988706
11.170000	24.988706
11.180000	24.988706
11.190000	24.988706
11.200000	24.988706
11.210000	24.988706
11.220000	24.988706
11.230000	24.988706
11.240000	24.988706
11.250000	24.988706
11.260000	24.988706
11.270000	24.988706
11.280000	24.988706
11.290000	24.988706
11.300000	24.988706
11.310000	24.988706
11.320000	24.988706
11.330000	24.988706
11.340000	24.988706
11.350000	24.988706
11.360000	24.988706
11.370000	24.988706
11.380000	24.988706
11.390000	24.988706
11.400000	24.988706
11.410000	24.988706
11.420000	24.988706
11.430000	24.988706
11.440000	24.988706
11.450000	24.988706
11.460000	24.988706
11.470000	24.988706
11.480000	24.988706
11.490000	24.988706
11.500000	24.988154
11.510000	24.988154
11.520000	24.988154
11.530000	24.988154
11.540000	24.988154
11.550000	24.988154
11.560000	24.988154
11.570000	24.988154
11.580000	24.988154
11.590000	24.988154
11.600000	24.988154
11.610000	24.988154
11.620000	24.988154
11.630000	24.988154
11.640000	24.988154
11.650000	24.988154
11.660000	24.988154
11.670000	24.988154
11.680000	24.988154
11.690000	24.988154
11.700000	24.988154
11.710000	24.988154
11.720000	24.988154
11.730000	24.988154
11.740000	24.988154
11.750000	24.988154
11.760000	24.988154
11.770000	24.988154
11.780000	24.988154
11.790000	24.988154
11.800000	24.988154
11.810000	24.988154
11.820000	24.988154
11.830000	24.988154
11.840000	24.988154
11.850000	24.988154
11.860000	24.988154
11.870000	24.988154
11.880000	24.988154
11.890000	24.988154
11.900000	24.988154
11.910000	24.988154
11.920000	24.988154
11.930000	24.988154
11.940000	24.988154
11.950000	24.988154
11.960000	24.988154
11.970000	24.988154
11.980000	24.988154
11.990000	24.988154
12.000000	24.987239
12.010000	24.987239
12.020000	24.987239
12.030000	24.987239
12.040000	24.987239
12.050000	24.987239
12.060000	24.987239
12.070000	24.987239
12.080000	24.987239
12.090000	24.987239
12.100000	24.987239
12.110000	24.987239
12.120000	24.987239
12.130000	24.987239
12.140000	24.987239
12.150000	24.987239
12.160000	24.987239
12.170000	24.987239
12.180000	24.987239
12.190000	24.987239
12.200000	24.987239
12.210000	24.987239
12.220000	24.987239
12.230000	24.987239
12.240000	24.987239
12.250000	24.987239
12.260000	24.987239
12.270000	24.987239
12.280000	24.987239
12.290000	24.987239
12.300000	24.987239
12.310000	24.987239
12.320000	24.987239
12.330000	24.987239
12.340000	24.987239
12.350000	24.987239
12.360000	24.987239
12.370000	24.987239
12.380000	24.987239
12.390000	24.987239
12.400000	24.987239
12.410000	24.987239
12.420000	24.987239
12.430000	24.987239
12.440000	24.987239
12.450000	24.987239
12.460000	24.987239
12.470000	24.987239
12.480000	24.987239
12.490000	24.987239
12.500000	24.986083
12.510000	24.986083
12.520000	24.986083
12.530000	24.986083
12.540000	24.986083
12.550000	24.986083
12.560000	24.986083
12.570000	24.986083
12.580000	24.986083
12.590000	24.986083
12.600000	24.986083
12.610000	24.986083
12.620000	24.986083
12.630000	24.986083
12.640000	24.986083
12.650000	24.986083
12.660000	24.986083
12.670000	24.986083
12.680000	24.986083
12.690000	24.986083
12.700000	24.986083
12.710000	24.986083
12.720000	24.986083
12.730000	24.986083
12.740000	24.986083
12.750000	24.986083
12.760000	24.986083
12.770000	24.986083
12.780000	24.986083
12.790000	24.986083
12.800000	24.986083
12.810000	24.986083
12.820000	24.986083
12.830000	24.986083
12.840000	24.986083
12.850000	24.986083
12.860000	24.986083
12.870000	24.986083
12.880000	24.986083
12.890000	24.986083
12.900000	24.986083
12.910000	24.986083
12.920000	24.986083
12.930000	24.986083
12.940000	24.986083
12.950000	24.986083
12.960000	24.986083
12.970000	24.986083
12.980000	24.986083
12.990000	24.986083
13.000000	24.985341
13.010000	24.985341
13.020000	24.985341
13.030000	24.985341
13.040000	24.985341
13.050000	24.985341
13.060000	24.985341
13.070000	24.985341
13.080000	24.985341
13.090000	24.985341
13.100000	24.985341
13.110000	24.985341
13.120000	24.985341
13.130000	24.985341
13.140000	24.985341
13.150000	24.985341
13.160000	24.985341
13.170000	24.985341
13.180000	24.985341
13.190000	24.985341
13.200000	24.985341
13.210000	24.985341
13.220000	24.985341
13.230000	24.985341
13.240000	24.985341
13.250000	24.985341
13.260000	24.985341
13.270000	24.985341
13.280000	24.985341
13.290000	24.985341
13.300000	24.985341
13.310000	24.985341
13.320000	24.985341
13.330000	24.985341
13.340000	24.985341
13.350000	24.985341
13.360000	24.985341
13.370000	24.985341
13.380000	24.985341
13.390000	24.985341
13.400000	24.985341
13.410000	24.985341
13.420000	24.985341
13.430000	24.985341
13.440000	24.985341
13.450000	24.985341
13.460000	24.985341
13.470000	24.985341
13.480000	24.985341
13.490000	24.985341
13.500000	24.983416
13.510000	24.983416
13.520000	24.983416
13.530000	24.983416
13.540000	24.983416
13.550000	24.983416
13.560000	24.983416
13.570000	24.983416
13.580000	24.983416
13.590000	24.983416
13.600000	24.983416
13.610000	24.983416
13.620000	24.983416
13.630000	24.983416
13.640000	24.983416
13.650000	24.983416
13.660000	24.983416
13.670000	24.983416
13.680000	24.983416
13.690000	24.983416
13.700000	24.983416
13.710000	24.983416
13.720000	24.983416
13.730000	24.983416
13.740000	24.983416
13.750000	24.983416
13.760000	24.983416
13.770000	24.983416
13.780000	24.983416
13.790000	24.983416
13.800000	24.983416
13.810000	24.983416
13.820000	24.983416
13.830000	24.983416
13.840000	24.983416
13.850000	24.983416
13.860000	24.983416
13.870000	24.983416
13.880000	24.983416
13.890000	24.983416
13.900000	24.983416
13.910000	24.983416
13.920000	24.983416
13.930000	24.983416
13.940000	24.983416
13.950000	24.983416
13.960000	24.983416
13.970000	24.983416
13.980000	24.983416
13.990000	24.983416
14.000000	24.981898
14.010000	24.981898
14.020000	24.981898
14.030000	24.981898
14.040000	24.981898
14.050000	24.981898
14.060000	24.981898
14.070000	24.981898
14.080000	24.981898
14.090000	24.981898
14.100000	24.981898
14.110000	24.981898
14.120000	24.981898
14.130000	24.981898
14.140000	24.981898
14.150000	24.981898
14.160000	24.981898
14.170000	24.981898
14.180000	24.981898
14.190000	24.981898
14.200000	24.981898
14.210000	24.981898
14.220000	24.981898
14.230000	24.981898
14.240000	24.981898
14.250000	24.981898
14.260000	24.981898
14.270000	24.981898
14.280000	24.981898
14.290000	24.981898
14.300000	24.981898
14.310000	24.981898
14.320000	24.981898
14.330000	24.981898
14.340000	24.981898
14.350000	24.981898
14.360000	24.981898
14.370000	24.981898
14.380000	24.981898
14.390000	24.981898
14.400000	24.981898
14.410000	24.981898
14.420000	24.981898
14.430000	24.981898
14.440000	24.981898
14.450000	24.981898
14.460000	24.981898
14.470000	24.981898
14.480000	24.981898
14.490000	24.981898
14.500000	24.979835
14.510000	24.979835
14.520000	24.979835
14.530000	24.979835
14.540000	24.979835
14.550000	24.979835
14.560000	24.979835
14.570000	24.979835
14.580000	24.979835
14.590000	24.979835
14.600000	24.979835
14.610000	24.979835
14.620000	24.979835
14.630000	24.979835
14.640000	24.979835
14.650000	24.979835
14.660000	24.979835
14.670000	24.979835
14.680000	24.979835
14.690000	24.979835
14.700000	24.979835
14.710000	24.979835
14.720000	24.979835
14.730000	24.979835
14.740000	24.979835
14.750000	24.979835
14.760000	24.979835
14.770000	24.979835
14.780000	24.979835
14.790000	24.979835
14.800000	24.979835
14.810000	24.979835
14.820000	24.979835
14.830000	24.979835
14.840000	24.979835
14.850000	24.979835
14.860000	24.979835
14.870000	24.979835
14.880000	24.979835
14.890000	24.979835
14.900000	24.979835
14.910000	24.979835
14.920000	24.979835
14.930000	24.979835
14.940000	24.979835
14.950000	24.979835
14.960000	24.979835
14.970000	24.979835
14.980000	24.979835
14.990000	24.979835
15.000000	24.977393
15.010000	24.977393
15.020000	24.977393
15.030000	24.977393
15.040000	24.977393
15.050000	24.977393
15.060000	24.977393
15.070000	24.977393
15.080000	24.977393
15.090000	24.977393
15.100000	24.977393
15.110000	24.977393
15.120000	24.977393
15.130000	24.977393
15.140000	24.977393
15.150000	24.977393
15.160000	24.977393
15.170000	24.977393
15.180000	24.977393
15.190000	24.977393
15.200000	24.977393
15.210000	24.977393
15.220000	24.977393
15.230000	24.977393
15.240000	24.977393
15.250000	24.977393
15.260000	24.977393
15.270000	24.977393
15.280000	24.977393
15.290000	24.977393
15.300000	24.977393
15.310000	24.977393
15.320000	24.977393
15.330000	24.977393
15.340000	24.977393
15.350000	24.977393
15.360000	24.977393
15.370000	24.977393
15.380000	24.977393
15.390000	24.977393
15.400000	24.977393
15.410000	24.977393
15.420000	24.977393
15.430000	24.977393
15.440000	24.977393
15.450000	24.977393
15.460000	24.977393
15.470000	24.977393
15.480000	24.977393
15.490000	24.977393
15.500000	24.974130
15.510000	24.974130
15.520000	24.974130
15.530000	24.974130
15.540000	24.974130
15.550000	24.974130
15.560000	24.974130
15.570000	24.974130
15.580000	24.974130
15.590000	24.974130
15.600000	24.974130
15.610000	24.974130
15.620000	24.974130
15.630000	24.974130
15.640000	24.974130
15.650000	24.974130
15.660000	24.974130
15.670000	24.974130
15.680000	24.974130
15.690000	24.974130
15.700000	24.974130
15.710000	24.974130
15.720000	24.974130
15.730000	24.974130
15.740000	24.974130
15.750000	24.974130
15.760000	24.974130
15.770000	24.974130
15.780000	24.974130
15.790000	24.974130
15.800000	24.974130
15.810000	24.974130
15.820000	24.974130
15.830000	24.974130
15.840000	24.974130
15.850000	24.974130
15.860000	24.974130
15.870000	24.974130
15.880000	24.974130
15.890000	24.974130
15.900000	24.974130
15.910000	24.974130
15.920000	24.974130
15.930000	24.974130
15.940000	24.974130
15.950000	24.974130
15.960000	24.974130
15.970000	24.974130
15.980000	24.974130
15.990000	24.974130
16.000000	24.972162
16.010000	24.972162
16.020000	24.972162
16.030000	24.972162
16.040000	24.972162
16.050000	24.972162
16.060000	24.972162
16.070000	24.972162
16.080000	24.972162
16.090000	24.972162
16.100000	24.972162
16.110000	24.972162
16.120000	24.972162
16.130000	24.972162
16.140000	24.972162
16.150000	24.972162
16.160000	24.972162
16.170000	24.972162
16.180000	24.972162
16.190000	24.972162
16.200000	24.972162
16.210000	24.972162
16.220000	24.972162
16.230000	24.972162
16.240000	24.972162
16.250000	24.972162
16.260000	24.972162
16.270000	24.972162
16.280000	24.972162
16.290000	24.972162
16.300000	24.972162
16.310000	24.972162
16.320000	24.972162
16.330000	24.972162
16.340000	24.972162
16.350000	24.972162
16.360000	24.972162
16.370000	24.972162
16.380000	24.972162
16.390000	24.972162
16.400000	24.972162
16.410000	24.972162
16.420000	24.972162
16.430000	24.972162
16.440000	24.972162
16.450000	24.972162
16.460000	24.972162
16.470000	24.972162
16.480000	24.972162
16.490000	24.972162
16.500000	24.968615
16.510000	24.968615
16.520000	24.968615
16.530000	24.968615
16.540000	24.968615
16.550000	24.968615
16.560000	24.968615
16.570000	24.968615
16.580000	24.968615
16.590000	24.968615
16.600000	24.968615
16.610000	24.968615
16.620000	24.968615
16.630000	24.968615
16.640000	24.968615
16.650000	24.968615
16.660000	24.968615
16.670000	24.968615
16.680000	24.968615
16.690000	24.968615
16.700000	24.968615
16.710000	24.968615
16.720000	24.968615
16.730000	24.968615
16.740000	24.968615
16.750000	24.968615
16.760000	24.968615
16.770000	24.968615
16.780000	24.968615
16.790000	24.968615
16.800000	24.968615
16.810000	24.968615
16.820000	24.968615
16.830000	24.968615
16.840000	24.968615
16.850000	24.968615
16.860000	24.968615
16.870000	24.968615
16.880000	24.968615
16.890000	24.968615
16.900000	24.968615
16.910000	24.968615
16.920000	24.968615
16.930000	24.968615
16.940000	24.968615
16.950000	24.968615
16.960000	24.968615
16.970000	24.968615
16.980000	24.968615
16.990000	24.968615
17.000000	24.965248
17.010000	24.965248
17.020000	24.965248
17.030000	24.965248
17.040000	24.965248
17.050000	24.965248
17.060000	24.965248
17.070000	24.965248
17.080000	24.965248
17.090000	24.965248
17.100000	24.965248
17.110000	24.965248
17.120000	24.965248
17.130000	24.965248
17.140000	24.965248
17.150000	24.965248
17.160000	24.965248
17.170000	24.965248
17.180000	24.965248
17.190000	24.965248
17.200000	24.965248
17.210000	24.965248
17.220000	24.965248
17.230000	24.965248
17.240000	24.965248
17.250000	24.965248
17.260000	24.965248
17.270000	24.965248
17.280000	24.965248
17.290000	24.965248
17.300000	24.965248
17.310000	24.965248
17.320000	24.965248
17.330000	24.965248
17.340000	24.965248
17.350000	24.965248
17.360000	24.965248
17.370000	24.965248
17.380000	24.965248
17.390000	24.965248
17.400000	24.965248
17.410000	24.965248
17.420000	24.965248
17.430000	24.965248
17.440000	24.965248
17.450000	24.965248
17.460000	24.965248
17.470000	24.965248
17.480000	24.965248
17.490000	24.965248
17.500000	24.962149
17.510000	24.962149
17.520000	24.962149
17.530000	24.962149
17.540000	24.962149
17.550000	24.962149
17.560000	24.962149
17.570000	24.962149
17.580000	24.962149
17.590000	24.962149
17.600000	24.962149
17.610000	24.962149
17.620000	24.962149
17.630000	24.962149
17.640000	24.962149
17.650000	24.962149
17.660000	24.962149
17.670000	24.962149
17.680000	24.962149
17.690000	24.962149
17.700000	24.962149
17.710000	24.962149
17.720000	24.962149
17.730000	24.962149
17.740000	24.962149
17.750000	24.962149
17.760000	24.962149
17.770000	24.962149
17.780000	24.962149
17.790000	24.962149
17.800000	24.962149
17.810000	24.962149
17.820000	24.962149
17.830000	24.962149
17.840000	24.962149
17.850000	24.962149
17.860000	24.962149
17.870000	24.962149
17.880000	24.962149
17.890000	24.962149
17.900000	24.962149
17.910000	24.962149
17.920000	24.962149
17.930000	24.962149
17.940000	24.962149
17.950000	24.962149
17.960000	24.962149
17.970000	24.962149
17.980000	24.962149
17.990000	24.962149
