LabVIEW Measurement	
Writer_Version	2
Reader_Version	2
Separator	Tab
Decimal_Separator	.
Multi_Headings	No
X_Columns	One
Time_Pref	Absolute
Operator	biomech-dyno
Date	2023/05/23
Time	16:26:31.1792034999998606061
***End_of_Header***	
	
Channels	1	
Samples	10	
Date	2023/05/23	
Time	18:14:19.5617626999996625192	
X_Dimension	Time	
X0	0.0000000000000000E+0	
Delta_X	0.010000	
***End_of_Header***		
X_Value	Untitled	Comment
0.000000	25.045810
0.010000	25.045810
0.020000	25.045810
0.030000	25.045810
0.040000	25.045810
0.050000	25.045810
0.060000	25.045810
0.070000	25.045810
0.080000	25.045810
0.090000	25.045810
0.100000	25.045810
0.110000	25.045810
0.120000	25.045810
0.130000	25.045810
0.140000	25.045810
0.150000	25.045810
0.160000	25.045810
0.170000	25.045810
0.180000	25.045810
0.190000	25.045810
0.200000	25.045810
0.210000	25.045810
0.220000	25.045810
0.230000	25.045810
0.240000	25.045810
0.250000	25.045810
0.260000	25.045810
0.270000	25.045810
0.280000	25.045810
0.290000	25.045810
0.300000	25.045810
0.310000	25.045810
0.320000	25.045810
0.330000	25.045810
0.340000	25.045810
0.350000	25.045810
0.360000	25.045810
0.370000	25.045810
0.380000	25.045810
0.390000	25.045810
0.400000	25.045810
0.410000	25.045810
0.420000	25.045810
0.430000	25.045810
0.440000	25.045810
0.450000	25.045810
0.460000	25.045810
0.470000	25.045810
0.480000	25.045810
0.490000	25.045810
0.500000	25.072984
0.510000	25.072984
0.520000	25.072984
0.530000	25.072984
0.540000	25.072984
0.550000	25.072984
0.560000	25.072984
0.570000	25.072984
0.580000	25.072984
0.590000	25.072984
0.600000	25.072984
0.610000	25.072984
0.620000	25.072984
0.630000	25.072984
0.640000	25.072984
0.650000	25.072984
0.660000	25.072984
0.670000	25.072984
0.680000	25.072984
0.690000	25.072984
0.700000	25.072984
0.710000	25.072984
0.720000	25.072984
0.730000	25.072984
0.740000	25.072984
0.750000	25.072984
0.760000	25.072984
0.770000	25.072984
0.780000	25.072984
0.790000	25.072984
0.800000	25.072984
0.810000	25.072984
0.820000	25.072984
0.830000	25.072984
0.840000	25.072984
0.850000	25.072984
0.860000	25.072984
0.870000	25.072984
0.880000	25.072984
0.890000	25.072984
0.900000	25.072984
0.910000	25.072984
0.920000	25.072984
0.930000	25.072984
0.940000	25.072984
0.950000	25.072984
0.960000	25.072984
0.970000	25.072984
0.980000	25.072984
0.990000	25.072984
1.000000	25.321710
1.010000	25.321710
1.020000	25.321710
1.030000	25.321710
1.040000	25.321710
1.050000	25.321710
1.060000	25.321710
1.070000	25.321710
1.080000	25.321710
1.090000	25.321710
1.100000	25.321710
1.110000	25.321710
1.120000	25.321710
1.130000	25.321710
1.140000	25.321710
1.150000	25.321710
1.160000	25.321710
1.170000	25.321710
1.180000	25.321710
1.190000	25.321710
1.200000	25.321710
1.210000	25.321710
1.220000	25.321710
1.230000	25.321710
1.240000	25.321710
1.250000	25.321710
1.260000	25.321710
1.270000	25.321710
1.280000	25.321710
1.290000	25.321710
1.300000	25.321710
1.310000	25.321710
1.320000	25.321710
1.330000	25.321710
1.340000	25.321710
1.350000	25.321710
1.360000	25.321710
1.370000	25.321710
1.380000	25.321710
1.390000	25.321710
1.400000	25.321710
1.410000	25.321710
1.420000	25.321710
1.430000	25.321710
1.440000	25.321710
1.450000	25.321710
1.460000	25.321710
1.470000	25.321710
1.480000	25.321710
1.490000	25.321710
1.500000	25.899831
1.510000	25.899831
1.520000	25.899831
1.530000	25.899831
1.540000	25.899831
1.550000	25.899831
1.560000	25.899831
1.570000	25.899831
1.580000	25.899831
1.590000	25.899831
1.600000	25.899831
1.610000	25.899831
1.620000	25.899831
1.630000	25.899831
1.640000	25.899831
1.650000	25.899831
1.660000	25.899831
1.670000	25.899831
1.680000	25.899831
1.690000	25.899831
1.700000	25.899831
1.710000	25.899831
1.720000	25.899831
1.730000	25.899831
1.740000	25.899831
1.750000	25.899831
1.760000	25.899831
1.770000	25.899831
1.780000	25.899831
1.790000	25.899831
1.800000	25.899831
1.810000	25.899831
1.820000	25.899831
1.830000	25.899831
1.840000	25.899831
1.850000	25.899831
1.860000	25.899831
1.870000	25.899831
1.880000	25.899831
1.890000	25.899831
1.900000	25.899831
1.910000	25.899831
1.920000	25.899831
1.930000	25.899831
1.940000	25.899831
1.950000	25.899831
1.960000	25.899831
1.970000	25.899831
1.980000	25.899831
1.990000	25.899831
2.000000	26.744612
2.010000	26.744612
2.020000	26.744612
2.030000	26.744612
2.040000	26.744612
2.050000	26.744612
2.060000	26.744612
2.070000	26.744612
2.080000	26.744612
2.090000	26.744612
2.100000	26.744612
2.110000	26.744612
2.120000	26.744612
2.130000	26.744612
2.140000	26.744612
2.150000	26.744612
2.160000	26.744612
2.170000	26.744612
2.180000	26.744612
2.190000	26.744612
2.200000	26.744612
2.210000	26.744612
2.220000	26.744612
2.230000	26.744612
2.240000	26.744612
2.250000	26.744612
2.260000	26.744612
2.270000	26.744612
2.280000	26.744612
2.290000	26.744612
2.300000	26.744612
2.310000	26.744612
2.320000	26.744612
2.330000	26.744612
2.340000	26.744612
2.350000	26.744612
2.360000	26.744612
2.370000	26.744612
2.380000	26.744612
2.390000	26.744612
2.400000	26.744612
2.410000	26.744612
2.420000	26.744612
2.430000	26.744612
2.440000	26.744612
2.450000	26.744612
2.460000	26.744612
2.470000	26.744612
2.480000	26.744612
2.490000	26.744612
2.500000	27.791811
2.510000	27.791811
2.520000	27.791811
2.530000	27.791811
2.540000	27.791811
2.550000	27.791811
2.560000	27.791811
2.570000	27.791811
2.580000	27.791811
2.590000	27.791811
2.600000	27.791811
2.610000	27.791811
2.620000	27.791811
2.630000	27.791811
2.640000	27.791811
2.650000	27.791811
2.660000	27.791811
2.670000	27.791811
2.680000	27.791811
2.690000	27.791811
2.700000	27.791811
2.710000	27.791811
2.720000	27.791811
2.730000	27.791811
2.740000	27.791811
2.750000	27.791811
2.760000	27.791811
2.770000	27.791811
2.780000	27.791811
2.790000	27.791811
2.800000	27.791811
2.810000	27.791811
2.820000	27.791811
2.830000	27.791811
2.840000	27.791811
2.850000	27.791811
2.860000	27.791811
2.870000	27.791811
2.880000	27.791811
2.890000	27.791811
2.900000	27.791811
2.910000	27.791811
2.920000	27.791811
2.930000	27.791811
2.940000	27.791811
2.950000	27.791811
2.960000	27.791811
2.970000	27.791811
2.980000	27.791811
2.990000	27.791811
3.000000	28.990600
3.010000	28.990600
3.020000	28.990600
3.030000	28.990600
3.040000	28.990600
3.050000	28.990600
3.060000	28.990600
3.070000	28.990600
3.080000	28.990600
3.090000	28.990600
3.100000	28.990600
3.110000	28.990600
3.120000	28.990600
3.130000	28.990600
3.140000	28.990600
3.150000	28.990600
3.160000	28.990600
3.170000	28.990600
3.180000	28.990600
3.190000	28.990600
3.200000	28.990600
3.210000	28.990600
3.220000	28.990600
3.230000	28.990600
3.240000	28.990600
3.250000	28.990600
3.260000	28.990600
3.270000	28.990600
3.280000	28.990600
3.290000	28.990600
3.300000	28.990600
3.310000	28.990600
3.320000	28.990600
3.330000	28.990600
3.340000	28.990600
3.350000	28.990600
3.360000	28.990600
3.370000	28.990600
3.380000	28.990600
3.390000	28.990600
3.400000	28.990600
3.410000	28.990600
3.420000	28.990600
3.430000	28.990600
3.440000	28.990600
3.450000	28.990600
3.460000	28.990600
3.470000	28.990600
3.480000	28.990600
3.490000	28.990600
3.500000	30.256183
3.510000	30.256183
3.520000	30.256183
3.530000	30.256183
3.540000	30.256183
3.550000	30.256183
3.560000	30.256183
3.570000	30.256183
3.580000	30.256183
3.590000	30.256183
3.600000	30.256183
3.610000	30.256183
3.620000	30.256183
3.630000	30.256183
3.640000	30.256183
3.650000	30.256183
3.660000	30.256183
3.670000	30.256183
3.680000	30.256183
3.690000	30.256183
3.700000	30.256183
3.710000	30.256183
3.720000	30.256183
3.730000	30.256183
3.740000	30.256183
3.750000	30.256183
3.760000	30.256183
3.770000	30.256183
3.780000	30.256183
3.790000	30.256183
3.800000	30.256183
3.810000	30.256183
3.820000	30.256183
3.830000	30.256183
3.840000	30.256183
3.850000	30.256183
3.860000	30.256183
3.870000	30.256183
3.880000	30.256183
3.890000	30.256183
3.900000	30.256183
3.910000	30.256183
3.920000	30.256183
3.930000	30.256183
3.940000	30.256183
3.950000	30.256183
3.960000	30.256183
3.970000	30.256183
3.980000	30.256183
3.990000	30.256183
4.000000	31.324054
4.010000	31.324054
4.020000	31.324054
4.030000	31.324054
4.040000	31.324054
4.050000	31.324054
4.060000	31.324054
4.070000	31.324054
4.080000	31.324054
4.090000	31.324054
4.100000	31.324054
4.110000	31.324054
4.120000	31.324054
4.130000	31.324054
4.140000	31.324054
4.150000	31.324054
4.160000	31.324054
4.170000	31.324054
4.180000	31.324054
4.190000	31.324054
4.200000	31.324054
4.210000	31.324054
4.220000	31.324054
4.230000	31.324054
4.240000	31.324054
4.250000	31.324054
4.260000	31.324054
4.270000	31.324054
4.280000	31.324054
4.290000	31.324054
4.300000	31.324054
4.310000	31.324054
4.320000	31.324054
4.330000	31.324054
4.340000	31.324054
4.350000	31.324054
4.360000	31.324054
4.370000	31.324054
4.380000	31.324054
4.390000	31.324054
4.400000	31.324054
4.410000	31.324054
4.420000	31.324054
4.430000	31.324054
4.440000	31.324054
4.450000	31.324054
4.460000	31.324054
4.470000	31.324054
4.480000	31.324054
4.490000	31.324054
4.500000	32.119354
4.510000	32.119354
4.520000	32.119354
4.530000	32.119354
4.540000	32.119354
4.550000	32.119354
4.560000	32.119354
4.570000	32.119354
4.580000	32.119354
4.590000	32.119354
4.600000	32.119354
4.610000	32.119354
4.620000	32.119354
4.630000	32.119354
4.640000	32.119354
4.650000	32.119354
4.660000	32.119354
4.670000	32.119354
4.680000	32.119354
4.690000	32.119354
4.700000	32.119354
4.710000	32.119354
4.720000	32.119354
4.730000	32.119354
4.740000	32.119354
4.750000	32.119354
4.760000	32.119354
4.770000	32.119354
4.780000	32.119354
4.790000	32.119354
4.800000	32.119354
4.810000	32.119354
4.820000	32.119354
4.830000	32.119354
4.840000	32.119354
4.850000	32.119354
4.860000	32.119354
4.870000	32.119354
4.880000	32.119354
4.890000	32.119354
4.900000	32.119354
4.910000	32.119354
4.920000	32.119354
4.930000	32.119354
4.940000	32.119354
4.950000	32.119354
4.960000	32.119354
4.970000	32.119354
4.980000	32.119354
4.990000	32.119354
5.000000	32.682116
5.010000	32.682116
5.020000	32.682116
5.030000	32.682116
5.040000	32.682116
5.050000	32.682116
5.060000	32.682116
5.070000	32.682116
5.080000	32.682116
5.090000	32.682116
5.100000	32.682116
5.110000	32.682116
5.120000	32.682116
5.130000	32.682116
5.140000	32.682116
5.150000	32.682116
5.160000	32.682116
5.170000	32.682116
5.180000	32.682116
5.190000	32.682116
5.200000	32.682116
5.210000	32.682116
5.220000	32.682116
5.230000	32.682116
5.240000	32.682116
5.250000	32.682116
5.260000	32.682116
5.270000	32.682116
5.280000	32.682116
5.290000	32.682116
5.300000	32.682116
5.310000	32.682116
5.320000	32.682116
5.330000	32.682116
5.340000	32.682116
5.350000	32.682116
5.360000	32.682116
5.370000	32.682116
5.380000	32.682116
5.390000	32.682116
5.400000	32.682116
5.410000	32.682116
5.420000	32.682116
5.430000	32.682116
5.440000	32.682116
5.450000	32.682116
5.460000	32.682116
5.470000	32.682116
5.480000	32.682116
5.490000	32.682116
5.500000	33.064423
5.510000	33.064423
5.520000	33.064423
5.530000	33.064423
5.540000	33.064423
5.550000	33.064423
5.560000	33.064423
5.570000	33.064423
5.580000	33.064423
5.590000	33.064423
5.600000	33.064423
5.610000	33.064423
5.620000	33.064423
5.630000	33.064423
5.640000	33.064423
5.650000	33.064423
5.660000	33.064423
5.670000	33.064423
5.680000	33.064423
5.690000	33.064423
5.700000	33.064423
5.710000	33.064423
5.720000	33.064423
5.730000	33.064423
5.740000	33.064423
5.750000	33.064423
5.760000	33.064423
5.770000	33.064423
5.780000	33.064423
5.790000	33.064423
5.800000	33.064423
5.810000	33.064423
5.820000	33.064423
5.830000	33.064423
5.840000	33.064423
5.850000	33.064423
5.860000	33.064423
5.870000	33.064423
5.880000	33.064423
5.890000	33.064423
5.900000	33.064423
5.910000	33.064423
5.920000	33.064423
5.930000	33.064423
5.940000	33.064423
5.950000	33.064423
5.960000	33.064423
5.970000	33.064423
5.980000	33.064423
5.990000	33.064423
6.000000	33.312357
6.010000	33.312357
6.020000	33.312357
6.030000	33.312357
6.040000	33.312357
6.050000	33.312357
6.060000	33.312357
6.070000	33.312357
6.080000	33.312357
6.090000	33.312357
6.100000	33.312357
6.110000	33.312357
6.120000	33.312357
6.130000	33.312357
6.140000	33.312357
6.150000	33.312357
6.160000	33.312357
6.170000	33.312357
6.180000	33.312357
6.190000	33.312357
6.200000	33.312357
6.210000	33.312357
6.220000	33.312357
6.230000	33.312357
6.240000	33.312357
6.250000	33.312357
6.260000	33.312357
6.270000	33.312357
6.280000	33.312357
6.290000	33.312357
6.300000	33.312357
6.310000	33.312357
6.320000	33.312357
6.330000	33.312357
6.340000	33.312357
6.350000	33.312357
6.360000	33.312357
6.370000	33.312357
6.380000	33.312357
6.390000	33.312357
6.400000	33.312357
6.410000	33.312357
6.420000	33.312357
6.430000	33.312357
6.440000	33.312357
6.450000	33.312357
6.460000	33.312357
6.470000	33.312357
6.480000	33.312357
6.490000	33.312357
6.500000	33.462294
6.510000	33.462294
6.520000	33.462294
6.530000	33.462294
6.540000	33.462294
6.550000	33.462294
6.560000	33.462294
6.570000	33.462294
6.580000	33.462294
6.590000	33.462294
6.600000	33.462294
6.610000	33.462294
6.620000	33.462294
6.630000	33.462294
6.640000	33.462294
6.650000	33.462294
6.660000	33.462294
6.670000	33.462294
6.680000	33.462294
6.690000	33.462294
6.700000	33.462294
6.710000	33.462294
6.720000	33.462294
6.730000	33.462294
6.740000	33.462294
6.750000	33.462294
6.760000	33.462294
6.770000	33.462294
6.780000	33.462294
6.790000	33.462294
6.800000	33.462294
6.810000	33.462294
6.820000	33.462294
6.830000	33.462294
6.840000	33.462294
6.850000	33.462294
6.860000	33.462294
6.870000	33.462294
6.880000	33.462294
6.890000	33.462294
6.900000	33.462294
6.910000	33.462294
6.920000	33.462294
6.930000	33.462294
6.940000	33.462294
6.950000	33.462294
6.960000	33.462294
6.970000	33.462294
6.980000	33.462294
6.990000	33.462294
7.000000	33.531786
7.010000	33.531786
7.020000	33.531786
7.030000	33.531786
7.040000	33.531786
7.050000	33.531786
7.060000	33.531786
7.070000	33.531786
7.080000	33.531786
7.090000	33.531786
7.100000	33.531786
7.110000	33.531786
7.120000	33.531786
7.130000	33.531786
7.140000	33.531786
7.150000	33.531786
7.160000	33.531786
7.170000	33.531786
7.180000	33.531786
7.190000	33.531786
7.200000	33.531786
7.210000	33.531786
7.220000	33.531786
7.230000	33.531786
7.240000	33.531786
7.250000	33.531786
7.260000	33.531786
7.270000	33.531786
7.280000	33.531786
7.290000	33.531786
7.300000	33.531786
7.310000	33.531786
7.320000	33.531786
7.330000	33.531786
7.340000	33.531786
7.350000	33.531786
7.360000	33.531786
7.370000	33.531786
7.380000	33.531786
7.390000	33.531786
7.400000	33.531786
7.410000	33.531786
7.420000	33.531786
7.430000	33.531786
7.440000	33.531786
7.450000	33.531786
7.460000	33.531786
7.470000	33.531786
7.480000	33.531786
7.490000	33.531786
7.500000	33.539199
7.510000	33.539199
7.520000	33.539199
7.530000	33.539199
7.540000	33.539199
7.550000	33.539199
7.560000	33.539199
7.570000	33.539199
7.580000	33.539199
7.590000	33.539199
7.600000	33.539199
7.610000	33.539199
7.620000	33.539199
7.630000	33.539199
7.640000	33.539199
7.650000	33.539199
7.660000	33.539199
7.670000	33.539199
7.680000	33.539199
7.690000	33.539199
7.700000	33.539199
7.710000	33.539199
7.720000	33.539199
7.730000	33.539199
7.740000	33.539199
7.750000	33.539199
7.760000	33.539199
7.770000	33.539199
7.780000	33.539199
7.790000	33.539199
7.800000	33.539199
7.810000	33.539199
7.820000	33.539199
7.830000	33.539199
7.840000	33.539199
7.850000	33.539199
7.860000	33.539199
7.870000	33.539199
7.880000	33.539199
7.890000	33.539199
7.900000	33.539199
7.910000	33.539199
7.920000	33.539199
7.930000	33.539199
7.940000	33.539199
7.950000	33.539199
7.960000	33.539199
7.970000	33.539199
7.980000	33.539199
7.990000	33.539199
8.000000	33.502121
8.010000	33.502121
8.020000	33.502121
8.030000	33.502121
8.040000	33.502121
8.050000	33.502121
8.060000	33.502121
8.070000	33.502121
8.080000	33.502121
8.090000	33.502121
8.100000	33.502121
8.110000	33.502121
8.120000	33.502121
8.130000	33.502121
8.140000	33.502121
8.150000	33.502121
8.160000	33.502121
8.170000	33.502121
8.180000	33.502121
8.190000	33.502121
8.200000	33.502121
8.210000	33.502121
8.220000	33.502121
8.230000	33.502121
8.240000	33.502121
8.250000	33.502121
8.260000	33.502121
8.270000	33.502121
8.280000	33.502121
8.290000	33.502121
8.300000	33.502121
8.310000	33.502121
8.320000	33.502121
8.330000	33.502121
8.340000	33.502121
8.350000	33.502121
8.360000	33.502121
8.370000	33.502121
8.380000	33.502121
8.390000	33.502121
8.400000	33.502121
8.410000	33.502121
8.420000	33.502121
8.430000	33.502121
8.440000	33.502121
8.450000	33.502121
8.460000	33.502121
8.470000	33.502121
8.480000	33.502121
8.490000	33.502121
8.500000	33.429988
8.510000	33.429988
8.520000	33.429988
8.530000	33.429988
8.540000	33.429988
8.550000	33.429988
8.560000	33.429988
8.570000	33.429988
8.580000	33.429988
8.590000	33.429988
8.600000	33.429988
8.610000	33.429988
8.620000	33.429988
8.630000	33.429988
8.640000	33.429988
8.650000	33.429988
8.660000	33.429988
8.670000	33.429988
8.680000	33.429988
8.690000	33.429988
8.700000	33.429988
8.710000	33.429988
8.720000	33.429988
8.730000	33.429988
8.740000	33.429988
8.750000	33.429988
8.760000	33.429988
8.770000	33.429988
8.780000	33.429988
8.790000	33.429988
8.800000	33.429988
8.810000	33.429988
8.820000	33.429988
8.830000	33.429988
8.840000	33.429988
8.850000	33.429988
8.860000	33.429988
8.870000	33.429988
8.880000	33.429988
8.890000	33.429988
8.900000	33.429988
8.910000	33.429988
8.920000	33.429988
8.930000	33.429988
8.940000	33.429988
8.950000	33.429988
8.960000	33.429988
8.970000	33.429988
8.980000	33.429988
8.990000	33.429988
9.000000	33.333776
9.010000	33.333776
9.020000	33.333776
9.030000	33.333776
9.040000	33.333776
9.050000	33.333776
9.060000	33.333776
9.070000	33.333776
9.080000	33.333776
9.090000	33.333776
9.100000	33.333776
9.110000	33.333776
9.120000	33.333776
9.130000	33.333776
9.140000	33.333776
9.150000	33.333776
9.160000	33.333776
9.170000	33.333776
9.180000	33.333776
9.190000	33.333776
9.200000	33.333776
9.210000	33.333776
9.220000	33.333776
9.230000	33.333776
9.240000	33.333776
9.250000	33.333776
9.260000	33.333776
9.270000	33.333776
9.280000	33.333776
9.290000	33.333776
9.300000	33.333776
9.310000	33.333776
9.320000	33.333776
9.330000	33.333776
9.340000	33.333776
9.350000	33.333776
9.360000	33.333776
9.370000	33.333776
9.380000	33.333776
9.390000	33.333776
9.400000	33.333776
9.410000	33.333776
9.420000	33.333776
9.430000	33.333776
9.440000	33.333776
9.450000	33.333776
9.460000	33.333776
9.470000	33.333776
9.480000	33.333776
9.490000	33.333776
9.500000	33.218227
9.510000	33.218227
9.520000	33.218227
9.530000	33.218227
9.540000	33.218227
9.550000	33.218227
9.560000	33.218227
9.570000	33.218227
9.580000	33.218227
9.590000	33.218227
9.600000	33.218227
9.610000	33.218227
9.620000	33.218227
9.630000	33.218227
9.640000	33.218227
9.650000	33.218227
9.660000	33.218227
9.670000	33.218227
9.680000	33.218227
9.690000	33.218227
9.700000	33.218227
9.710000	33.218227
9.720000	33.218227
9.730000	33.218227
9.740000	33.218227
9.750000	33.218227
9.760000	33.218227
9.770000	33.218227
9.780000	33.218227
9.790000	33.218227
9.800000	33.218227
9.810000	33.218227
9.820000	33.218227
9.830000	33.218227
9.840000	33.218227
9.850000	33.218227
9.860000	33.218227
9.870000	33.218227
9.880000	33.218227
9.890000	33.218227
9.900000	33.218227
9.910000	33.218227
9.920000	33.218227
9.930000	33.218227
9.940000	33.218227
9.950000	33.218227
9.960000	33.218227
9.970000	33.218227
9.980000	33.218227
9.990000	33.218227
10.000000	33.090442
10.010000	33.090442
10.020000	33.090442
10.030000	33.090442
10.040000	33.090442
10.050000	33.090442
10.060000	33.090442
10.070000	33.090442
10.080000	33.090442
10.090000	33.090442
10.100000	33.090442
10.110000	33.090442
10.120000	33.090442
10.130000	33.090442
10.140000	33.090442
10.150000	33.090442
10.160000	33.090442
10.170000	33.090442
10.180000	33.090442
10.190000	33.090442
10.200000	33.090442
10.210000	33.090442
10.220000	33.090442
10.230000	33.090442
10.240000	33.090442
10.250000	33.090442
10.260000	33.090442
10.270000	33.090442
10.280000	33.090442
10.290000	33.090442
10.300000	33.090442
10.310000	33.090442
10.320000	33.090442
10.330000	33.090442
10.340000	33.090442
10.350000	33.090442
10.360000	33.090442
10.370000	33.090442
10.380000	33.090442
10.390000	33.090442
10.400000	33.090442
10.410000	33.090442
10.420000	33.090442
10.430000	33.090442
10.440000	33.090442
10.450000	33.090442
10.460000	33.090442
10.470000	33.090442
10.480000	33.090442
10.490000	33.090442
10.500000	32.952450
10.510000	32.952450
10.520000	32.952450
10.530000	32.952450
10.540000	32.952450
10.550000	32.952450
10.560000	32.952450
10.570000	32.952450
10.580000	32.952450
10.590000	32.952450
10.600000	32.952450
10.610000	32.952450
10.620000	32.952450
10.630000	32.952450
10.640000	32.952450
10.650000	32.952450
10.660000	32.952450
10.670000	32.952450
10.680000	32.952450
10.690000	32.952450
10.700000	32.952450
10.710000	32.952450
10.720000	32.952450
10.730000	32.952450
10.740000	32.952450
10.750000	32.952450
10.760000	32.952450
10.770000	32.952450
10.780000	32.952450
10.790000	32.952450
10.800000	32.952450
10.810000	32.952450
10.820000	32.952450
10.830000	32.952450
10.840000	32.952450
10.850000	32.952450
10.860000	32.952450
10.870000	32.952450
10.880000	32.952450
10.890000	32.952450
10.900000	32.952450
10.910000	32.952450
10.920000	32.952450
10.930000	32.952450
10.940000	32.952450
10.950000	32.952450
10.960000	32.952450
10.970000	32.952450
10.980000	32.952450
10.990000	32.952450
11.000000	32.809319
11.010000	32.809319
11.020000	32.809319
11.030000	32.809319
11.040000	32.809319
11.050000	32.809319
11.060000	32.809319
11.070000	32.809319
11.080000	32.809319
11.090000	32.809319
11.100000	32.809319
11.110000	32.809319
11.120000	32.809319
11.130000	32.809319
11.140000	32.809319
11.150000	32.809319
11.160000	32.809319
11.170000	32.809319
11.180000	32.809319
11.190000	32.809319
11.200000	32.809319
11.210000	32.809319
11.220000	32.809319
11.230000	32.809319
11.240000	32.809319
11.250000	32.809319
11.260000	32.809319
11.270000	32.809319
11.280000	32.809319
11.290000	32.809319
11.300000	32.809319
11.310000	32.809319
11.320000	32.809319
11.330000	32.809319
11.340000	32.809319
11.350000	32.809319
11.360000	32.809319
11.370000	32.809319
11.380000	32.809319
11.390000	32.809319
11.400000	32.809319
11.410000	32.809319
11.420000	32.809319
11.430000	32.809319
11.440000	32.809319
11.450000	32.809319
11.460000	32.809319
11.470000	32.809319
11.480000	32.809319
11.490000	32.809319
11.500000	32.661815
11.510000	32.661815
11.520000	32.661815
11.530000	32.661815
11.540000	32.661815
11.550000	32.661815
11.560000	32.661815
11.570000	32.661815
11.580000	32.661815
11.590000	32.661815
11.600000	32.661815
11.610000	32.661815
11.620000	32.661815
11.630000	32.661815
11.640000	32.661815
11.650000	32.661815
11.660000	32.661815
11.670000	32.661815
11.680000	32.661815
11.690000	32.661815
11.700000	32.661815
11.710000	32.661815
11.720000	32.661815
11.730000	32.661815
11.740000	32.661815
11.750000	32.661815
11.760000	32.661815
11.770000	32.661815
11.780000	32.661815
11.790000	32.661815
11.800000	32.661815
11.810000	32.661815
11.820000	32.661815
11.830000	32.661815
11.840000	32.661815
11.850000	32.661815
11.860000	32.661815
11.870000	32.661815
11.880000	32.661815
11.890000	32.661815
11.900000	32.661815
11.910000	32.661815
11.920000	32.661815
11.930000	32.661815
11.940000	32.661815
11.950000	32.661815
11.960000	32.661815
11.970000	32.661815
11.980000	32.661815
11.990000	32.661815
12.000000	32.511889
12.010000	32.511889
12.020000	32.511889
12.030000	32.511889
12.040000	32.511889
12.050000	32.511889
12.060000	32.511889
12.070000	32.511889
12.080000	32.511889
12.090000	32.511889
12.100000	32.511889
12.110000	32.511889
12.120000	32.511889
12.130000	32.511889
12.140000	32.511889
12.150000	32.511889
12.160000	32.511889
12.170000	32.511889
12.180000	32.511889
12.190000	32.511889
12.200000	32.511889
12.210000	32.511889
12.220000	32.511889
12.230000	32.511889
12.240000	32.511889
12.250000	32.511889
12.260000	32.511889
12.270000	32.511889
12.280000	32.511889
12.290000	32.511889
12.300000	32.511889
12.310000	32.511889
12.320000	32.511889
12.330000	32.511889
12.340000	32.511889
12.350000	32.511889
12.360000	32.511889
12.370000	32.511889
12.380000	32.511889
12.390000	32.511889
12.400000	32.511889
12.410000	32.511889
12.420000	32.511889
12.430000	32.511889
12.440000	32.511889
12.450000	32.511889
12.460000	32.511889
12.470000	32.511889
12.480000	32.511889
12.490000	32.511889
12.500000	32.360800
12.510000	32.360800
12.520000	32.360800
12.530000	32.360800
12.540000	32.360800
12.550000	32.360800
12.560000	32.360800
12.570000	32.360800
12.580000	32.360800
12.590000	32.360800
12.600000	32.360800
12.610000	32.360800
12.620000	32.360800
12.630000	32.360800
12.640000	32.360800
12.650000	32.360800
12.660000	32.360800
12.670000	32.360800
12.680000	32.360800
12.690000	32.360800
12.700000	32.360800
12.710000	32.360800
12.720000	32.360800
12.730000	32.360800
12.740000	32.360800
12.750000	32.360800
12.760000	32.360800
12.770000	32.360800
12.780000	32.360800
12.790000	32.360800
12.800000	32.360800
12.810000	32.360800
12.820000	32.360800
12.830000	32.360800
12.840000	32.360800
12.850000	32.360800
12.860000	32.360800
12.870000	32.360800
12.880000	32.360800
12.890000	32.360800
12.900000	32.360800
12.910000	32.360800
12.920000	32.360800
12.930000	32.360800
12.940000	32.360800
12.950000	32.360800
12.960000	32.360800
12.970000	32.360800
12.980000	32.360800
12.990000	32.360800
13.000000	32.209787
13.010000	32.209787
13.020000	32.209787
13.030000	32.209787
13.040000	32.209787
13.050000	32.209787
13.060000	32.209787
13.070000	32.209787
13.080000	32.209787
13.090000	32.209787
13.100000	32.209787
13.110000	32.209787
13.120000	32.209787
13.130000	32.209787
13.140000	32.209787
13.150000	32.209787
13.160000	32.209787
13.170000	32.209787
13.180000	32.209787
13.190000	32.209787
13.200000	32.209787
13.210000	32.209787
13.220000	32.209787
13.230000	32.209787
13.240000	32.209787
13.250000	32.209787
13.260000	32.209787
13.270000	32.209787
13.280000	32.209787
13.290000	32.209787
13.300000	32.209787
13.310000	32.209787
13.320000	32.209787
13.330000	32.209787
13.340000	32.209787
13.350000	32.209787
13.360000	32.209787
13.370000	32.209787
13.380000	32.209787
13.390000	32.209787
13.400000	32.209787
13.410000	32.209787
13.420000	32.209787
13.430000	32.209787
13.440000	32.209787
13.450000	32.209787
13.460000	32.209787
13.470000	32.209787
13.480000	32.209787
13.490000	32.209787
13.500000	32.061941
13.510000	32.061941
13.520000	32.061941
13.530000	32.061941
13.540000	32.061941
13.550000	32.061941
13.560000	32.061941
13.570000	32.061941
13.580000	32.061941
13.590000	32.061941
13.600000	32.061941
13.610000	32.061941
13.620000	32.061941
13.630000	32.061941
13.640000	32.061941
13.650000	32.061941
13.660000	32.061941
13.670000	32.061941
13.680000	32.061941
13.690000	32.061941
13.700000	32.061941
13.710000	32.061941
13.720000	32.061941
13.730000	32.061941
13.740000	32.061941
13.750000	32.061941
13.760000	32.061941
13.770000	32.061941
13.780000	32.061941
13.790000	32.061941
13.800000	32.061941
13.810000	32.061941
13.820000	32.061941
13.830000	32.061941
13.840000	32.061941
13.850000	32.061941
13.860000	32.061941
13.870000	32.061941
13.880000	32.061941
13.890000	32.061941
13.900000	32.061941
13.910000	32.061941
13.920000	32.061941
13.930000	32.061941
13.940000	32.061941
13.950000	32.061941
13.960000	32.061941
13.970000	32.061941
13.980000	32.061941
13.990000	32.061941
14.000000	31.915773
14.010000	31.915773
14.020000	31.915773
14.030000	31.915773
14.040000	31.915773
14.050000	31.915773
14.060000	31.915773
14.070000	31.915773
14.080000	31.915773
14.090000	31.915773
14.100000	31.915773
14.110000	31.915773
14.120000	31.915773
14.130000	31.915773
14.140000	31.915773
14.150000	31.915773
14.160000	31.915773
14.170000	31.915773
14.180000	31.915773
14.190000	31.915773
14.200000	31.915773
14.210000	31.915773
14.220000	31.915773
14.230000	31.915773
14.240000	31.915773
14.250000	31.915773
14.260000	31.915773
14.270000	31.915773
14.280000	31.915773
14.290000	31.915773
14.300000	31.915773
14.310000	31.915773
14.320000	31.915773
14.330000	31.915773
14.340000	31.915773
14.350000	31.915773
14.360000	31.915773
14.370000	31.915773
14.380000	31.915773
14.390000	31.915773
14.400000	31.915773
14.410000	31.915773
14.420000	31.915773
14.430000	31.915773
14.440000	31.915773
14.450000	31.915773
14.460000	31.915773
14.470000	31.915773
14.480000	31.915773
14.490000	31.915773
14.500000	31.772339
14.510000	31.772339
14.520000	31.772339
14.530000	31.772339
14.540000	31.772339
14.550000	31.772339
14.560000	31.772339
14.570000	31.772339
14.580000	31.772339
14.590000	31.772339
14.600000	31.772339
14.610000	31.772339
14.620000	31.772339
14.630000	31.772339
14.640000	31.772339
14.650000	31.772339
14.660000	31.772339
14.670000	31.772339
14.680000	31.772339
14.690000	31.772339
14.700000	31.772339
14.710000	31.772339
14.720000	31.772339
14.730000	31.772339
14.740000	31.772339
14.750000	31.772339
14.760000	31.772339
14.770000	31.772339
14.780000	31.772339
14.790000	31.772339
14.800000	31.772339
14.810000	31.772339
14.820000	31.772339
14.830000	31.772339
14.840000	31.772339
14.850000	31.772339
14.860000	31.772339
14.870000	31.772339
14.880000	31.772339
14.890000	31.772339
14.900000	31.772339
14.910000	31.772339
14.920000	31.772339
14.930000	31.772339
14.940000	31.772339
14.950000	31.772339
14.960000	31.772339
14.970000	31.772339
14.980000	31.772339
14.990000	31.772339
15.000000	31.630821
15.010000	31.630821
15.020000	31.630821
15.030000	31.630821
15.040000	31.630821
15.050000	31.630821
15.060000	31.630821
15.070000	31.630821
15.080000	31.630821
15.090000	31.630821
15.100000	31.630821
15.110000	31.630821
15.120000	31.630821
15.130000	31.630821
15.140000	31.630821
15.150000	31.630821
15.160000	31.630821
15.170000	31.630821
15.180000	31.630821
15.190000	31.630821
15.200000	31.630821
15.210000	31.630821
15.220000	31.630821
15.230000	31.630821
15.240000	31.630821
15.250000	31.630821
15.260000	31.630821
15.270000	31.630821
15.280000	31.630821
15.290000	31.630821
15.300000	31.630821
15.310000	31.630821
15.320000	31.630821
15.330000	31.630821
15.340000	31.630821
15.350000	31.630821
15.360000	31.630821
15.370000	31.630821
15.380000	31.630821
15.390000	31.630821
15.400000	31.630821
15.410000	31.630821
15.420000	31.630821
15.430000	31.630821
15.440000	31.630821
15.450000	31.630821
15.460000	31.630821
15.470000	31.630821
15.480000	31.630821
15.490000	31.630821
15.500000	31.492658
15.510000	31.492658
15.520000	31.492658
15.530000	31.492658
15.540000	31.492658
15.550000	31.492658
15.560000	31.492658
15.570000	31.492658
15.580000	31.492658
15.590000	31.492658
15.600000	31.492658
15.610000	31.492658
15.620000	31.492658
15.630000	31.492658
15.640000	31.492658
15.650000	31.492658
15.660000	31.492658
15.670000	31.492658
15.680000	31.492658
15.690000	31.492658
15.700000	31.492658
15.710000	31.492658
15.720000	31.492658
15.730000	31.492658
15.740000	31.492658
15.750000	31.492658
15.760000	31.492658
15.770000	31.492658
15.780000	31.492658
15.790000	31.492658
15.800000	31.492658
15.810000	31.492658
15.820000	31.492658
15.830000	31.492658
15.840000	31.492658
15.850000	31.492658
15.860000	31.492658
15.870000	31.492658
15.880000	31.492658
15.890000	31.492658
15.900000	31.492658
15.910000	31.492658
15.920000	31.492658
15.930000	31.492658
15.940000	31.492658
15.950000	31.492658
15.960000	31.492658
15.970000	31.492658
15.980000	31.492658
15.990000	31.492658
16.000000	31.356655
16.010000	31.356655
16.020000	31.356655
16.030000	31.356655
16.040000	31.356655
16.050000	31.356655
16.060000	31.356655
16.070000	31.356655
16.080000	31.356655
16.090000	31.356655
16.100000	31.356655
16.110000	31.356655
16.120000	31.356655
16.130000	31.356655
16.140000	31.356655
16.150000	31.356655
16.160000	31.356655
16.170000	31.356655
16.180000	31.356655
16.190000	31.356655
16.200000	31.356655
16.210000	31.356655
16.220000	31.356655
16.230000	31.356655
16.240000	31.356655
16.250000	31.356655
16.260000	31.356655
16.270000	31.356655
16.280000	31.356655
16.290000	31.356655
16.300000	31.356655
16.310000	31.356655
16.320000	31.356655
16.330000	31.356655
16.340000	31.356655
16.350000	31.356655
16.360000	31.356655
16.370000	31.356655
16.380000	31.356655
16.390000	31.356655
16.400000	31.356655
16.410000	31.356655
16.420000	31.356655
16.430000	31.356655
16.440000	31.356655
16.450000	31.356655
16.460000	31.356655
16.470000	31.356655
16.480000	31.356655
16.490000	31.356655
16.500000	31.223041
16.510000	31.223041
16.520000	31.223041
16.530000	31.223041
16.540000	31.223041
16.550000	31.223041
16.560000	31.223041
16.570000	31.223041
16.580000	31.223041
16.590000	31.223041
16.600000	31.223041
16.610000	31.223041
16.620000	31.223041
16.630000	31.223041
16.640000	31.223041
16.650000	31.223041
16.660000	31.223041
16.670000	31.223041
16.680000	31.223041
16.690000	31.223041
16.700000	31.223041
16.710000	31.223041
16.720000	31.223041
16.730000	31.223041
16.740000	31.223041
16.750000	31.223041
16.760000	31.223041
16.770000	31.223041
16.780000	31.223041
16.790000	31.223041
16.800000	31.223041
16.810000	31.223041
16.820000	31.223041
16.830000	31.223041
16.840000	31.223041
16.850000	31.223041
16.860000	31.223041
16.870000	31.223041
16.880000	31.223041
16.890000	31.223041
16.900000	31.223041
16.910000	31.223041
16.920000	31.223041
16.930000	31.223041
16.940000	31.223041
16.950000	31.223041
16.960000	31.223041
16.970000	31.223041
16.980000	31.223041
16.990000	31.223041
17.000000	31.093334
17.010000	31.093334
17.020000	31.093334
17.030000	31.093334
17.040000	31.093334
17.050000	31.093334
17.060000	31.093334
17.070000	31.093334
17.080000	31.093334
17.090000	31.093334
17.100000	31.093334
17.110000	31.093334
17.120000	31.093334
17.130000	31.093334
17.140000	31.093334
17.150000	31.093334
17.160000	31.093334
17.170000	31.093334
17.180000	31.093334
17.190000	31.093334
17.200000	31.093334
17.210000	31.093334
17.220000	31.093334
17.230000	31.093334
17.240000	31.093334
17.250000	31.093334
17.260000	31.093334
17.270000	31.093334
17.280000	31.093334
17.290000	31.093334
17.300000	31.093334
17.310000	31.093334
17.320000	31.093334
17.330000	31.093334
17.340000	31.093334
17.350000	31.093334
17.360000	31.093334
17.370000	31.093334
17.380000	31.093334
17.390000	31.093334
17.400000	31.093334
17.410000	31.093334
17.420000	31.093334
17.430000	31.093334
17.440000	31.093334
17.450000	31.093334
17.460000	31.093334
17.470000	31.093334
17.480000	31.093334
17.490000	31.093334
17.500000	30.966599
17.510000	30.966599
17.520000	30.966599
17.530000	30.966599
17.540000	30.966599
17.550000	30.966599
17.560000	30.966599
17.570000	30.966599
17.580000	30.966599
17.590000	30.966599
17.600000	30.966599
17.610000	30.966599
17.620000	30.966599
17.630000	30.966599
17.640000	30.966599
17.650000	30.966599
17.660000	30.966599
17.670000	30.966599
17.680000	30.966599
17.690000	30.966599
17.700000	30.966599
17.710000	30.966599
17.720000	30.966599
17.730000	30.966599
17.740000	30.966599
17.750000	30.966599
17.760000	30.966599
17.770000	30.966599
17.780000	30.966599
17.790000	30.966599
17.800000	30.966599
17.810000	30.966599
17.820000	30.966599
17.830000	30.966599
17.840000	30.966599
17.850000	30.966599
17.860000	30.966599
17.870000	30.966599
17.880000	30.966599
17.890000	30.966599
17.900000	30.966599
17.910000	30.966599
17.920000	30.966599
17.930000	30.966599
17.940000	30.966599
17.950000	30.966599
17.960000	30.966599
17.970000	30.966599
17.980000	30.966599
17.990000	30.966599
