LabVIEW Measurement	
Writer_Version	2
Reader_Version	2
Separator	Tab
Decimal_Separator	.
Multi_Headings	No
X_Columns	One
Time_Pref	Absolute
Operator	biomech-dyno
Date	2023/05/23
Time	16:26:31.1792034999998606061
***End_of_Header***	
	
Channels	1	
Samples	10	
Date	2023/05/23	
Time	18:08:51.2815562999998076085	
X_Dimension	Time	
X0	0.0000000000000000E+0	
Delta_X	0.010000	
***End_of_Header***		
X_Value	Untitled	Comment
0.000000	25.169770
0.010000	25.169770
0.020000	25.169770
0.030000	25.169770
0.040000	25.169770
0.050000	25.169770
0.060000	25.169770
0.070000	25.169770
0.080000	25.169770
0.090000	25.169770
0.100000	25.169770
0.110000	25.169770
0.120000	25.169770
0.130000	25.169770
0.140000	25.169770
0.150000	25.169770
0.160000	25.169770
0.170000	25.169770
0.180000	25.169770
0.190000	25.169770
0.200000	25.169770
0.210000	25.169770
0.220000	25.169770
0.230000	25.169770
0.240000	25.169770
0.250000	25.169770
0.260000	25.169770
0.270000	25.169770
0.280000	25.169770
0.290000	25.169770
0.300000	25.169770
0.310000	25.169770
0.320000	25.169770
0.330000	25.169770
0.340000	25.169770
0.350000	25.169770
0.360000	25.169770
0.370000	25.169770
0.380000	25.169770
0.390000	25.169770
0.400000	25.169770
0.410000	25.169770
0.420000	25.169770
0.430000	25.169770
0.440000	25.169770
0.450000	25.169770
0.460000	25.169770
0.470000	25.169770
0.480000	25.169770
0.490000	25.169770
0.500000	25.179749
0.510000	25.179749
0.520000	25.179749
0.530000	25.179749
0.540000	25.179749
0.550000	25.179749
0.560000	25.179749
0.570000	25.179749
0.580000	25.179749
0.590000	25.179749
0.600000	25.179749
0.610000	25.179749
0.620000	25.179749
0.630000	25.179749
0.640000	25.179749
0.650000	25.179749
0.660000	25.179749
0.670000	25.179749
0.680000	25.179749
0.690000	25.179749
0.700000	25.179749
0.710000	25.179749
0.720000	25.179749
0.730000	25.179749
0.740000	25.179749
0.750000	25.179749
0.760000	25.179749
0.770000	25.179749
0.780000	25.179749
0.790000	25.179749
0.800000	25.179749
0.810000	25.179749
0.820000	25.179749
0.830000	25.179749
0.840000	25.179749
0.850000	25.179749
0.860000	25.179749
0.870000	25.179749
0.880000	25.179749
0.890000	25.179749
0.900000	25.179749
0.910000	25.179749
0.920000	25.179749
0.930000	25.179749
0.940000	25.179749
0.950000	25.179749
0.960000	25.179749
0.970000	25.179749
0.980000	25.179749
0.990000	25.179749
1.000000	25.188119
1.010000	25.188119
1.020000	25.188119
1.030000	25.188119
1.040000	25.188119
1.050000	25.188119
1.060000	25.188119
1.070000	25.188119
1.080000	25.188119
1.090000	25.188119
1.100000	25.188119
1.110000	25.188119
1.120000	25.188119
1.130000	25.188119
1.140000	25.188119
1.150000	25.188119
1.160000	25.188119
1.170000	25.188119
1.180000	25.188119
1.190000	25.188119
1.200000	25.188119
1.210000	25.188119
1.220000	25.188119
1.230000	25.188119
1.240000	25.188119
1.250000	25.188119
1.260000	25.188119
1.270000	25.188119
1.280000	25.188119
1.290000	25.188119
1.300000	25.188119
1.310000	25.188119
1.320000	25.188119
1.330000	25.188119
1.340000	25.188119
1.350000	25.188119
1.360000	25.188119
1.370000	25.188119
1.380000	25.188119
1.390000	25.188119
1.400000	25.188119
1.410000	25.188119
1.420000	25.188119
1.430000	25.188119
1.440000	25.188119
1.450000	25.188119
1.460000	25.188119
1.470000	25.188119
1.480000	25.188119
1.490000	25.188119
1.500000	25.196471
1.510000	25.196471
1.520000	25.196471
1.530000	25.196471
1.540000	25.196471
1.550000	25.196471
1.560000	25.196471
1.570000	25.196471
1.580000	25.196471
1.590000	25.196471
1.600000	25.196471
1.610000	25.196471
1.620000	25.196471
1.630000	25.196471
1.640000	25.196471
1.650000	25.196471
1.660000	25.196471
1.670000	25.196471
1.680000	25.196471
1.690000	25.196471
1.700000	25.196471
1.710000	25.196471
1.720000	25.196471
1.730000	25.196471
1.740000	25.196471
1.750000	25.196471
1.760000	25.196471
1.770000	25.196471
1.780000	25.196471
1.790000	25.196471
1.800000	25.196471
1.810000	25.196471
1.820000	25.196471
1.830000	25.196471
1.840000	25.196471
1.850000	25.196471
1.860000	25.196471
1.870000	25.196471
1.880000	25.196471
1.890000	25.196471
1.900000	25.196471
1.910000	25.196471
1.920000	25.196471
1.930000	25.196471
1.940000	25.196471
1.950000	25.196471
1.960000	25.196471
1.970000	25.196471
1.980000	25.196471
1.990000	25.196471
2.000000	25.202708
2.010000	25.202708
2.020000	25.202708
2.030000	25.202708
2.040000	25.202708
2.050000	25.202708
2.060000	25.202708
2.070000	25.202708
2.080000	25.202708
2.090000	25.202708
2.100000	25.202708
2.110000	25.202708
2.120000	25.202708
2.130000	25.202708
2.140000	25.202708
2.150000	25.202708
2.160000	25.202708
2.170000	25.202708
2.180000	25.202708
2.190000	25.202708
2.200000	25.202708
2.210000	25.202708
2.220000	25.202708
2.230000	25.202708
2.240000	25.202708
2.250000	25.202708
2.260000	25.202708
2.270000	25.202708
2.280000	25.202708
2.290000	25.202708
2.300000	25.202708
2.310000	25.202708
2.320000	25.202708
2.330000	25.202708
2.340000	25.202708
2.350000	25.202708
2.360000	25.202708
2.370000	25.202708
2.380000	25.202708
2.390000	25.202708
2.400000	25.202708
2.410000	25.202708
2.420000	25.202708
2.430000	25.202708
2.440000	25.202708
2.450000	25.202708
2.460000	25.202708
2.470000	25.202708
2.480000	25.202708
2.490000	25.202708
2.500000	25.208094
2.510000	25.208094
2.520000	25.208094
2.530000	25.208094
2.540000	25.208094
2.550000	25.208094
2.560000	25.208094
2.570000	25.208094
2.580000	25.208094
2.590000	25.208094
2.600000	25.208094
2.610000	25.208094
2.620000	25.208094
2.630000	25.208094
2.640000	25.208094
2.650000	25.208094
2.660000	25.208094
2.670000	25.208094
2.680000	25.208094
2.690000	25.208094
2.700000	25.208094
2.710000	25.208094
2.720000	25.208094
2.730000	25.208094
2.740000	25.208094
2.750000	25.208094
2.760000	25.208094
2.770000	25.208094
2.780000	25.208094
2.790000	25.208094
2.800000	25.208094
2.810000	25.208094
2.820000	25.208094
2.830000	25.208094
2.840000	25.208094
2.850000	25.208094
2.860000	25.208094
2.870000	25.208094
2.880000	25.208094
2.890000	25.208094
2.900000	25.208094
2.910000	25.208094
2.920000	25.208094
2.930000	25.208094
2.940000	25.208094
2.950000	25.208094
2.960000	25.208094
2.970000	25.208094
2.980000	25.208094
2.990000	25.208094
3.000000	25.214338
3.010000	25.214338
3.020000	25.214338
3.030000	25.214338
3.040000	25.214338
3.050000	25.214338
3.060000	25.214338
3.070000	25.214338
3.080000	25.214338
3.090000	25.214338
3.100000	25.214338
3.110000	25.214338
3.120000	25.214338
3.130000	25.214338
3.140000	25.214338
3.150000	25.214338
3.160000	25.214338
3.170000	25.214338
3.180000	25.214338
3.190000	25.214338
3.200000	25.214338
3.210000	25.214338
3.220000	25.214338
3.230000	25.214338
3.240000	25.214338
3.250000	25.214338
3.260000	25.214338
3.270000	25.214338
3.280000	25.214338
3.290000	25.214338
3.300000	25.214338
3.310000	25.214338
3.320000	25.214338
3.330000	25.214338
3.340000	25.214338
3.350000	25.214338
3.360000	25.214338
3.370000	25.214338
3.380000	25.214338
3.390000	25.214338
3.400000	25.214338
3.410000	25.214338
3.420000	25.214338
3.430000	25.214338
3.440000	25.214338
3.450000	25.214338
3.460000	25.214338
3.470000	25.214338
3.480000	25.214338
3.490000	25.214338
3.500000	25.219954
3.510000	25.219954
3.520000	25.219954
3.530000	25.219954
3.540000	25.219954
3.550000	25.219954
3.560000	25.219954
3.570000	25.219954
3.580000	25.219954
3.590000	25.219954
3.600000	25.219954
3.610000	25.219954
3.620000	25.219954
3.630000	25.219954
3.640000	25.219954
3.650000	25.219954
3.660000	25.219954
3.670000	25.219954
3.680000	25.219954
3.690000	25.219954
3.700000	25.219954
3.710000	25.219954
3.720000	25.219954
3.730000	25.219954
3.740000	25.219954
3.750000	25.219954
3.760000	25.219954
3.770000	25.219954
3.780000	25.219954
3.790000	25.219954
3.800000	25.219954
3.810000	25.219954
3.820000	25.219954
3.830000	25.219954
3.840000	25.219954
3.850000	25.219954
3.860000	25.219954
3.870000	25.219954
3.880000	25.219954
3.890000	25.219954
3.900000	25.219954
3.910000	25.219954
3.920000	25.219954
3.930000	25.219954
3.940000	25.219954
3.950000	25.219954
3.960000	25.219954
3.970000	25.219954
3.980000	25.219954
3.990000	25.219954
4.000000	25.225613
4.010000	25.225613
4.020000	25.225613
4.030000	25.225613
4.040000	25.225613
4.050000	25.225613
4.060000	25.225613
4.070000	25.225613
4.080000	25.225613
4.090000	25.225613
4.100000	25.225613
4.110000	25.225613
4.120000	25.225613
4.130000	25.225613
4.140000	25.225613
4.150000	25.225613
4.160000	25.225613
4.170000	25.225613
4.180000	25.225613
4.190000	25.225613
4.200000	25.225613
4.210000	25.225613
4.220000	25.225613
4.230000	25.225613
4.240000	25.225613
4.250000	25.225613
4.260000	25.225613
4.270000	25.225613
4.280000	25.225613
4.290000	25.225613
4.300000	25.225613
4.310000	25.225613
4.320000	25.225613
4.330000	25.225613
4.340000	25.225613
4.350000	25.225613
4.360000	25.225613
4.370000	25.225613
4.380000	25.225613
4.390000	25.225613
4.400000	25.225613
4.410000	25.225613
4.420000	25.225613
4.430000	25.225613
4.440000	25.225613
4.450000	25.225613
4.460000	25.225613
4.470000	25.225613
4.480000	25.225613
4.490000	25.225613
4.500000	25.231331
4.510000	25.231331
4.520000	25.231331
4.530000	25.231331
4.540000	25.231331
4.550000	25.231331
4.560000	25.231331
4.570000	25.231331
4.580000	25.231331
4.590000	25.231331
4.600000	25.231331
4.610000	25.231331
4.620000	25.231331
4.630000	25.231331
4.640000	25.231331
4.650000	25.231331
4.660000	25.231331
4.670000	25.231331
4.680000	25.231331
4.690000	25.231331
4.700000	25.231331
4.710000	25.231331
4.720000	25.231331
4.730000	25.231331
4.740000	25.231331
4.750000	25.231331
4.760000	25.231331
4.770000	25.231331
4.780000	25.231331
4.790000	25.231331
4.800000	25.231331
4.810000	25.231331
4.820000	25.231331
4.830000	25.231331
4.840000	25.231331
4.850000	25.231331
4.860000	25.231331
4.870000	25.231331
4.880000	25.231331
4.890000	25.231331
4.900000	25.231331
4.910000	25.231331
4.920000	25.231331
4.930000	25.231331
4.940000	25.231331
4.950000	25.231331
4.960000	25.231331
4.970000	25.231331
4.980000	25.231331
4.990000	25.231331
5.000000	25.235941
5.010000	25.235941
5.020000	25.235941
5.030000	25.235941
5.040000	25.235941
5.050000	25.235941
5.060000	25.235941
5.070000	25.235941
5.080000	25.235941
5.090000	25.235941
5.100000	25.235941
5.110000	25.235941
5.120000	25.235941
5.130000	25.235941
5.140000	25.235941
5.150000	25.235941
5.160000	25.235941
5.170000	25.235941
5.180000	25.235941
5.190000	25.235941
5.200000	25.235941
5.210000	25.235941
5.220000	25.235941
5.230000	25.235941
5.240000	25.235941
5.250000	25.235941
5.260000	25.235941
5.270000	25.235941
5.280000	25.235941
5.290000	25.235941
5.300000	25.235941
5.310000	25.235941
5.320000	25.235941
5.330000	25.235941
5.340000	25.235941
5.350000	25.235941
5.360000	25.235941
5.370000	25.235941
5.380000	25.235941
5.390000	25.235941
5.400000	25.235941
5.410000	25.235941
5.420000	25.235941
5.430000	25.235941
5.440000	25.235941
5.450000	25.235941
5.460000	25.235941
5.470000	25.235941
5.480000	25.235941
5.490000	25.235941
5.500000	25.239787
5.510000	25.239787
5.520000	25.239787
5.530000	25.239787
5.540000	25.239787
5.550000	25.239787
5.560000	25.239787
5.570000	25.239787
5.580000	25.239787
5.590000	25.239787
5.600000	25.239787
5.610000	25.239787
5.620000	25.239787
5.630000	25.239787
5.640000	25.239787
5.650000	25.239787
5.660000	25.239787
5.670000	25.239787
5.680000	25.239787
5.690000	25.239787
5.700000	25.239787
5.710000	25.239787
5.720000	25.239787
5.730000	25.239787
5.740000	25.239787
5.750000	25.239787
5.760000	25.239787
5.770000	25.239787
5.780000	25.239787
5.790000	25.239787
5.800000	25.239787
5.810000	25.239787
5.820000	25.239787
5.830000	25.239787
5.840000	25.239787
5.850000	25.239787
5.860000	25.239787
5.870000	25.239787
5.880000	25.239787
5.890000	25.239787
5.900000	25.239787
5.910000	25.239787
5.920000	25.239787
5.930000	25.239787
5.940000	25.239787
5.950000	25.239787
5.960000	25.239787
5.970000	25.239787
5.980000	25.239787
5.990000	25.239787
6.000000	25.242851
6.010000	25.242851
6.020000	25.242851
6.030000	25.242851
6.040000	25.242851
6.050000	25.242851
6.060000	25.242851
6.070000	25.242851
6.080000	25.242851
6.090000	25.242851
6.100000	25.242851
6.110000	25.242851
6.120000	25.242851
6.130000	25.242851
6.140000	25.242851
6.150000	25.242851
6.160000	25.242851
6.170000	25.242851
6.180000	25.242851
6.190000	25.242851
6.200000	25.242851
6.210000	25.242851
6.220000	25.242851
6.230000	25.242851
6.240000	25.242851
6.250000	25.242851
6.260000	25.242851
6.270000	25.242851
6.280000	25.242851
6.290000	25.242851
6.300000	25.242851
6.310000	25.242851
6.320000	25.242851
6.330000	25.242851
6.340000	25.242851
6.350000	25.242851
6.360000	25.242851
6.370000	25.242851
6.380000	25.242851
6.390000	25.242851
6.400000	25.242851
6.410000	25.242851
6.420000	25.242851
6.430000	25.242851
6.440000	25.242851
6.450000	25.242851
6.460000	25.242851
6.470000	25.242851
6.480000	25.242851
6.490000	25.242851
6.500000	25.245855
6.510000	25.245855
6.520000	25.245855
6.530000	25.245855
6.540000	25.245855
6.550000	25.245855
6.560000	25.245855
6.570000	25.245855
6.580000	25.245855
6.590000	25.245855
6.600000	25.245855
6.610000	25.245855
6.620000	25.245855
6.630000	25.245855
6.640000	25.245855
6.650000	25.245855
6.660000	25.245855
6.670000	25.245855
6.680000	25.245855
6.690000	25.245855
6.700000	25.245855
6.710000	25.245855
6.720000	25.245855
6.730000	25.245855
6.740000	25.245855
6.750000	25.245855
6.760000	25.245855
6.770000	25.245855
6.780000	25.245855
6.790000	25.245855
6.800000	25.245855
6.810000	25.245855
6.820000	25.245855
6.830000	25.245855
6.840000	25.245855
6.850000	25.245855
6.860000	25.245855
6.870000	25.245855
6.880000	25.245855
6.890000	25.245855
6.900000	25.245855
6.910000	25.245855
6.920000	25.245855
6.930000	25.245855
6.940000	25.245855
6.950000	25.245855
6.960000	25.245855
6.970000	25.245855
6.980000	25.245855
6.990000	25.245855
7.000000	25.248515
7.010000	25.248515
7.020000	25.248515
7.030000	25.248515
7.040000	25.248515
7.050000	25.248515
7.060000	25.248515
7.070000	25.248515
7.080000	25.248515
7.090000	25.248515
7.100000	25.248515
7.110000	25.248515
7.120000	25.248515
7.130000	25.248515
7.140000	25.248515
7.150000	25.248515
7.160000	25.248515
7.170000	25.248515
7.180000	25.248515
7.190000	25.248515
7.200000	25.248515
7.210000	25.248515
7.220000	25.248515
7.230000	25.248515
7.240000	25.248515
7.250000	25.248515
7.260000	25.248515
7.270000	25.248515
7.280000	25.248515
7.290000	25.248515
7.300000	25.248515
7.310000	25.248515
7.320000	25.248515
7.330000	25.248515
7.340000	25.248515
7.350000	25.248515
7.360000	25.248515
7.370000	25.248515
7.380000	25.248515
7.390000	25.248515
7.400000	25.248515
7.410000	25.248515
7.420000	25.248515
7.430000	25.248515
7.440000	25.248515
7.450000	25.248515
7.460000	25.248515
7.470000	25.248515
7.480000	25.248515
7.490000	25.248515
7.500000	25.250918
7.510000	25.250918
7.520000	25.250918
7.530000	25.250918
7.540000	25.250918
7.550000	25.250918
7.560000	25.250918
7.570000	25.250918
7.580000	25.250918
7.590000	25.250918
7.600000	25.250918
7.610000	25.250918
7.620000	25.250918
7.630000	25.250918
7.640000	25.250918
7.650000	25.250918
7.660000	25.250918
7.670000	25.250918
7.680000	25.250918
7.690000	25.250918
7.700000	25.250918
7.710000	25.250918
7.720000	25.250918
7.730000	25.250918
7.740000	25.250918
7.750000	25.250918
7.760000	25.250918
7.770000	25.250918
7.780000	25.250918
7.790000	25.250918
7.800000	25.250918
7.810000	25.250918
7.820000	25.250918
7.830000	25.250918
7.840000	25.250918
7.850000	25.250918
7.860000	25.250918
7.870000	25.250918
7.880000	25.250918
7.890000	25.250918
7.900000	25.250918
7.910000	25.250918
7.920000	25.250918
7.930000	25.250918
7.940000	25.250918
7.950000	25.250918
7.960000	25.250918
7.970000	25.250918
7.980000	25.250918
7.990000	25.250918
8.000000	25.252480
8.010000	25.252480
8.020000	25.252480
8.030000	25.252480
8.040000	25.252480
8.050000	25.252480
8.060000	25.252480
8.070000	25.252480
8.080000	25.252480
8.090000	25.252480
8.100000	25.252480
8.110000	25.252480
8.120000	25.252480
8.130000	25.252480
8.140000	25.252480
8.150000	25.252480
8.160000	25.252480
8.170000	25.252480
8.180000	25.252480
8.190000	25.252480
8.200000	25.252480
8.210000	25.252480
8.220000	25.252480
8.230000	25.252480
8.240000	25.252480
8.250000	25.252480
8.260000	25.252480
8.270000	25.252480
8.280000	25.252480
8.290000	25.252480
8.300000	25.252480
8.310000	25.252480
8.320000	25.252480
8.330000	25.252480
8.340000	25.252480
8.350000	25.252480
8.360000	25.252480
8.370000	25.252480
8.380000	25.252480
8.390000	25.252480
8.400000	25.252480
8.410000	25.252480
8.420000	25.252480
8.430000	25.252480
8.440000	25.252480
8.450000	25.252480
8.460000	25.252480
8.470000	25.252480
8.480000	25.252480
8.490000	25.252480
8.500000	25.253750
8.510000	25.253750
8.520000	25.253750
8.530000	25.253750
8.540000	25.253750
8.550000	25.253750
8.560000	25.253750
8.570000	25.253750
8.580000	25.253750
8.590000	25.253750
8.600000	25.253750
8.610000	25.253750
8.620000	25.253750
8.630000	25.253750
8.640000	25.253750
8.650000	25.253750
8.660000	25.253750
8.670000	25.253750
8.680000	25.253750
8.690000	25.253750
8.700000	25.253750
8.710000	25.253750
8.720000	25.253750
8.730000	25.253750
8.740000	25.253750
8.750000	25.253750
8.760000	25.253750
8.770000	25.253750
8.780000	25.253750
8.790000	25.253750
8.800000	25.253750
8.810000	25.253750
8.820000	25.253750
8.830000	25.253750
8.840000	25.253750
8.850000	25.253750
8.860000	25.253750
8.870000	25.253750
8.880000	25.253750
8.890000	25.253750
8.900000	25.253750
8.910000	25.253750
8.920000	25.253750
8.930000	25.253750
8.940000	25.253750
8.950000	25.253750
8.960000	25.253750
8.970000	25.253750
8.980000	25.253750
8.990000	25.253750
9.000000	25.254729
9.010000	25.254729
9.020000	25.254729
9.030000	25.254729
9.040000	25.254729
9.050000	25.254729
9.060000	25.254729
9.070000	25.254729
9.080000	25.254729
9.090000	25.254729
9.100000	25.254729
9.110000	25.254729
9.120000	25.254729
9.130000	25.254729
9.140000	25.254729
9.150000	25.254729
9.160000	25.254729
9.170000	25.254729
9.180000	25.254729
9.190000	25.254729
9.200000	25.254729
9.210000	25.254729
9.220000	25.254729
9.230000	25.254729
9.240000	25.254729
9.250000	25.254729
9.260000	25.254729
9.270000	25.254729
9.280000	25.254729
9.290000	25.254729
9.300000	25.254729
9.310000	25.254729
9.320000	25.254729
9.330000	25.254729
9.340000	25.254729
9.350000	25.254729
9.360000	25.254729
9.370000	25.254729
9.380000	25.254729
9.390000	25.254729
9.400000	25.254729
9.410000	25.254729
9.420000	25.254729
9.430000	25.254729
9.440000	25.254729
9.450000	25.254729
9.460000	25.254729
9.470000	25.254729
9.480000	25.254729
9.490000	25.254729
9.500000	25.255758
9.510000	25.255758
9.520000	25.255758
9.530000	25.255758
9.540000	25.255758
9.550000	25.255758
9.560000	25.255758
9.570000	25.255758
9.580000	25.255758
9.590000	25.255758
9.600000	25.255758
9.610000	25.255758
9.620000	25.255758
9.630000	25.255758
9.640000	25.255758
9.650000	25.255758
9.660000	25.255758
9.670000	25.255758
9.680000	25.255758
9.690000	25.255758
9.700000	25.255758
9.710000	25.255758
9.720000	25.255758
9.730000	25.255758
9.740000	25.255758
9.750000	25.255758
9.760000	25.255758
9.770000	25.255758
9.780000	25.255758
9.790000	25.255758
9.800000	25.255758
9.810000	25.255758
9.820000	25.255758
9.830000	25.255758
9.840000	25.255758
9.850000	25.255758
9.860000	25.255758
9.870000	25.255758
9.880000	25.255758
9.890000	25.255758
9.900000	25.255758
9.910000	25.255758
9.920000	25.255758
9.930000	25.255758
9.940000	25.255758
9.950000	25.255758
9.960000	25.255758
9.970000	25.255758
9.980000	25.255758
9.990000	25.255758
10.000000	25.255939
10.010000	25.255939
10.020000	25.255939
10.030000	25.255939
10.040000	25.255939
10.050000	25.255939
10.060000	25.255939
10.070000	25.255939
10.080000	25.255939
10.090000	25.255939
10.100000	25.255939
10.110000	25.255939
10.120000	25.255939
10.130000	25.255939
10.140000	25.255939
10.150000	25.255939
10.160000	25.255939
10.170000	25.255939
10.180000	25.255939
10.190000	25.255939
10.200000	25.255939
10.210000	25.255939
10.220000	25.255939
10.230000	25.255939
10.240000	25.255939
10.250000	25.255939
10.260000	25.255939
10.270000	25.255939
10.280000	25.255939
10.290000	25.255939
10.300000	25.255939
10.310000	25.255939
10.320000	25.255939
10.330000	25.255939
10.340000	25.255939
10.350000	25.255939
10.360000	25.255939
10.370000	25.255939
10.380000	25.255939
10.390000	25.255939
10.400000	25.255939
10.410000	25.255939
10.420000	25.255939
10.430000	25.255939
10.440000	25.255939
10.450000	25.255939
10.460000	25.255939
10.470000	25.255939
10.480000	25.255939
10.490000	25.255939
10.500000	25.255973
10.510000	25.255973
10.520000	25.255973
10.530000	25.255973
10.540000	25.255973
10.550000	25.255973
10.560000	25.255973
10.570000	25.255973
10.580000	25.255973
10.590000	25.255973
10.600000	25.255973
10.610000	25.255973
10.620000	25.255973
10.630000	25.255973
10.640000	25.255973
10.650000	25.255973
10.660000	25.255973
10.670000	25.255973
10.680000	25.255973
10.690000	25.255973
10.700000	25.255973
10.710000	25.255973
10.720000	25.255973
10.730000	25.255973
10.740000	25.255973
10.750000	25.255973
10.760000	25.255973
10.770000	25.255973
10.780000	25.255973
10.790000	25.255973
10.800000	25.255973
10.810000	25.255973
10.820000	25.255973
10.830000	25.255973
10.840000	25.255973
10.850000	25.255973
10.860000	25.255973
10.870000	25.255973
10.880000	25.255973
10.890000	25.255973
10.900000	25.255973
10.910000	25.255973
10.920000	25.255973
10.930000	25.255973
10.940000	25.255973
10.950000	25.255973
10.960000	25.255973
10.970000	25.255973
10.980000	25.255973
10.990000	25.255973
11.000000	25.255269
11.010000	25.255269
11.020000	25.255269
11.030000	25.255269
11.040000	25.255269
11.050000	25.255269
11.060000	25.255269
11.070000	25.255269
11.080000	25.255269
11.090000	25.255269
11.100000	25.255269
11.110000	25.255269
11.120000	25.255269
11.130000	25.255269
11.140000	25.255269
11.150000	25.255269
11.160000	25.255269
11.170000	25.255269
11.180000	25.255269
11.190000	25.255269
11.200000	25.255269
11.210000	25.255269
11.220000	25.255269
11.230000	25.255269
11.240000	25.255269
11.250000	25.255269
11.260000	25.255269
11.270000	25.255269
11.280000	25.255269
11.290000	25.255269
11.300000	25.255269
11.310000	25.255269
11.320000	25.255269
11.330000	25.255269
11.340000	25.255269
11.350000	25.255269
11.360000	25.255269
11.370000	25.255269
11.380000	25.255269
11.390000	25.255269
11.400000	25.255269
11.410000	25.255269
11.420000	25.255269
11.430000	25.255269
11.440000	25.255269
11.450000	25.255269
11.460000	25.255269
11.470000	25.255269
11.480000	25.255269
11.490000	25.255269
11.500000	25.254789
11.510000	25.254789
11.520000	25.254789
11.530000	25.254789
11.540000	25.254789
11.550000	25.254789
11.560000	25.254789
11.570000	25.254789
11.580000	25.254789
11.590000	25.254789
11.600000	25.254789
11.610000	25.254789
11.620000	25.254789
11.630000	25.254789
11.640000	25.254789
11.650000	25.254789
11.660000	25.254789
11.670000	25.254789
11.680000	25.254789
11.690000	25.254789
11.700000	25.254789
11.710000	25.254789
11.720000	25.254789
11.730000	25.254789
11.740000	25.254789
11.750000	25.254789
11.760000	25.254789
11.770000	25.254789
11.780000	25.254789
11.790000	25.254789
11.800000	25.254789
11.810000	25.254789
11.820000	25.254789
11.830000	25.254789
11.840000	25.254789
11.850000	25.254789
11.860000	25.254789
11.870000	25.254789
11.880000	25.254789
11.890000	25.254789
11.900000	25.254789
11.910000	25.254789
11.920000	25.254789
11.930000	25.254789
11.940000	25.254789
11.950000	25.254789
11.960000	25.254789
11.970000	25.254789
11.980000	25.254789
11.990000	25.254789
12.000000	25.253210
12.010000	25.253210
12.020000	25.253210
12.030000	25.253210
12.040000	25.253210
12.050000	25.253210
12.060000	25.253210
12.070000	25.253210
12.080000	25.253210
12.090000	25.253210
12.100000	25.253210
12.110000	25.253210
12.120000	25.253210
12.130000	25.253210
12.140000	25.253210
12.150000	25.253210
12.160000	25.253210
12.170000	25.253210
12.180000	25.253210
12.190000	25.253210
12.200000	25.253210
12.210000	25.253210
12.220000	25.253210
12.230000	25.253210
12.240000	25.253210
12.250000	25.253210
12.260000	25.253210
12.270000	25.253210
12.280000	25.253210
12.290000	25.253210
12.300000	25.253210
12.310000	25.253210
12.320000	25.253210
12.330000	25.253210
12.340000	25.253210
12.350000	25.253210
12.360000	25.253210
12.370000	25.253210
12.380000	25.253210
12.390000	25.253210
12.400000	25.253210
12.410000	25.253210
12.420000	25.253210
12.430000	25.253210
12.440000	25.253210
12.450000	25.253210
12.460000	25.253210
12.470000	25.253210
12.480000	25.253210
12.490000	25.253210
12.500000	25.251837
12.510000	25.251837
12.520000	25.251837
12.530000	25.251837
12.540000	25.251837
12.550000	25.251837
12.560000	25.251837
12.570000	25.251837
12.580000	25.251837
12.590000	25.251837
12.600000	25.251837
12.610000	25.251837
12.620000	25.251837
12.630000	25.251837
12.640000	25.251837
12.650000	25.251837
12.660000	25.251837
12.670000	25.251837
12.680000	25.251837
12.690000	25.251837
12.700000	25.251837
12.710000	25.251837
12.720000	25.251837
12.730000	25.251837
12.740000	25.251837
12.750000	25.251837
12.760000	25.251837
12.770000	25.251837
12.780000	25.251837
12.790000	25.251837
12.800000	25.251837
12.810000	25.251837
12.820000	25.251837
12.830000	25.251837
12.840000	25.251837
12.850000	25.251837
12.860000	25.251837
12.870000	25.251837
12.880000	25.251837
12.890000	25.251837
12.900000	25.251837
12.910000	25.251837
12.920000	25.251837
12.930000	25.251837
12.940000	25.251837
12.950000	25.251837
12.960000	25.251837
12.970000	25.251837
12.980000	25.251837
12.990000	25.251837
13.000000	25.250609
13.010000	25.250609
13.020000	25.250609
13.030000	25.250609
13.040000	25.250609
13.050000	25.250609
13.060000	25.250609
13.070000	25.250609
13.080000	25.250609
13.090000	25.250609
13.100000	25.250609
13.110000	25.250609
13.120000	25.250609
13.130000	25.250609
13.140000	25.250609
13.150000	25.250609
13.160000	25.250609
13.170000	25.250609
13.180000	25.250609
13.190000	25.250609
13.200000	25.250609
13.210000	25.250609
13.220000	25.250609
13.230000	25.250609
13.240000	25.250609
13.250000	25.250609
13.260000	25.250609
13.270000	25.250609
13.280000	25.250609
13.290000	25.250609
13.300000	25.250609
13.310000	25.250609
13.320000	25.250609
13.330000	25.250609
13.340000	25.250609
13.350000	25.250609
13.360000	25.250609
13.370000	25.250609
13.380000	25.250609
13.390000	25.250609
13.400000	25.250609
13.410000	25.250609
13.420000	25.250609
13.430000	25.250609
13.440000	25.250609
13.450000	25.250609
13.460000	25.250609
13.470000	25.250609
13.480000	25.250609
13.490000	25.250609
13.500000	25.249614
13.510000	25.249614
13.520000	25.249614
13.530000	25.249614
13.540000	25.249614
13.550000	25.249614
13.560000	25.249614
13.570000	25.249614
13.580000	25.249614
13.590000	25.249614
13.600000	25.249614
13.610000	25.249614
13.620000	25.249614
13.630000	25.249614
13.640000	25.249614
13.650000	25.249614
13.660000	25.249614
13.670000	25.249614
13.680000	25.249614
13.690000	25.249614
13.700000	25.249614
13.710000	25.249614
13.720000	25.249614
13.730000	25.249614
13.740000	25.249614
13.750000	25.249614
13.760000	25.249614
13.770000	25.249614
13.780000	25.249614
13.790000	25.249614
13.800000	25.249614
13.810000	25.249614
13.820000	25.249614
13.830000	25.249614
13.840000	25.249614
13.850000	25.249614
13.860000	25.249614
13.870000	25.249614
13.880000	25.249614
13.890000	25.249614
13.900000	25.249614
13.910000	25.249614
13.920000	25.249614
13.930000	25.249614
13.940000	25.249614
13.950000	25.249614
13.960000	25.249614
13.970000	25.249614
13.980000	25.249614
13.990000	25.249614
14.000000	25.247795
14.010000	25.247795
14.020000	25.247795
14.030000	25.247795
14.040000	25.247795
14.050000	25.247795
14.060000	25.247795
14.070000	25.247795
14.080000	25.247795
14.090000	25.247795
14.100000	25.247795
14.110000	25.247795
14.120000	25.247795
14.130000	25.247795
14.140000	25.247795
14.150000	25.247795
14.160000	25.247795
14.170000	25.247795
14.180000	25.247795
14.190000	25.247795
14.200000	25.247795
14.210000	25.247795
14.220000	25.247795
14.230000	25.247795
14.240000	25.247795
14.250000	25.247795
14.260000	25.247795
14.270000	25.247795
14.280000	25.247795
14.290000	25.247795
14.300000	25.247795
14.310000	25.247795
14.320000	25.247795
14.330000	25.247795
14.340000	25.247795
14.350000	25.247795
14.360000	25.247795
14.370000	25.247795
14.380000	25.247795
14.390000	25.247795
14.400000	25.247795
14.410000	25.247795
14.420000	25.247795
14.430000	25.247795
14.440000	25.247795
14.450000	25.247795
14.460000	25.247795
14.470000	25.247795
14.480000	25.247795
14.490000	25.247795
14.500000	25.245658
14.510000	25.245658
14.520000	25.245658
14.530000	25.245658
14.540000	25.245658
14.550000	25.245658
14.560000	25.245658
14.570000	25.245658
14.580000	25.245658
14.590000	25.245658
14.600000	25.245658
14.610000	25.245658
14.620000	25.245658
14.630000	25.245658
14.640000	25.245658
14.650000	25.245658
14.660000	25.245658
14.670000	25.245658
14.680000	25.245658
14.690000	25.245658
14.700000	25.245658
14.710000	25.245658
14.720000	25.245658
14.730000	25.245658
14.740000	25.245658
14.750000	25.245658
14.760000	25.245658
14.770000	25.245658
14.780000	25.245658
14.790000	25.245658
14.800000	25.245658
14.810000	25.245658
14.820000	25.245658
14.830000	25.245658
14.840000	25.245658
14.850000	25.245658
14.860000	25.245658
14.870000	25.245658
14.880000	25.245658
14.890000	25.245658
14.900000	25.245658
14.910000	25.245658
14.920000	25.245658
14.930000	25.245658
14.940000	25.245658
14.950000	25.245658
14.960000	25.245658
14.970000	25.245658
14.980000	25.245658
14.990000	25.245658
15.000000	25.242962
15.010000	25.242962
15.020000	25.242962
15.030000	25.242962
15.040000	25.242962
15.050000	25.242962
15.060000	25.242962
15.070000	25.242962
15.080000	25.242962
15.090000	25.242962
15.100000	25.242962
15.110000	25.242962
15.120000	25.242962
15.130000	25.242962
15.140000	25.242962
15.150000	25.242962
15.160000	25.242962
15.170000	25.242962
15.180000	25.242962
15.190000	25.242962
15.200000	25.242962
15.210000	25.242962
15.220000	25.242962
15.230000	25.242962
15.240000	25.242962
15.250000	25.242962
15.260000	25.242962
15.270000	25.242962
15.280000	25.242962
15.290000	25.242962
15.300000	25.242962
15.310000	25.242962
15.320000	25.242962
15.330000	25.242962
15.340000	25.242962
15.350000	25.242962
15.360000	25.242962
15.370000	25.242962
15.380000	25.242962
15.390000	25.242962
15.400000	25.242962
15.410000	25.242962
15.420000	25.242962
15.430000	25.242962
15.440000	25.242962
15.450000	25.242962
15.460000	25.242962
15.470000	25.242962
15.480000	25.242962
15.490000	25.242962
15.500000	25.240799
15.510000	25.240799
15.520000	25.240799
15.530000	25.240799
15.540000	25.240799
15.550000	25.240799
15.560000	25.240799
15.570000	25.240799
15.580000	25.240799
15.590000	25.240799
15.600000	25.240799
15.610000	25.240799
15.620000	25.240799
15.630000	25.240799
15.640000	25.240799
15.650000	25.240799
15.660000	25.240799
15.670000	25.240799
15.680000	25.240799
15.690000	25.240799
15.700000	25.240799
15.710000	25.240799
15.720000	25.240799
15.730000	25.240799
15.740000	25.240799
15.750000	25.240799
15.760000	25.240799
15.770000	25.240799
15.780000	25.240799
15.790000	25.240799
15.800000	25.240799
15.810000	25.240799
15.820000	25.240799
15.830000	25.240799
15.840000	25.240799
15.850000	25.240799
15.860000	25.240799
15.870000	25.240799
15.880000	25.240799
15.890000	25.240799
15.900000	25.240799
15.910000	25.240799
15.920000	25.240799
15.930000	25.240799
15.940000	25.240799
15.950000	25.240799
15.960000	25.240799
15.970000	25.240799
15.980000	25.240799
15.990000	25.240799
16.000000	25.238559
16.010000	25.238559
16.020000	25.238559
16.030000	25.238559
16.040000	25.238559
16.050000	25.238559
16.060000	25.238559
16.070000	25.238559
16.080000	25.238559
16.090000	25.238559
16.100000	25.238559
16.110000	25.238559
16.120000	25.238559
16.130000	25.238559
16.140000	25.238559
16.150000	25.238559
16.160000	25.238559
16.170000	25.238559
16.180000	25.238559
16.190000	25.238559
16.200000	25.238559
16.210000	25.238559
16.220000	25.238559
16.230000	25.238559
16.240000	25.238559
16.250000	25.238559
16.260000	25.238559
16.270000	25.238559
16.280000	25.238559
16.290000	25.238559
16.300000	25.238559
16.310000	25.238559
16.320000	25.238559
16.330000	25.238559
16.340000	25.238559
16.350000	25.238559
16.360000	25.238559
16.370000	25.238559
16.380000	25.238559
16.390000	25.238559
16.400000	25.238559
16.410000	25.238559
16.420000	25.238559
16.430000	25.238559
16.440000	25.238559
16.450000	25.238559
16.460000	25.238559
16.470000	25.238559
16.480000	25.238559
16.490000	25.238559
16.500000	25.236362
16.510000	25.236362
16.520000	25.236362
16.530000	25.236362
16.540000	25.236362
16.550000	25.236362
16.560000	25.236362
16.570000	25.236362
16.580000	25.236362
16.590000	25.236362
16.600000	25.236362
16.610000	25.236362
16.620000	25.236362
16.630000	25.236362
16.640000	25.236362
16.650000	25.236362
16.660000	25.236362
16.670000	25.236362
16.680000	25.236362
16.690000	25.236362
16.700000	25.236362
16.710000	25.236362
16.720000	25.236362
16.730000	25.236362
16.740000	25.236362
16.750000	25.236362
16.760000	25.236362
16.770000	25.236362
16.780000	25.236362
16.790000	25.236362
16.800000	25.236362
16.810000	25.236362
16.820000	25.236362
16.830000	25.236362
16.840000	25.236362
16.850000	25.236362
16.860000	25.236362
16.870000	25.236362
16.880000	25.236362
16.890000	25.236362
16.900000	25.236362
16.910000	25.236362
16.920000	25.236362
16.930000	25.236362
16.940000	25.236362
16.950000	25.236362
16.960000	25.236362
16.970000	25.236362
16.980000	25.236362
16.990000	25.236362
17.000000	25.233537
17.010000	25.233537
17.020000	25.233537
17.030000	25.233537
17.040000	25.233537
17.050000	25.233537
17.060000	25.233537
17.070000	25.233537
17.080000	25.233537
17.090000	25.233537
17.100000	25.233537
17.110000	25.233537
17.120000	25.233537
17.130000	25.233537
17.140000	25.233537
17.150000	25.233537
17.160000	25.233537
17.170000	25.233537
17.180000	25.233537
17.190000	25.233537
17.200000	25.233537
17.210000	25.233537
17.220000	25.233537
17.230000	25.233537
17.240000	25.233537
17.250000	25.233537
17.260000	25.233537
17.270000	25.233537
17.280000	25.233537
17.290000	25.233537
17.300000	25.233537
17.310000	25.233537
17.320000	25.233537
17.330000	25.233537
17.340000	25.233537
17.350000	25.233537
17.360000	25.233537
17.370000	25.233537
17.380000	25.233537
17.390000	25.233537
17.400000	25.233537
17.410000	25.233537
17.420000	25.233537
17.430000	25.233537
17.440000	25.233537
17.450000	25.233537
17.460000	25.233537
17.470000	25.233537
17.480000	25.233537
17.490000	25.233537
17.500000	25.230756
17.510000	25.230756
17.520000	25.230756
17.530000	25.230756
17.540000	25.230756
17.550000	25.230756
17.560000	25.230756
17.570000	25.230756
17.580000	25.230756
17.590000	25.230756
17.600000	25.230756
17.610000	25.230756
17.620000	25.230756
17.630000	25.230756
17.640000	25.230756
17.650000	25.230756
17.660000	25.230756
17.670000	25.230756
17.680000	25.230756
17.690000	25.230756
17.700000	25.230756
17.710000	25.230756
17.720000	25.230756
17.730000	25.230756
17.740000	25.230756
17.750000	25.230756
17.760000	25.230756
17.770000	25.230756
17.780000	25.230756
17.790000	25.230756
17.800000	25.230756
17.810000	25.230756
17.820000	25.230756
17.830000	25.230756
17.840000	25.230756
17.850000	25.230756
17.860000	25.230756
17.870000	25.230756
17.880000	25.230756
17.890000	25.230756
17.900000	25.230756
17.910000	25.230756
17.920000	25.230756
17.930000	25.230756
17.940000	25.230756
17.950000	25.230756
17.960000	25.230756
17.970000	25.230756
17.980000	25.230756
17.990000	25.230756
