LabVIEW Measurement	
Writer_Version	2
Reader_Version	2
Separator	Tab
Decimal_Separator	.
Multi_Headings	No
X_Columns	One
Time_Pref	Absolute
Operator	biomech-dyno
Date	2023/05/23
Time	16:26:31.1792034999998606061
***End_of_Header***	
	
Channels	1	
Samples	10	
Date	2023/05/23	
Time	18:11:43.5320669999996778955	
X_Dimension	Time	
X0	0.0000000000000000E+0	
Delta_X	0.010000	
***End_of_Header***		
X_Value	Untitled	Comment
0.000000	24.760425
0.010000	24.760425
0.020000	24.760425
0.030000	24.760425
0.040000	24.760425
0.050000	24.760425
0.060000	24.760425
0.070000	24.760425
0.080000	24.760425
0.090000	24.760425
0.100000	24.760425
0.110000	24.760425
0.120000	24.760425
0.130000	24.760425
0.140000	24.760425
0.150000	24.760425
0.160000	24.760425
0.170000	24.760425
0.180000	24.760425
0.190000	24.760425
0.200000	24.760425
0.210000	24.760425
0.220000	24.760425
0.230000	24.760425
0.240000	24.760425
0.250000	24.760425
0.260000	24.760425
0.270000	24.760425
0.280000	24.760425
0.290000	24.760425
0.300000	24.760425
0.310000	24.760425
0.320000	24.760425
0.330000	24.760425
0.340000	24.760425
0.350000	24.760425
0.360000	24.760425
0.370000	24.760425
0.380000	24.760425
0.390000	24.760425
0.400000	24.760425
0.410000	24.760425
0.420000	24.760425
0.430000	24.760425
0.440000	24.760425
0.450000	24.760425
0.460000	24.760425
0.470000	24.760425
0.480000	24.760425
0.490000	24.760425
0.500000	24.767898
0.510000	24.767898
0.520000	24.767898
0.530000	24.767898
0.540000	24.767898
0.550000	24.767898
0.560000	24.767898
0.570000	24.767898
0.580000	24.767898
0.590000	24.767898
0.600000	24.767898
0.610000	24.767898
0.620000	24.767898
0.630000	24.767898
0.640000	24.767898
0.650000	24.767898
0.660000	24.767898
0.670000	24.767898
0.680000	24.767898
0.690000	24.767898
0.700000	24.767898
0.710000	24.767898
0.720000	24.767898
0.730000	24.767898
0.740000	24.767898
0.750000	24.767898
0.760000	24.767898
0.770000	24.767898
0.780000	24.767898
0.790000	24.767898
0.800000	24.767898
0.810000	24.767898
0.820000	24.767898
0.830000	24.767898
0.840000	24.767898
0.850000	24.767898
0.860000	24.767898
0.870000	24.767898
0.880000	24.767898
0.890000	24.767898
0.900000	24.767898
0.910000	24.767898
0.920000	24.767898
0.930000	24.767898
0.940000	24.767898
0.950000	24.767898
0.960000	24.767898
0.970000	24.767898
0.980000	24.767898
0.990000	24.767898
1.000000	24.830615
1.010000	24.830615
1.020000	24.830615
1.030000	24.830615
1.040000	24.830615
1.050000	24.830615
1.060000	24.830615
1.070000	24.830615
1.080000	24.830615
1.090000	24.830615
1.100000	24.830615
1.110000	24.830615
1.120000	24.830615
1.130000	24.830615
1.140000	24.830615
1.150000	24.830615
1.160000	24.830615
1.170000	24.830615
1.180000	24.830615
1.190000	24.830615
1.200000	24.830615
1.210000	24.830615
1.220000	24.830615
1.230000	24.830615
1.240000	24.830615
1.250000	24.830615
1.260000	24.830615
1.270000	24.830615
1.280000	24.830615
1.290000	24.830615
1.300000	24.830615
1.310000	24.830615
1.320000	24.830615
1.330000	24.830615
1.340000	24.830615
1.350000	24.830615
1.360000	24.830615
1.370000	24.830615
1.380000	24.830615
1.390000	24.830615
1.400000	24.830615
1.410000	24.830615
1.420000	24.830615
1.430000	24.830615
1.440000	24.830615
1.450000	24.830615
1.460000	24.830615
1.470000	24.830615
1.480000	24.830615
1.490000	24.830615
1.500000	24.974648
1.510000	24.974648
1.520000	24.974648
1.530000	24.974648
1.540000	24.974648
1.550000	24.974648
1.560000	24.974648
1.570000	24.974648
1.580000	24.974648
1.590000	24.974648
1.600000	24.974648
1.610000	24.974648
1.620000	24.974648
1.630000	24.974648
1.640000	24.974648
1.650000	24.974648
1.660000	24.974648
1.670000	24.974648
1.680000	24.974648
1.690000	24.974648
1.700000	24.974648
1.710000	24.974648
1.720000	24.974648
1.730000	24.974648
1.740000	24.974648
1.750000	24.974648
1.760000	24.974648
1.770000	24.974648
1.780000	24.974648
1.790000	24.974648
1.800000	24.974648
1.810000	24.974648
1.820000	24.974648
1.830000	24.974648
1.840000	24.974648
1.850000	24.974648
1.860000	24.974648
1.870000	24.974648
1.880000	24.974648
1.890000	24.974648
1.900000	24.974648
1.910000	24.974648
1.920000	24.974648
1.930000	24.974648
1.940000	24.974648
1.950000	24.974648
1.960000	24.974648
1.970000	24.974648
1.980000	24.974648
1.990000	24.974648
2.000000	25.187165
2.010000	25.187165
2.020000	25.187165
2.030000	25.187165
2.040000	25.187165
2.050000	25.187165
2.060000	25.187165
2.070000	25.187165
2.080000	25.187165
2.090000	25.187165
2.100000	25.187165
2.110000	25.187165
2.120000	25.187165
2.130000	25.187165
2.140000	25.187165
2.150000	25.187165
2.160000	25.187165
2.170000	25.187165
2.180000	25.187165
2.190000	25.187165
2.200000	25.187165
2.210000	25.187165
2.220000	25.187165
2.230000	25.187165
2.240000	25.187165
2.250000	25.187165
2.260000	25.187165
2.270000	25.187165
2.280000	25.187165
2.290000	25.187165
2.300000	25.187165
2.310000	25.187165
2.320000	25.187165
2.330000	25.187165
2.340000	25.187165
2.350000	25.187165
2.360000	25.187165
2.370000	25.187165
2.380000	25.187165
2.390000	25.187165
2.400000	25.187165
2.410000	25.187165
2.420000	25.187165
2.430000	25.187165
2.440000	25.187165
2.450000	25.187165
2.460000	25.187165
2.470000	25.187165
2.480000	25.187165
2.490000	25.187165
2.500000	25.449004
2.510000	25.449004
2.520000	25.449004
2.530000	25.449004
2.540000	25.449004
2.550000	25.449004
2.560000	25.449004
2.570000	25.449004
2.580000	25.449004
2.590000	25.449004
2.600000	25.449004
2.610000	25.449004
2.620000	25.449004
2.630000	25.449004
2.640000	25.449004
2.650000	25.449004
2.660000	25.449004
2.670000	25.449004
2.680000	25.449004
2.690000	25.449004
2.700000	25.449004
2.710000	25.449004
2.720000	25.449004
2.730000	25.449004
2.740000	25.449004
2.750000	25.449004
2.760000	25.449004
2.770000	25.449004
2.780000	25.449004
2.790000	25.449004
2.800000	25.449004
2.810000	25.449004
2.820000	25.449004
2.830000	25.449004
2.840000	25.449004
2.850000	25.449004
2.860000	25.449004
2.870000	25.449004
2.880000	25.449004
2.890000	25.449004
2.900000	25.449004
2.910000	25.449004
2.920000	25.449004
2.930000	25.449004
2.940000	25.449004
2.950000	25.449004
2.960000	25.449004
2.970000	25.449004
2.980000	25.449004
2.990000	25.449004
3.000000	25.747166
3.010000	25.747166
3.020000	25.747166
3.030000	25.747166
3.040000	25.747166
3.050000	25.747166
3.060000	25.747166
3.070000	25.747166
3.080000	25.747166
3.090000	25.747166
3.100000	25.747166
3.110000	25.747166
3.120000	25.747166
3.130000	25.747166
3.140000	25.747166
3.150000	25.747166
3.160000	25.747166
3.170000	25.747166
3.180000	25.747166
3.190000	25.747166
3.200000	25.747166
3.210000	25.747166
3.220000	25.747166
3.230000	25.747166
3.240000	25.747166
3.250000	25.747166
3.260000	25.747166
3.270000	25.747166
3.280000	25.747166
3.290000	25.747166
3.300000	25.747166
3.310000	25.747166
3.320000	25.747166
3.330000	25.747166
3.340000	25.747166
3.350000	25.747166
3.360000	25.747166
3.370000	25.747166
3.380000	25.747166
3.390000	25.747166
3.400000	25.747166
3.410000	25.747166
3.420000	25.747166
3.430000	25.747166
3.440000	25.747166
3.450000	25.747166
3.460000	25.747166
3.470000	25.747166
3.480000	25.747166
3.490000	25.747166
3.500000	26.060472
3.510000	26.060472
3.520000	26.060472
3.530000	26.060472
3.540000	26.060472
3.550000	26.060472
3.560000	26.060472
3.570000	26.060472
3.580000	26.060472
3.590000	26.060472
3.600000	26.060472
3.610000	26.060472
3.620000	26.060472
3.630000	26.060472
3.640000	26.060472
3.650000	26.060472
3.660000	26.060472
3.670000	26.060472
3.680000	26.060472
3.690000	26.060472
3.700000	26.060472
3.710000	26.060472
3.720000	26.060472
3.730000	26.060472
3.740000	26.060472
3.750000	26.060472
3.760000	26.060472
3.770000	26.060472
3.780000	26.060472
3.790000	26.060472
3.800000	26.060472
3.810000	26.060472
3.820000	26.060472
3.830000	26.060472
3.840000	26.060472
3.850000	26.060472
3.860000	26.060472
3.870000	26.060472
3.880000	26.060472
3.890000	26.060472
3.900000	26.060472
3.910000	26.060472
3.920000	26.060472
3.930000	26.060472
3.940000	26.060472
3.950000	26.060472
3.960000	26.060472
3.970000	26.060472
3.980000	26.060472
3.990000	26.060472
4.000000	26.324136
4.010000	26.324136
4.020000	26.324136
4.030000	26.324136
4.040000	26.324136
4.050000	26.324136
4.060000	26.324136
4.070000	26.324136
4.080000	26.324136
4.090000	26.324136
4.100000	26.324136
4.110000	26.324136
4.120000	26.324136
4.130000	26.324136
4.140000	26.324136
4.150000	26.324136
4.160000	26.324136
4.170000	26.324136
4.180000	26.324136
4.190000	26.324136
4.200000	26.324136
4.210000	26.324136
4.220000	26.324136
4.230000	26.324136
4.240000	26.324136
4.250000	26.324136
4.260000	26.324136
4.270000	26.324136
4.280000	26.324136
4.290000	26.324136
4.300000	26.324136
4.310000	26.324136
4.320000	26.324136
4.330000	26.324136
4.340000	26.324136
4.350000	26.324136
4.360000	26.324136
4.370000	26.324136
4.380000	26.324136
4.390000	26.324136
4.400000	26.324136
4.410000	26.324136
4.420000	26.324136
4.430000	26.324136
4.440000	26.324136
4.450000	26.324136
4.460000	26.324136
4.470000	26.324136
4.480000	26.324136
4.490000	26.324136
4.500000	26.521876
4.510000	26.521876
4.520000	26.521876
4.530000	26.521876
4.540000	26.521876
4.550000	26.521876
4.560000	26.521876
4.570000	26.521876
4.580000	26.521876
4.590000	26.521876
4.600000	26.521876
4.610000	26.521876
4.620000	26.521876
4.630000	26.521876
4.640000	26.521876
4.650000	26.521876
4.660000	26.521876
4.670000	26.521876
4.680000	26.521876
4.690000	26.521876
4.700000	26.521876
4.710000	26.521876
4.720000	26.521876
4.730000	26.521876
4.740000	26.521876
4.750000	26.521876
4.760000	26.521876
4.770000	26.521876
4.780000	26.521876
4.790000	26.521876
4.800000	26.521876
4.810000	26.521876
4.820000	26.521876
4.830000	26.521876
4.840000	26.521876
4.850000	26.521876
4.860000	26.521876
4.870000	26.521876
4.880000	26.521876
4.890000	26.521876
4.900000	26.521876
4.910000	26.521876
4.920000	26.521876
4.930000	26.521876
4.940000	26.521876
4.950000	26.521876
4.960000	26.521876
4.970000	26.521876
4.980000	26.521876
4.990000	26.521876
5.000000	26.662497
5.010000	26.662497
5.020000	26.662497
5.030000	26.662497
5.040000	26.662497
5.050000	26.662497
5.060000	26.662497
5.070000	26.662497
5.080000	26.662497
5.090000	26.662497
5.100000	26.662497
5.110000	26.662497
5.120000	26.662497
5.130000	26.662497
5.140000	26.662497
5.150000	26.662497
5.160000	26.662497
5.170000	26.662497
5.180000	26.662497
5.190000	26.662497
5.200000	26.662497
5.210000	26.662497
5.220000	26.662497
5.230000	26.662497
5.240000	26.662497
5.250000	26.662497
5.260000	26.662497
5.270000	26.662497
5.280000	26.662497
5.290000	26.662497
5.300000	26.662497
5.310000	26.662497
5.320000	26.662497
5.330000	26.662497
5.340000	26.662497
5.350000	26.662497
5.360000	26.662497
5.370000	26.662497
5.380000	26.662497
5.390000	26.662497
5.400000	26.662497
5.410000	26.662497
5.420000	26.662497
5.430000	26.662497
5.440000	26.662497
5.450000	26.662497
5.460000	26.662497
5.470000	26.662497
5.480000	26.662497
5.490000	26.662497
5.500000	26.758653
5.510000	26.758653
5.520000	26.758653
5.530000	26.758653
5.540000	26.758653
5.550000	26.758653
5.560000	26.758653
5.570000	26.758653
5.580000	26.758653
5.590000	26.758653
5.600000	26.758653
5.610000	26.758653
5.620000	26.758653
5.630000	26.758653
5.640000	26.758653
5.650000	26.758653
5.660000	26.758653
5.670000	26.758653
5.680000	26.758653
5.690000	26.758653
5.700000	26.758653
5.710000	26.758653
5.720000	26.758653
5.730000	26.758653
5.740000	26.758653
5.750000	26.758653
5.760000	26.758653
5.770000	26.758653
5.780000	26.758653
5.790000	26.758653
5.800000	26.758653
5.810000	26.758653
5.820000	26.758653
5.830000	26.758653
5.840000	26.758653
5.850000	26.758653
5.860000	26.758653
5.870000	26.758653
5.880000	26.758653
5.890000	26.758653
5.900000	26.758653
5.910000	26.758653
5.920000	26.758653
5.930000	26.758653
5.940000	26.758653
5.950000	26.758653
5.960000	26.758653
5.970000	26.758653
5.980000	26.758653
5.990000	26.758653
6.000000	26.820242
6.010000	26.820242
6.020000	26.820242
6.030000	26.820242
6.040000	26.820242
6.050000	26.820242
6.060000	26.820242
6.070000	26.820242
6.080000	26.820242
6.090000	26.820242
6.100000	26.820242
6.110000	26.820242
6.120000	26.820242
6.130000	26.820242
6.140000	26.820242
6.150000	26.820242
6.160000	26.820242
6.170000	26.820242
6.180000	26.820242
6.190000	26.820242
6.200000	26.820242
6.210000	26.820242
6.220000	26.820242
6.230000	26.820242
6.240000	26.820242
6.250000	26.820242
6.260000	26.820242
6.270000	26.820242
6.280000	26.820242
6.290000	26.820242
6.300000	26.820242
6.310000	26.820242
6.320000	26.820242
6.330000	26.820242
6.340000	26.820242
6.350000	26.820242
6.360000	26.820242
6.370000	26.820242
6.380000	26.820242
6.390000	26.820242
6.400000	26.820242
6.410000	26.820242
6.420000	26.820242
6.430000	26.820242
6.440000	26.820242
6.450000	26.820242
6.460000	26.820242
6.470000	26.820242
6.480000	26.820242
6.490000	26.820242
6.500000	26.856923
6.510000	26.856923
6.520000	26.856923
6.530000	26.856923
6.540000	26.856923
6.550000	26.856923
6.560000	26.856923
6.570000	26.856923
6.580000	26.856923
6.590000	26.856923
6.600000	26.856923
6.610000	26.856923
6.620000	26.856923
6.630000	26.856923
6.640000	26.856923
6.650000	26.856923
6.660000	26.856923
6.670000	26.856923
6.680000	26.856923
6.690000	26.856923
6.700000	26.856923
6.710000	26.856923
6.720000	26.856923
6.730000	26.856923
6.740000	26.856923
6.750000	26.856923
6.760000	26.856923
6.770000	26.856923
6.780000	26.856923
6.790000	26.856923
6.800000	26.856923
6.810000	26.856923
6.820000	26.856923
6.830000	26.856923
6.840000	26.856923
6.850000	26.856923
6.860000	26.856923
6.870000	26.856923
6.880000	26.856923
6.890000	26.856923
6.900000	26.856923
6.910000	26.856923
6.920000	26.856923
6.930000	26.856923
6.940000	26.856923
6.950000	26.856923
6.960000	26.856923
6.970000	26.856923
6.980000	26.856923
6.990000	26.856923
7.000000	26.873692
7.010000	26.873692
7.020000	26.873692
7.030000	26.873692
7.040000	26.873692
7.050000	26.873692
7.060000	26.873692
7.070000	26.873692
7.080000	26.873692
7.090000	26.873692
7.100000	26.873692
7.110000	26.873692
7.120000	26.873692
7.130000	26.873692
7.140000	26.873692
7.150000	26.873692
7.160000	26.873692
7.170000	26.873692
7.180000	26.873692
7.190000	26.873692
7.200000	26.873692
7.210000	26.873692
7.220000	26.873692
7.230000	26.873692
7.240000	26.873692
7.250000	26.873692
7.260000	26.873692
7.270000	26.873692
7.280000	26.873692
7.290000	26.873692
7.300000	26.873692
7.310000	26.873692
7.320000	26.873692
7.330000	26.873692
7.340000	26.873692
7.350000	26.873692
7.360000	26.873692
7.370000	26.873692
7.380000	26.873692
7.390000	26.873692
7.400000	26.873692
7.410000	26.873692
7.420000	26.873692
7.430000	26.873692
7.440000	26.873692
7.450000	26.873692
7.460000	26.873692
7.470000	26.873692
7.480000	26.873692
7.490000	26.873692
7.500000	26.875960
7.510000	26.875960
7.520000	26.875960
7.530000	26.875960
7.540000	26.875960
7.550000	26.875960
7.560000	26.875960
7.570000	26.875960
7.580000	26.875960
7.590000	26.875960
7.600000	26.875960
7.610000	26.875960
7.620000	26.875960
7.630000	26.875960
7.640000	26.875960
7.650000	26.875960
7.660000	26.875960
7.670000	26.875960
7.680000	26.875960
7.690000	26.875960
7.700000	26.875960
7.710000	26.875960
7.720000	26.875960
7.730000	26.875960
7.740000	26.875960
7.750000	26.875960
7.760000	26.875960
7.770000	26.875960
7.780000	26.875960
7.790000	26.875960
7.800000	26.875960
7.810000	26.875960
7.820000	26.875960
7.830000	26.875960
7.840000	26.875960
7.850000	26.875960
7.860000	26.875960
7.870000	26.875960
7.880000	26.875960
7.890000	26.875960
7.900000	26.875960
7.910000	26.875960
7.920000	26.875960
7.930000	26.875960
7.940000	26.875960
7.950000	26.875960
7.960000	26.875960
7.970000	26.875960
7.980000	26.875960
7.990000	26.875960
8.000000	26.867294
8.010000	26.867294
8.020000	26.867294
8.030000	26.867294
8.040000	26.867294
8.050000	26.867294
8.060000	26.867294
8.070000	26.867294
8.080000	26.867294
8.090000	26.867294
8.100000	26.867294
8.110000	26.867294
8.120000	26.867294
8.130000	26.867294
8.140000	26.867294
8.150000	26.867294
8.160000	26.867294
8.170000	26.867294
8.180000	26.867294
8.190000	26.867294
8.200000	26.867294
8.210000	26.867294
8.220000	26.867294
8.230000	26.867294
8.240000	26.867294
8.250000	26.867294
8.260000	26.867294
8.270000	26.867294
8.280000	26.867294
8.290000	26.867294
8.300000	26.867294
8.310000	26.867294
8.320000	26.867294
8.330000	26.867294
8.340000	26.867294
8.350000	26.867294
8.360000	26.867294
8.370000	26.867294
8.380000	26.867294
8.390000	26.867294
8.400000	26.867294
8.410000	26.867294
8.420000	26.867294
8.430000	26.867294
8.440000	26.867294
8.450000	26.867294
8.460000	26.867294
8.470000	26.867294
8.480000	26.867294
8.490000	26.867294
8.500000	26.849792
8.510000	26.849792
8.520000	26.849792
8.530000	26.849792
8.540000	26.849792
8.550000	26.849792
8.560000	26.849792
8.570000	26.849792
8.580000	26.849792
8.590000	26.849792
8.600000	26.849792
8.610000	26.849792
8.620000	26.849792
8.630000	26.849792
8.640000	26.849792
8.650000	26.849792
8.660000	26.849792
8.670000	26.849792
8.680000	26.849792
8.690000	26.849792
8.700000	26.849792
8.710000	26.849792
8.720000	26.849792
8.730000	26.849792
8.740000	26.849792
8.750000	26.849792
8.760000	26.849792
8.770000	26.849792
8.780000	26.849792
8.790000	26.849792
8.800000	26.849792
8.810000	26.849792
8.820000	26.849792
8.830000	26.849792
8.840000	26.849792
8.850000	26.849792
8.860000	26.849792
8.870000	26.849792
8.880000	26.849792
8.890000	26.849792
8.900000	26.849792
8.910000	26.849792
8.920000	26.849792
8.930000	26.849792
8.940000	26.849792
8.950000	26.849792
8.960000	26.849792
8.970000	26.849792
8.980000	26.849792
8.990000	26.849792
9.000000	26.825981
9.010000	26.825981
9.020000	26.825981
9.030000	26.825981
9.040000	26.825981
9.050000	26.825981
9.060000	26.825981
9.070000	26.825981
9.080000	26.825981
9.090000	26.825981
9.100000	26.825981
9.110000	26.825981
9.120000	26.825981
9.130000	26.825981
9.140000	26.825981
9.150000	26.825981
9.160000	26.825981
9.170000	26.825981
9.180000	26.825981
9.190000	26.825981
9.200000	26.825981
9.210000	26.825981
9.220000	26.825981
9.230000	26.825981
9.240000	26.825981
9.250000	26.825981
9.260000	26.825981
9.270000	26.825981
9.280000	26.825981
9.290000	26.825981
9.300000	26.825981
9.310000	26.825981
9.320000	26.825981
9.330000	26.825981
9.340000	26.825981
9.350000	26.825981
9.360000	26.825981
9.370000	26.825981
9.380000	26.825981
9.390000	26.825981
9.400000	26.825981
9.410000	26.825981
9.420000	26.825981
9.430000	26.825981
9.440000	26.825981
9.450000	26.825981
9.460000	26.825981
9.470000	26.825981
9.480000	26.825981
9.490000	26.825981
9.500000	26.798273
9.510000	26.798273
9.520000	26.798273
9.530000	26.798273
9.540000	26.798273
9.550000	26.798273
9.560000	26.798273
9.570000	26.798273
9.580000	26.798273
9.590000	26.798273
9.600000	26.798273
9.610000	26.798273
9.620000	26.798273
9.630000	26.798273
9.640000	26.798273
9.650000	26.798273
9.660000	26.798273
9.670000	26.798273
9.680000	26.798273
9.690000	26.798273
9.700000	26.798273
9.710000	26.798273
9.720000	26.798273
9.730000	26.798273
9.740000	26.798273
9.750000	26.798273
9.760000	26.798273
9.770000	26.798273
9.780000	26.798273
9.790000	26.798273
9.800000	26.798273
9.810000	26.798273
9.820000	26.798273
9.830000	26.798273
9.840000	26.798273
9.850000	26.798273
9.860000	26.798273
9.870000	26.798273
9.880000	26.798273
9.890000	26.798273
9.900000	26.798273
9.910000	26.798273
9.920000	26.798273
9.930000	26.798273
9.940000	26.798273
9.950000	26.798273
9.960000	26.798273
9.970000	26.798273
9.980000	26.798273
9.990000	26.798273
10.000000	26.766821
10.010000	26.766821
10.020000	26.766821
10.030000	26.766821
10.040000	26.766821
10.050000	26.766821
10.060000	26.766821
10.070000	26.766821
10.080000	26.766821
10.090000	26.766821
10.100000	26.766821
10.110000	26.766821
10.120000	26.766821
10.130000	26.766821
10.140000	26.766821
10.150000	26.766821
10.160000	26.766821
10.170000	26.766821
10.180000	26.766821
10.190000	26.766821
10.200000	26.766821
10.210000	26.766821
10.220000	26.766821
10.230000	26.766821
10.240000	26.766821
10.250000	26.766821
10.260000	26.766821
10.270000	26.766821
10.280000	26.766821
10.290000	26.766821
10.300000	26.766821
10.310000	26.766821
10.320000	26.766821
10.330000	26.766821
10.340000	26.766821
10.350000	26.766821
10.360000	26.766821
10.370000	26.766821
10.380000	26.766821
10.390000	26.766821
10.400000	26.766821
10.410000	26.766821
10.420000	26.766821
10.430000	26.766821
10.440000	26.766821
10.450000	26.766821
10.460000	26.766821
10.470000	26.766821
10.480000	26.766821
10.490000	26.766821
10.500000	26.732417
10.510000	26.732417
10.520000	26.732417
10.530000	26.732417
10.540000	26.732417
10.550000	26.732417
10.560000	26.732417
10.570000	26.732417
10.580000	26.732417
10.590000	26.732417
10.600000	26.732417
10.610000	26.732417
10.620000	26.732417
10.630000	26.732417
10.640000	26.732417
10.650000	26.732417
10.660000	26.732417
10.670000	26.732417
10.680000	26.732417
10.690000	26.732417
10.700000	26.732417
10.710000	26.732417
10.720000	26.732417
10.730000	26.732417
10.740000	26.732417
10.750000	26.732417
10.760000	26.732417
10.770000	26.732417
10.780000	26.732417
10.790000	26.732417
10.800000	26.732417
10.810000	26.732417
10.820000	26.732417
10.830000	26.732417
10.840000	26.732417
10.850000	26.732417
10.860000	26.732417
10.870000	26.732417
10.880000	26.732417
10.890000	26.732417
10.900000	26.732417
10.910000	26.732417
10.920000	26.732417
10.930000	26.732417
10.940000	26.732417
10.950000	26.732417
10.960000	26.732417
10.970000	26.732417
10.980000	26.732417
10.990000	26.732417
11.000000	26.696731
11.010000	26.696731
11.020000	26.696731
11.030000	26.696731
11.040000	26.696731
11.050000	26.696731
11.060000	26.696731
11.070000	26.696731
11.080000	26.696731
11.090000	26.696731
11.100000	26.696731
11.110000	26.696731
11.120000	26.696731
11.130000	26.696731
11.140000	26.696731
11.150000	26.696731
11.160000	26.696731
11.170000	26.696731
11.180000	26.696731
11.190000	26.696731
11.200000	26.696731
11.210000	26.696731
11.220000	26.696731
11.230000	26.696731
11.240000	26.696731
11.250000	26.696731
11.260000	26.696731
11.270000	26.696731
11.280000	26.696731
11.290000	26.696731
11.300000	26.696731
11.310000	26.696731
11.320000	26.696731
11.330000	26.696731
11.340000	26.696731
11.350000	26.696731
11.360000	26.696731
11.370000	26.696731
11.380000	26.696731
11.390000	26.696731
11.400000	26.696731
11.410000	26.696731
11.420000	26.696731
11.430000	26.696731
11.440000	26.696731
11.450000	26.696731
11.460000	26.696731
11.470000	26.696731
11.480000	26.696731
11.490000	26.696731
11.500000	26.659110
11.510000	26.659110
11.520000	26.659110
11.530000	26.659110
11.540000	26.659110
11.550000	26.659110
11.560000	26.659110
11.570000	26.659110
11.580000	26.659110
11.590000	26.659110
11.600000	26.659110
11.610000	26.659110
11.620000	26.659110
11.630000	26.659110
11.640000	26.659110
11.650000	26.659110
11.660000	26.659110
11.670000	26.659110
11.680000	26.659110
11.690000	26.659110
11.700000	26.659110
11.710000	26.659110
11.720000	26.659110
11.730000	26.659110
11.740000	26.659110
11.750000	26.659110
11.760000	26.659110
11.770000	26.659110
11.780000	26.659110
11.790000	26.659110
11.800000	26.659110
11.810000	26.659110
11.820000	26.659110
11.830000	26.659110
11.840000	26.659110
11.850000	26.659110
11.860000	26.659110
11.870000	26.659110
11.880000	26.659110
11.890000	26.659110
11.900000	26.659110
11.910000	26.659110
11.920000	26.659110
11.930000	26.659110
11.940000	26.659110
11.950000	26.659110
11.960000	26.659110
11.970000	26.659110
11.980000	26.659110
11.990000	26.659110
12.000000	26.620935
12.010000	26.620935
12.020000	26.620935
12.030000	26.620935
12.040000	26.620935
12.050000	26.620935
12.060000	26.620935
12.070000	26.620935
12.080000	26.620935
12.090000	26.620935
12.100000	26.620935
12.110000	26.620935
12.120000	26.620935
12.130000	26.620935
12.140000	26.620935
12.150000	26.620935
12.160000	26.620935
12.170000	26.620935
12.180000	26.620935
12.190000	26.620935
12.200000	26.620935
12.210000	26.620935
12.220000	26.620935
12.230000	26.620935
12.240000	26.620935
12.250000	26.620935
12.260000	26.620935
12.270000	26.620935
12.280000	26.620935
12.290000	26.620935
12.300000	26.620935
12.310000	26.620935
12.320000	26.620935
12.330000	26.620935
12.340000	26.620935
12.350000	26.620935
12.360000	26.620935
12.370000	26.620935
12.380000	26.620935
12.390000	26.620935
12.400000	26.620935
12.410000	26.620935
12.420000	26.620935
12.430000	26.620935
12.440000	26.620935
12.450000	26.620935
12.460000	26.620935
12.470000	26.620935
12.480000	26.620935
12.490000	26.620935
12.500000	26.582497
12.510000	26.582497
12.520000	26.582497
12.530000	26.582497
12.540000	26.582497
12.550000	26.582497
12.560000	26.582497
12.570000	26.582497
12.580000	26.582497
12.590000	26.582497
12.600000	26.582497
12.610000	26.582497
12.620000	26.582497
12.630000	26.582497
12.640000	26.582497
12.650000	26.582497
12.660000	26.582497
12.670000	26.582497
12.680000	26.582497
12.690000	26.582497
12.700000	26.582497
12.710000	26.582497
12.720000	26.582497
12.730000	26.582497
12.740000	26.582497
12.750000	26.582497
12.760000	26.582497
12.770000	26.582497
12.780000	26.582497
12.790000	26.582497
12.800000	26.582497
12.810000	26.582497
12.820000	26.582497
12.830000	26.582497
12.840000	26.582497
12.850000	26.582497
12.860000	26.582497
12.870000	26.582497
12.880000	26.582497
12.890000	26.582497
12.900000	26.582497
12.910000	26.582497
12.920000	26.582497
12.930000	26.582497
12.940000	26.582497
12.950000	26.582497
12.960000	26.582497
12.970000	26.582497
12.980000	26.582497
12.990000	26.582497
13.000000	26.543964
13.010000	26.543964
13.020000	26.543964
13.030000	26.543964
13.040000	26.543964
13.050000	26.543964
13.060000	26.543964
13.070000	26.543964
13.080000	26.543964
13.090000	26.543964
13.100000	26.543964
13.110000	26.543964
13.120000	26.543964
13.130000	26.543964
13.140000	26.543964
13.150000	26.543964
13.160000	26.543964
13.170000	26.543964
13.180000	26.543964
13.190000	26.543964
13.200000	26.543964
13.210000	26.543964
13.220000	26.543964
13.230000	26.543964
13.240000	26.543964
13.250000	26.543964
13.260000	26.543964
13.270000	26.543964
13.280000	26.543964
13.290000	26.543964
13.300000	26.543964
13.310000	26.543964
13.320000	26.543964
13.330000	26.543964
13.340000	26.543964
13.350000	26.543964
13.360000	26.543964
13.370000	26.543964
13.380000	26.543964
13.390000	26.543964
13.400000	26.543964
13.410000	26.543964
13.420000	26.543964
13.430000	26.543964
13.440000	26.543964
13.450000	26.543964
13.460000	26.543964
13.470000	26.543964
13.480000	26.543964
13.490000	26.543964
13.500000	26.505494
13.510000	26.505494
13.520000	26.505494
13.530000	26.505494
13.540000	26.505494
13.550000	26.505494
13.560000	26.505494
13.570000	26.505494
13.580000	26.505494
13.590000	26.505494
13.600000	26.505494
13.610000	26.505494
13.620000	26.505494
13.630000	26.505494
13.640000	26.505494
13.650000	26.505494
13.660000	26.505494
13.670000	26.505494
13.680000	26.505494
13.690000	26.505494
13.700000	26.505494
13.710000	26.505494
13.720000	26.505494
13.730000	26.505494
13.740000	26.505494
13.750000	26.505494
13.760000	26.505494
13.770000	26.505494
13.780000	26.505494
13.790000	26.505494
13.800000	26.505494
13.810000	26.505494
13.820000	26.505494
13.830000	26.505494
13.840000	26.505494
13.850000	26.505494
13.860000	26.505494
13.870000	26.505494
13.880000	26.505494
13.890000	26.505494
13.900000	26.505494
13.910000	26.505494
13.920000	26.505494
13.930000	26.505494
13.940000	26.505494
13.950000	26.505494
13.960000	26.505494
13.970000	26.505494
13.980000	26.505494
13.990000	26.505494
14.000000	26.467707
14.010000	26.467707
14.020000	26.467707
14.030000	26.467707
14.040000	26.467707
14.050000	26.467707
14.060000	26.467707
14.070000	26.467707
14.080000	26.467707
14.090000	26.467707
14.100000	26.467707
14.110000	26.467707
14.120000	26.467707
14.130000	26.467707
14.140000	26.467707
14.150000	26.467707
14.160000	26.467707
14.170000	26.467707
14.180000	26.467707
14.190000	26.467707
14.200000	26.467707
14.210000	26.467707
14.220000	26.467707
14.230000	26.467707
14.240000	26.467707
14.250000	26.467707
14.260000	26.467707
14.270000	26.467707
14.280000	26.467707
14.290000	26.467707
14.300000	26.467707
14.310000	26.467707
14.320000	26.467707
14.330000	26.467707
14.340000	26.467707
14.350000	26.467707
14.360000	26.467707
14.370000	26.467707
14.380000	26.467707
14.390000	26.467707
14.400000	26.467707
14.410000	26.467707
14.420000	26.467707
14.430000	26.467707
14.440000	26.467707
14.450000	26.467707
14.460000	26.467707
14.470000	26.467707
14.480000	26.467707
14.490000	26.467707
14.500000	26.429958
14.510000	26.429958
14.520000	26.429958
14.530000	26.429958
14.540000	26.429958
14.550000	26.429958
14.560000	26.429958
14.570000	26.429958
14.580000	26.429958
14.590000	26.429958
14.600000	26.429958
14.610000	26.429958
14.620000	26.429958
14.630000	26.429958
14.640000	26.429958
14.650000	26.429958
14.660000	26.429958
14.670000	26.429958
14.680000	26.429958
14.690000	26.429958
14.700000	26.429958
14.710000	26.429958
14.720000	26.429958
14.730000	26.429958
14.740000	26.429958
14.750000	26.429958
14.760000	26.429958
14.770000	26.429958
14.780000	26.429958
14.790000	26.429958
14.800000	26.429958
14.810000	26.429958
14.820000	26.429958
14.830000	26.429958
14.840000	26.429958
14.850000	26.429958
14.860000	26.429958
14.870000	26.429958
14.880000	26.429958
14.890000	26.429958
14.900000	26.429958
14.910000	26.429958
14.920000	26.429958
14.930000	26.429958
14.940000	26.429958
14.950000	26.429958
14.960000	26.429958
14.970000	26.429958
14.980000	26.429958
14.990000	26.429958
15.000000	26.393607
15.010000	26.393607
15.020000	26.393607
15.030000	26.393607
15.040000	26.393607
15.050000	26.393607
15.060000	26.393607
15.070000	26.393607
15.080000	26.393607
15.090000	26.393607
15.100000	26.393607
15.110000	26.393607
15.120000	26.393607
15.130000	26.393607
15.140000	26.393607
15.150000	26.393607
15.160000	26.393607
15.170000	26.393607
15.180000	26.393607
15.190000	26.393607
15.200000	26.393607
15.210000	26.393607
15.220000	26.393607
15.230000	26.393607
15.240000	26.393607
15.250000	26.393607
15.260000	26.393607
15.270000	26.393607
15.280000	26.393607
15.290000	26.393607
15.300000	26.393607
15.310000	26.393607
15.320000	26.393607
15.330000	26.393607
15.340000	26.393607
15.350000	26.393607
15.360000	26.393607
15.370000	26.393607
15.380000	26.393607
15.390000	26.393607
15.400000	26.393607
15.410000	26.393607
15.420000	26.393607
15.430000	26.393607
15.440000	26.393607
15.450000	26.393607
15.460000	26.393607
15.470000	26.393607
15.480000	26.393607
15.490000	26.393607
15.500000	26.357163
15.510000	26.357163
15.520000	26.357163
15.530000	26.357163
15.540000	26.357163
15.550000	26.357163
15.560000	26.357163
15.570000	26.357163
15.580000	26.357163
15.590000	26.357163
15.600000	26.357163
15.610000	26.357163
15.620000	26.357163
15.630000	26.357163
15.640000	26.357163
15.650000	26.357163
15.660000	26.357163
15.670000	26.357163
15.680000	26.357163
15.690000	26.357163
15.700000	26.357163
15.710000	26.357163
15.720000	26.357163
15.730000	26.357163
15.740000	26.357163
15.750000	26.357163
15.760000	26.357163
15.770000	26.357163
15.780000	26.357163
15.790000	26.357163
15.800000	26.357163
15.810000	26.357163
15.820000	26.357163
15.830000	26.357163
15.840000	26.357163
15.850000	26.357163
15.860000	26.357163
15.870000	26.357163
15.880000	26.357163
15.890000	26.357163
15.900000	26.357163
15.910000	26.357163
15.920000	26.357163
15.930000	26.357163
15.940000	26.357163
15.950000	26.357163
15.960000	26.357163
15.970000	26.357163
15.980000	26.357163
15.990000	26.357163
16.000000	26.321701
16.010000	26.321701
16.020000	26.321701
16.030000	26.321701
16.040000	26.321701
16.050000	26.321701
16.060000	26.321701
16.070000	26.321701
16.080000	26.321701
16.090000	26.321701
16.100000	26.321701
16.110000	26.321701
16.120000	26.321701
16.130000	26.321701
16.140000	26.321701
16.150000	26.321701
16.160000	26.321701
16.170000	26.321701
16.180000	26.321701
16.190000	26.321701
16.200000	26.321701
16.210000	26.321701
16.220000	26.321701
16.230000	26.321701
16.240000	26.321701
16.250000	26.321701
16.260000	26.321701
16.270000	26.321701
16.280000	26.321701
16.290000	26.321701
16.300000	26.321701
16.310000	26.321701
16.320000	26.321701
16.330000	26.321701
16.340000	26.321701
16.350000	26.321701
16.360000	26.321701
16.370000	26.321701
16.380000	26.321701
16.390000	26.321701
16.400000	26.321701
16.410000	26.321701
16.420000	26.321701
16.430000	26.321701
16.440000	26.321701
16.450000	26.321701
16.460000	26.321701
16.470000	26.321701
16.480000	26.321701
16.490000	26.321701
16.500000	26.287440
16.510000	26.287440
16.520000	26.287440
16.530000	26.287440
16.540000	26.287440
16.550000	26.287440
16.560000	26.287440
16.570000	26.287440
16.580000	26.287440
16.590000	26.287440
16.600000	26.287440
16.610000	26.287440
16.620000	26.287440
16.630000	26.287440
16.640000	26.287440
16.650000	26.287440
16.660000	26.287440
16.670000	26.287440
16.680000	26.287440
16.690000	26.287440
16.700000	26.287440
16.710000	26.287440
16.720000	26.287440
16.730000	26.287440
16.740000	26.287440
16.750000	26.287440
16.760000	26.287440
16.770000	26.287440
16.780000	26.287440
16.790000	26.287440
16.800000	26.287440
16.810000	26.287440
16.820000	26.287440
16.830000	26.287440
16.840000	26.287440
16.850000	26.287440
16.860000	26.287440
16.870000	26.287440
16.880000	26.287440
16.890000	26.287440
16.900000	26.287440
16.910000	26.287440
16.920000	26.287440
16.930000	26.287440
16.940000	26.287440
16.950000	26.287440
16.960000	26.287440
16.970000	26.287440
16.980000	26.287440
16.990000	26.287440
17.000000	26.253695
17.010000	26.253695
17.020000	26.253695
17.030000	26.253695
17.040000	26.253695
17.050000	26.253695
17.060000	26.253695
17.070000	26.253695
17.080000	26.253695
17.090000	26.253695
17.100000	26.253695
17.110000	26.253695
17.120000	26.253695
17.130000	26.253695
17.140000	26.253695
17.150000	26.253695
17.160000	26.253695
17.170000	26.253695
17.180000	26.253695
17.190000	26.253695
17.200000	26.253695
17.210000	26.253695
17.220000	26.253695
17.230000	26.253695
17.240000	26.253695
17.250000	26.253695
17.260000	26.253695
17.270000	26.253695
17.280000	26.253695
17.290000	26.253695
17.300000	26.253695
17.310000	26.253695
17.320000	26.253695
17.330000	26.253695
17.340000	26.253695
17.350000	26.253695
17.360000	26.253695
17.370000	26.253695
17.380000	26.253695
17.390000	26.253695
17.400000	26.253695
17.410000	26.253695
17.420000	26.253695
17.430000	26.253695
17.440000	26.253695
17.450000	26.253695
17.460000	26.253695
17.470000	26.253695
17.480000	26.253695
17.490000	26.253695
17.500000	26.221105
17.510000	26.221105
17.520000	26.221105
17.530000	26.221105
17.540000	26.221105
17.550000	26.221105
17.560000	26.221105
17.570000	26.221105
17.580000	26.221105
17.590000	26.221105
17.600000	26.221105
17.610000	26.221105
17.620000	26.221105
17.630000	26.221105
17.640000	26.221105
17.650000	26.221105
17.660000	26.221105
17.670000	26.221105
17.680000	26.221105
17.690000	26.221105
17.700000	26.221105
17.710000	26.221105
17.720000	26.221105
17.730000	26.221105
17.740000	26.221105
17.750000	26.221105
17.760000	26.221105
17.770000	26.221105
17.780000	26.221105
17.790000	26.221105
17.800000	26.221105
17.810000	26.221105
17.820000	26.221105
17.830000	26.221105
17.840000	26.221105
17.850000	26.221105
17.860000	26.221105
17.870000	26.221105
17.880000	26.221105
17.890000	26.221105
17.900000	26.221105
17.910000	26.221105
17.920000	26.221105
17.930000	26.221105
17.940000	26.221105
17.950000	26.221105
17.960000	26.221105
17.970000	26.221105
17.980000	26.221105
17.990000	26.221105
