LabVIEW Measurement	
Writer_Version	2
Reader_Version	2
Separator	Tab
Decimal_Separator	.
Multi_Headings	No
X_Columns	One
Time_Pref	Absolute
Operator	biomech-dyno
Date	2023/05/23
Time	16:26:31.1792034999998606061
***End_of_Header***	
	
Channels	1	
Samples	10	
Date	2023/05/23	
Time	18:25:28.0289519999999384055	
X_Dimension	Time	
X0	0.0000000000000000E+0	
Delta_X	0.010000	
***End_of_Header***		
X_Value	Untitled	Comment
0.000000	24.942513
0.010000	24.942513
0.020000	24.942513
0.030000	24.942513
0.040000	24.942513
0.050000	24.942513
0.060000	24.942513
0.070000	24.942513
0.080000	24.942513
0.090000	24.942513
0.100000	24.942513
0.110000	24.942513
0.120000	24.942513
0.130000	24.942513
0.140000	24.942513
0.150000	24.942513
0.160000	24.942513
0.170000	24.942513
0.180000	24.942513
0.190000	24.942513
0.200000	24.942513
0.210000	24.942513
0.220000	24.942513
0.230000	24.942513
0.240000	24.942513
0.250000	24.942513
0.260000	24.942513
0.270000	24.942513
0.280000	24.942513
0.290000	24.942513
0.300000	24.942513
0.310000	24.942513
0.320000	24.942513
0.330000	24.942513
0.340000	24.942513
0.350000	24.942513
0.360000	24.942513
0.370000	24.942513
0.380000	24.942513
0.390000	24.942513
0.400000	24.942513
0.410000	24.942513
0.420000	24.942513
0.430000	24.942513
0.440000	24.942513
0.450000	24.942513
0.460000	24.942513
0.470000	24.942513
0.480000	24.942513
0.490000	24.942513
0.500000	24.956977
0.510000	24.956977
0.520000	24.956977
0.530000	24.956977
0.540000	24.956977
0.550000	24.956977
0.560000	24.956977
0.570000	24.956977
0.580000	24.956977
0.590000	24.956977
0.600000	24.956977
0.610000	24.956977
0.620000	24.956977
0.630000	24.956977
0.640000	24.956977
0.650000	24.956977
0.660000	24.956977
0.670000	24.956977
0.680000	24.956977
0.690000	24.956977
0.700000	24.956977
0.710000	24.956977
0.720000	24.956977
0.730000	24.956977
0.740000	24.956977
0.750000	24.956977
0.760000	24.956977
0.770000	24.956977
0.780000	24.956977
0.790000	24.956977
0.800000	24.956977
0.810000	24.956977
0.820000	24.956977
0.830000	24.956977
0.840000	24.956977
0.850000	24.956977
0.860000	24.956977
0.870000	24.956977
0.880000	24.956977
0.890000	24.956977
0.900000	24.956977
0.910000	24.956977
0.920000	24.956977
0.930000	24.956977
0.940000	24.956977
0.950000	24.956977
0.960000	24.956977
0.970000	24.956977
0.980000	24.956977
0.990000	24.956977
1.000000	25.071106
1.010000	25.071106
1.020000	25.071106
1.030000	25.071106
1.040000	25.071106
1.050000	25.071106
1.060000	25.071106
1.070000	25.071106
1.080000	25.071106
1.090000	25.071106
1.100000	25.071106
1.110000	25.071106
1.120000	25.071106
1.130000	25.071106
1.140000	25.071106
1.150000	25.071106
1.160000	25.071106
1.170000	25.071106
1.180000	25.071106
1.190000	25.071106
1.200000	25.071106
1.210000	25.071106
1.220000	25.071106
1.230000	25.071106
1.240000	25.071106
1.250000	25.071106
1.260000	25.071106
1.270000	25.071106
1.280000	25.071106
1.290000	25.071106
1.300000	25.071106
1.310000	25.071106
1.320000	25.071106
1.330000	25.071106
1.340000	25.071106
1.350000	25.071106
1.360000	25.071106
1.370000	25.071106
1.380000	25.071106
1.390000	25.071106
1.400000	25.071106
1.410000	25.071106
1.420000	25.071106
1.430000	25.071106
1.440000	25.071106
1.450000	25.071106
1.460000	25.071106
1.470000	25.071106
1.480000	25.071106
1.490000	25.071106
1.500000	25.332334
1.510000	25.332334
1.520000	25.332334
1.530000	25.332334
1.540000	25.332334
1.550000	25.332334
1.560000	25.332334
1.570000	25.332334
1.580000	25.332334
1.590000	25.332334
1.600000	25.332334
1.610000	25.332334
1.620000	25.332334
1.630000	25.332334
1.640000	25.332334
1.650000	25.332334
1.660000	25.332334
1.670000	25.332334
1.680000	25.332334
1.690000	25.332334
1.700000	25.332334
1.710000	25.332334
1.720000	25.332334
1.730000	25.332334
1.740000	25.332334
1.750000	25.332334
1.760000	25.332334
1.770000	25.332334
1.780000	25.332334
1.790000	25.332334
1.800000	25.332334
1.810000	25.332334
1.820000	25.332334
1.830000	25.332334
1.840000	25.332334
1.850000	25.332334
1.860000	25.332334
1.870000	25.332334
1.880000	25.332334
1.890000	25.332334
1.900000	25.332334
1.910000	25.332334
1.920000	25.332334
1.930000	25.332334
1.940000	25.332334
1.950000	25.332334
1.960000	25.332334
1.970000	25.332334
1.980000	25.332334
1.990000	25.332334
2.000000	25.712586
2.010000	25.712586
2.020000	25.712586
2.030000	25.712586
2.040000	25.712586
2.050000	25.712586
2.060000	25.712586
2.070000	25.712586
2.080000	25.712586
2.090000	25.712586
2.100000	25.712586
2.110000	25.712586
2.120000	25.712586
2.130000	25.712586
2.140000	25.712586
2.150000	25.712586
2.160000	25.712586
2.170000	25.712586
2.180000	25.712586
2.190000	25.712586
2.200000	25.712586
2.210000	25.712586
2.220000	25.712586
2.230000	25.712586
2.240000	25.712586
2.250000	25.712586
2.260000	25.712586
2.270000	25.712586
2.280000	25.712586
2.290000	25.712586
2.300000	25.712586
2.310000	25.712586
2.320000	25.712586
2.330000	25.712586
2.340000	25.712586
2.350000	25.712586
2.360000	25.712586
2.370000	25.712586
2.380000	25.712586
2.390000	25.712586
2.400000	25.712586
2.410000	25.712586
2.420000	25.712586
2.430000	25.712586
2.440000	25.712586
2.450000	25.712586
2.460000	25.712586
2.470000	25.712586
2.480000	25.712586
2.490000	25.712586
2.500000	26.185420
2.510000	26.185420
2.520000	26.185420
2.530000	26.185420
2.540000	26.185420
2.550000	26.185420
2.560000	26.185420
2.570000	26.185420
2.580000	26.185420
2.590000	26.185420
2.600000	26.185420
2.610000	26.185420
2.620000	26.185420
2.630000	26.185420
2.640000	26.185420
2.650000	26.185420
2.660000	26.185420
2.670000	26.185420
2.680000	26.185420
2.690000	26.185420
2.700000	26.185420
2.710000	26.185420
2.720000	26.185420
2.730000	26.185420
2.740000	26.185420
2.750000	26.185420
2.760000	26.185420
2.770000	26.185420
2.780000	26.185420
2.790000	26.185420
2.800000	26.185420
2.810000	26.185420
2.820000	26.185420
2.830000	26.185420
2.840000	26.185420
2.850000	26.185420
2.860000	26.185420
2.870000	26.185420
2.880000	26.185420
2.890000	26.185420
2.900000	26.185420
2.910000	26.185420
2.920000	26.185420
2.930000	26.185420
2.940000	26.185420
2.950000	26.185420
2.960000	26.185420
2.970000	26.185420
2.980000	26.185420
2.990000	26.185420
3.000000	26.722943
3.010000	26.722943
3.020000	26.722943
3.030000	26.722943
3.040000	26.722943
3.050000	26.722943
3.060000	26.722943
3.070000	26.722943
3.080000	26.722943
3.090000	26.722943
3.100000	26.722943
3.110000	26.722943
3.120000	26.722943
3.130000	26.722943
3.140000	26.722943
3.150000	26.722943
3.160000	26.722943
3.170000	26.722943
3.180000	26.722943
3.190000	26.722943
3.200000	26.722943
3.210000	26.722943
3.220000	26.722943
3.230000	26.722943
3.240000	26.722943
3.250000	26.722943
3.260000	26.722943
3.270000	26.722943
3.280000	26.722943
3.290000	26.722943
3.300000	26.722943
3.310000	26.722943
3.320000	26.722943
3.330000	26.722943
3.340000	26.722943
3.350000	26.722943
3.360000	26.722943
3.370000	26.722943
3.380000	26.722943
3.390000	26.722943
3.400000	26.722943
3.410000	26.722943
3.420000	26.722943
3.430000	26.722943
3.440000	26.722943
3.450000	26.722943
3.460000	26.722943
3.470000	26.722943
3.480000	26.722943
3.490000	26.722943
3.500000	27.275572
3.510000	27.275572
3.520000	27.275572
3.530000	27.275572
3.540000	27.275572
3.550000	27.275572
3.560000	27.275572
3.570000	27.275572
3.580000	27.275572
3.590000	27.275572
3.600000	27.275572
3.610000	27.275572
3.620000	27.275572
3.630000	27.275572
3.640000	27.275572
3.650000	27.275572
3.660000	27.275572
3.670000	27.275572
3.680000	27.275572
3.690000	27.275572
3.700000	27.275572
3.710000	27.275572
3.720000	27.275572
3.730000	27.275572
3.740000	27.275572
3.750000	27.275572
3.760000	27.275572
3.770000	27.275572
3.780000	27.275572
3.790000	27.275572
3.800000	27.275572
3.810000	27.275572
3.820000	27.275572
3.830000	27.275572
3.840000	27.275572
3.850000	27.275572
3.860000	27.275572
3.870000	27.275572
3.880000	27.275572
3.890000	27.275572
3.900000	27.275572
3.910000	27.275572
3.920000	27.275572
3.930000	27.275572
3.940000	27.275572
3.950000	27.275572
3.960000	27.275572
3.970000	27.275572
3.980000	27.275572
3.990000	27.275572
4.000000	27.722531
4.010000	27.722531
4.020000	27.722531
4.030000	27.722531
4.040000	27.722531
4.050000	27.722531
4.060000	27.722531
4.070000	27.722531
4.080000	27.722531
4.090000	27.722531
4.100000	27.722531
4.110000	27.722531
4.120000	27.722531
4.130000	27.722531
4.140000	27.722531
4.150000	27.722531
4.160000	27.722531
4.170000	27.722531
4.180000	27.722531
4.190000	27.722531
4.200000	27.722531
4.210000	27.722531
4.220000	27.722531
4.230000	27.722531
4.240000	27.722531
4.250000	27.722531
4.260000	27.722531
4.270000	27.722531
4.280000	27.722531
4.290000	27.722531
4.300000	27.722531
4.310000	27.722531
4.320000	27.722531
4.330000	27.722531
4.340000	27.722531
4.350000	27.722531
4.360000	27.722531
4.370000	27.722531
4.380000	27.722531
4.390000	27.722531
4.400000	27.722531
4.410000	27.722531
4.420000	27.722531
4.430000	27.722531
4.440000	27.722531
4.450000	27.722531
4.460000	27.722531
4.470000	27.722531
4.480000	27.722531
4.490000	27.722531
4.500000	28.055660
4.510000	28.055660
4.520000	28.055660
4.530000	28.055660
4.540000	28.055660
4.550000	28.055660
4.560000	28.055660
4.570000	28.055660
4.580000	28.055660
4.590000	28.055660
4.600000	28.055660
4.610000	28.055660
4.620000	28.055660
4.630000	28.055660
4.640000	28.055660
4.650000	28.055660
4.660000	28.055660
4.670000	28.055660
4.680000	28.055660
4.690000	28.055660
4.700000	28.055660
4.710000	28.055660
4.720000	28.055660
4.730000	28.055660
4.740000	28.055660
4.750000	28.055660
4.760000	28.055660
4.770000	28.055660
4.780000	28.055660
4.790000	28.055660
4.800000	28.055660
4.810000	28.055660
4.820000	28.055660
4.830000	28.055660
4.840000	28.055660
4.850000	28.055660
4.860000	28.055660
4.870000	28.055660
4.880000	28.055660
4.890000	28.055660
4.900000	28.055660
4.910000	28.055660
4.920000	28.055660
4.930000	28.055660
4.940000	28.055660
4.950000	28.055660
4.960000	28.055660
4.970000	28.055660
4.980000	28.055660
4.990000	28.055660
5.000000	28.293482
5.010000	28.293482
5.020000	28.293482
5.030000	28.293482
5.040000	28.293482
5.050000	28.293482
5.060000	28.293482
5.070000	28.293482
5.080000	28.293482
5.090000	28.293482
5.100000	28.293482
5.110000	28.293482
5.120000	28.293482
5.130000	28.293482
5.140000	28.293482
5.150000	28.293482
5.160000	28.293482
5.170000	28.293482
5.180000	28.293482
5.190000	28.293482
5.200000	28.293482
5.210000	28.293482
5.220000	28.293482
5.230000	28.293482
5.240000	28.293482
5.250000	28.293482
5.260000	28.293482
5.270000	28.293482
5.280000	28.293482
5.290000	28.293482
5.300000	28.293482
5.310000	28.293482
5.320000	28.293482
5.330000	28.293482
5.340000	28.293482
5.350000	28.293482
5.360000	28.293482
5.370000	28.293482
5.380000	28.293482
5.390000	28.293482
5.400000	28.293482
5.410000	28.293482
5.420000	28.293482
5.430000	28.293482
5.440000	28.293482
5.450000	28.293482
5.460000	28.293482
5.470000	28.293482
5.480000	28.293482
5.490000	28.293482
5.500000	28.455568
5.510000	28.455568
5.520000	28.455568
5.530000	28.455568
5.540000	28.455568
5.550000	28.455568
5.560000	28.455568
5.570000	28.455568
5.580000	28.455568
5.590000	28.455568
5.600000	28.455568
5.610000	28.455568
5.620000	28.455568
5.630000	28.455568
5.640000	28.455568
5.650000	28.455568
5.660000	28.455568
5.670000	28.455568
5.680000	28.455568
5.690000	28.455568
5.700000	28.455568
5.710000	28.455568
5.720000	28.455568
5.730000	28.455568
5.740000	28.455568
5.750000	28.455568
5.760000	28.455568
5.770000	28.455568
5.780000	28.455568
5.790000	28.455568
5.800000	28.455568
5.810000	28.455568
5.820000	28.455568
5.830000	28.455568
5.840000	28.455568
5.850000	28.455568
5.860000	28.455568
5.870000	28.455568
5.880000	28.455568
5.890000	28.455568
5.900000	28.455568
5.910000	28.455568
5.920000	28.455568
5.930000	28.455568
5.940000	28.455568
5.950000	28.455568
5.960000	28.455568
5.970000	28.455568
5.980000	28.455568
5.990000	28.455568
6.000000	28.558781
6.010000	28.558781
6.020000	28.558781
6.030000	28.558781
6.040000	28.558781
6.050000	28.558781
6.060000	28.558781
6.070000	28.558781
6.080000	28.558781
6.090000	28.558781
6.100000	28.558781
6.110000	28.558781
6.120000	28.558781
6.130000	28.558781
6.140000	28.558781
6.150000	28.558781
6.160000	28.558781
6.170000	28.558781
6.180000	28.558781
6.190000	28.558781
6.200000	28.558781
6.210000	28.558781
6.220000	28.558781
6.230000	28.558781
6.240000	28.558781
6.250000	28.558781
6.260000	28.558781
6.270000	28.558781
6.280000	28.558781
6.290000	28.558781
6.300000	28.558781
6.310000	28.558781
6.320000	28.558781
6.330000	28.558781
6.340000	28.558781
6.350000	28.558781
6.360000	28.558781
6.370000	28.558781
6.380000	28.558781
6.390000	28.558781
6.400000	28.558781
6.410000	28.558781
6.420000	28.558781
6.430000	28.558781
6.440000	28.558781
6.450000	28.558781
6.460000	28.558781
6.470000	28.558781
6.480000	28.558781
6.490000	28.558781
6.500000	28.618361
6.510000	28.618361
6.520000	28.618361
6.530000	28.618361
6.540000	28.618361
6.550000	28.618361
6.560000	28.618361
6.570000	28.618361
6.580000	28.618361
6.590000	28.618361
6.600000	28.618361
6.610000	28.618361
6.620000	28.618361
6.630000	28.618361
6.640000	28.618361
6.650000	28.618361
6.660000	28.618361
6.670000	28.618361
6.680000	28.618361
6.690000	28.618361
6.700000	28.618361
6.710000	28.618361
6.720000	28.618361
6.730000	28.618361
6.740000	28.618361
6.750000	28.618361
6.760000	28.618361
6.770000	28.618361
6.780000	28.618361
6.790000	28.618361
6.800000	28.618361
6.810000	28.618361
6.820000	28.618361
6.830000	28.618361
6.840000	28.618361
6.850000	28.618361
6.860000	28.618361
6.870000	28.618361
6.880000	28.618361
6.890000	28.618361
6.900000	28.618361
6.910000	28.618361
6.920000	28.618361
6.930000	28.618361
6.940000	28.618361
6.950000	28.618361
6.960000	28.618361
6.970000	28.618361
6.980000	28.618361
6.990000	28.618361
7.000000	28.644201
7.010000	28.644201
7.020000	28.644201
7.030000	28.644201
7.040000	28.644201
7.050000	28.644201
7.060000	28.644201
7.070000	28.644201
7.080000	28.644201
7.090000	28.644201
7.100000	28.644201
7.110000	28.644201
7.120000	28.644201
7.130000	28.644201
7.140000	28.644201
7.150000	28.644201
7.160000	28.644201
7.170000	28.644201
7.180000	28.644201
7.190000	28.644201
7.200000	28.644201
7.210000	28.644201
7.220000	28.644201
7.230000	28.644201
7.240000	28.644201
7.250000	28.644201
7.260000	28.644201
7.270000	28.644201
7.280000	28.644201
7.290000	28.644201
7.300000	28.644201
7.310000	28.644201
7.320000	28.644201
7.330000	28.644201
7.340000	28.644201
7.350000	28.644201
7.360000	28.644201
7.370000	28.644201
7.380000	28.644201
7.390000	28.644201
7.400000	28.644201
7.410000	28.644201
7.420000	28.644201
7.430000	28.644201
7.440000	28.644201
7.450000	28.644201
7.460000	28.644201
7.470000	28.644201
7.480000	28.644201
7.490000	28.644201
7.500000	28.646668
7.510000	28.646668
7.520000	28.646668
7.530000	28.646668
7.540000	28.646668
7.550000	28.646668
7.560000	28.646668
7.570000	28.646668
7.580000	28.646668
7.590000	28.646668
7.600000	28.646668
7.610000	28.646668
7.620000	28.646668
7.630000	28.646668
7.640000	28.646668
7.650000	28.646668
7.660000	28.646668
7.670000	28.646668
7.680000	28.646668
7.690000	28.646668
7.700000	28.646668
7.710000	28.646668
7.720000	28.646668
7.730000	28.646668
7.740000	28.646668
7.750000	28.646668
7.760000	28.646668
7.770000	28.646668
7.780000	28.646668
7.790000	28.646668
7.800000	28.646668
7.810000	28.646668
7.820000	28.646668
7.830000	28.646668
7.840000	28.646668
7.850000	28.646668
7.860000	28.646668
7.870000	28.646668
7.880000	28.646668
7.890000	28.646668
7.900000	28.646668
7.910000	28.646668
7.920000	28.646668
7.930000	28.646668
7.940000	28.646668
7.950000	28.646668
7.960000	28.646668
7.970000	28.646668
7.980000	28.646668
7.990000	28.646668
8.000000	28.630679
8.010000	28.630679
8.020000	28.630679
8.030000	28.630679
8.040000	28.630679
8.050000	28.630679
8.060000	28.630679
8.070000	28.630679
8.080000	28.630679
8.090000	28.630679
8.100000	28.630679
8.110000	28.630679
8.120000	28.630679
8.130000	28.630679
8.140000	28.630679
8.150000	28.630679
8.160000	28.630679
8.170000	28.630679
8.180000	28.630679
8.190000	28.630679
8.200000	28.630679
8.210000	28.630679
8.220000	28.630679
8.230000	28.630679
8.240000	28.630679
8.250000	28.630679
8.260000	28.630679
8.270000	28.630679
8.280000	28.630679
8.290000	28.630679
8.300000	28.630679
8.310000	28.630679
8.320000	28.630679
8.330000	28.630679
8.340000	28.630679
8.350000	28.630679
8.360000	28.630679
8.370000	28.630679
8.380000	28.630679
8.390000	28.630679
8.400000	28.630679
8.410000	28.630679
8.420000	28.630679
8.430000	28.630679
8.440000	28.630679
8.450000	28.630679
8.460000	28.630679
8.470000	28.630679
8.480000	28.630679
8.490000	28.630679
8.500000	28.600514
8.510000	28.600514
8.520000	28.600514
8.530000	28.600514
8.540000	28.600514
8.550000	28.600514
8.560000	28.600514
8.570000	28.600514
8.580000	28.600514
8.590000	28.600514
8.600000	28.600514
8.610000	28.600514
8.620000	28.600514
8.630000	28.600514
8.640000	28.600514
8.650000	28.600514
8.660000	28.600514
8.670000	28.600514
8.680000	28.600514
8.690000	28.600514
8.700000	28.600514
8.710000	28.600514
8.720000	28.600514
8.730000	28.600514
8.740000	28.600514
8.750000	28.600514
8.760000	28.600514
8.770000	28.600514
8.780000	28.600514
8.790000	28.600514
8.800000	28.600514
8.810000	28.600514
8.820000	28.600514
8.830000	28.600514
8.840000	28.600514
8.850000	28.600514
8.860000	28.600514
8.870000	28.600514
8.880000	28.600514
8.890000	28.600514
8.900000	28.600514
8.910000	28.600514
8.920000	28.600514
8.930000	28.600514
8.940000	28.600514
8.950000	28.600514
8.960000	28.600514
8.970000	28.600514
8.980000	28.600514
8.990000	28.600514
9.000000	28.559457
9.010000	28.559457
9.020000	28.559457
9.030000	28.559457
9.040000	28.559457
9.050000	28.559457
9.060000	28.559457
9.070000	28.559457
9.080000	28.559457
9.090000	28.559457
9.100000	28.559457
9.110000	28.559457
9.120000	28.559457
9.130000	28.559457
9.140000	28.559457
9.150000	28.559457
9.160000	28.559457
9.170000	28.559457
9.180000	28.559457
9.190000	28.559457
9.200000	28.559457
9.210000	28.559457
9.220000	28.559457
9.230000	28.559457
9.240000	28.559457
9.250000	28.559457
9.260000	28.559457
9.270000	28.559457
9.280000	28.559457
9.290000	28.559457
9.300000	28.559457
9.310000	28.559457
9.320000	28.559457
9.330000	28.559457
9.340000	28.559457
9.350000	28.559457
9.360000	28.559457
9.370000	28.559457
9.380000	28.559457
9.390000	28.559457
9.400000	28.559457
9.410000	28.559457
9.420000	28.559457
9.430000	28.559457
9.440000	28.559457
9.450000	28.559457
9.460000	28.559457
9.470000	28.559457
9.480000	28.559457
9.490000	28.559457
9.500000	28.510998
9.510000	28.510998
9.520000	28.510998
9.530000	28.510998
9.540000	28.510998
9.550000	28.510998
9.560000	28.510998
9.570000	28.510998
9.580000	28.510998
9.590000	28.510998
9.600000	28.510998
9.610000	28.510998
9.620000	28.510998
9.630000	28.510998
9.640000	28.510998
9.650000	28.510998
9.660000	28.510998
9.670000	28.510998
9.680000	28.510998
9.690000	28.510998
9.700000	28.510998
9.710000	28.510998
9.720000	28.510998
9.730000	28.510998
9.740000	28.510998
9.750000	28.510998
9.760000	28.510998
9.770000	28.510998
9.780000	28.510998
9.790000	28.510998
9.800000	28.510998
9.810000	28.510998
9.820000	28.510998
9.830000	28.510998
9.840000	28.510998
9.850000	28.510998
9.860000	28.510998
9.870000	28.510998
9.880000	28.510998
9.890000	28.510998
9.900000	28.510998
9.910000	28.510998
9.920000	28.510998
9.930000	28.510998
9.940000	28.510998
9.950000	28.510998
9.960000	28.510998
9.970000	28.510998
9.980000	28.510998
9.990000	28.510998
10.000000	28.455004
10.010000	28.455004
10.020000	28.455004
10.030000	28.455004
10.040000	28.455004
10.050000	28.455004
10.060000	28.455004
10.070000	28.455004
10.080000	28.455004
10.090000	28.455004
10.100000	28.455004
10.110000	28.455004
10.120000	28.455004
10.130000	28.455004
10.140000	28.455004
10.150000	28.455004
10.160000	28.455004
10.170000	28.455004
10.180000	28.455004
10.190000	28.455004
10.200000	28.455004
10.210000	28.455004
10.220000	28.455004
10.230000	28.455004
10.240000	28.455004
10.250000	28.455004
10.260000	28.455004
10.270000	28.455004
10.280000	28.455004
10.290000	28.455004
10.300000	28.455004
10.310000	28.455004
10.320000	28.455004
10.330000	28.455004
10.340000	28.455004
10.350000	28.455004
10.360000	28.455004
10.370000	28.455004
10.380000	28.455004
10.390000	28.455004
10.400000	28.455004
10.410000	28.455004
10.420000	28.455004
10.430000	28.455004
10.440000	28.455004
10.450000	28.455004
10.460000	28.455004
10.470000	28.455004
10.480000	28.455004
10.490000	28.455004
10.500000	28.393446
10.510000	28.393446
10.520000	28.393446
10.530000	28.393446
10.540000	28.393446
10.550000	28.393446
10.560000	28.393446
10.570000	28.393446
10.580000	28.393446
10.590000	28.393446
10.600000	28.393446
10.610000	28.393446
10.620000	28.393446
10.630000	28.393446
10.640000	28.393446
10.650000	28.393446
10.660000	28.393446
10.670000	28.393446
10.680000	28.393446
10.690000	28.393446
10.700000	28.393446
10.710000	28.393446
10.720000	28.393446
10.730000	28.393446
10.740000	28.393446
10.750000	28.393446
10.760000	28.393446
10.770000	28.393446
10.780000	28.393446
10.790000	28.393446
10.800000	28.393446
10.810000	28.393446
10.820000	28.393446
10.830000	28.393446
10.840000	28.393446
10.850000	28.393446
10.860000	28.393446
10.870000	28.393446
10.880000	28.393446
10.890000	28.393446
10.900000	28.393446
10.910000	28.393446
10.920000	28.393446
10.930000	28.393446
10.940000	28.393446
10.950000	28.393446
10.960000	28.393446
10.970000	28.393446
10.980000	28.393446
10.990000	28.393446
11.000000	28.329508
11.010000	28.329508
11.020000	28.329508
11.030000	28.329508
11.040000	28.329508
11.050000	28.329508
11.060000	28.329508
11.070000	28.329508
11.080000	28.329508
11.090000	28.329508
11.100000	28.329508
11.110000	28.329508
11.120000	28.329508
11.130000	28.329508
11.140000	28.329508
11.150000	28.329508
11.160000	28.329508
11.170000	28.329508
11.180000	28.329508
11.190000	28.329508
11.200000	28.329508
11.210000	28.329508
11.220000	28.329508
11.230000	28.329508
11.240000	28.329508
11.250000	28.329508
11.260000	28.329508
11.270000	28.329508
11.280000	28.329508
11.290000	28.329508
11.300000	28.329508
11.310000	28.329508
11.320000	28.329508
11.330000	28.329508
11.340000	28.329508
11.350000	28.329508
11.360000	28.329508
11.370000	28.329508
11.380000	28.329508
11.390000	28.329508
11.400000	28.329508
11.410000	28.329508
11.420000	28.329508
11.430000	28.329508
11.440000	28.329508
11.450000	28.329508
11.460000	28.329508
11.470000	28.329508
11.480000	28.329508
11.490000	28.329508
11.500000	28.263641
11.510000	28.263641
11.520000	28.263641
11.530000	28.263641
11.540000	28.263641
11.550000	28.263641
11.560000	28.263641
11.570000	28.263641
11.580000	28.263641
11.590000	28.263641
11.600000	28.263641
11.610000	28.263641
11.620000	28.263641
11.630000	28.263641
11.640000	28.263641
11.650000	28.263641
11.660000	28.263641
11.670000	28.263641
11.680000	28.263641
11.690000	28.263641
11.700000	28.263641
11.710000	28.263641
11.720000	28.263641
11.730000	28.263641
11.740000	28.263641
11.750000	28.263641
11.760000	28.263641
11.770000	28.263641
11.780000	28.263641
11.790000	28.263641
11.800000	28.263641
11.810000	28.263641
11.820000	28.263641
11.830000	28.263641
11.840000	28.263641
11.850000	28.263641
11.860000	28.263641
11.870000	28.263641
11.880000	28.263641
11.890000	28.263641
11.900000	28.263641
11.910000	28.263641
11.920000	28.263641
11.930000	28.263641
11.940000	28.263641
11.950000	28.263641
11.960000	28.263641
11.970000	28.263641
11.980000	28.263641
11.990000	28.263641
12.000000	28.196334
12.010000	28.196334
12.020000	28.196334
12.030000	28.196334
12.040000	28.196334
12.050000	28.196334
12.060000	28.196334
12.070000	28.196334
12.080000	28.196334
12.090000	28.196334
12.100000	28.196334
12.110000	28.196334
12.120000	28.196334
12.130000	28.196334
12.140000	28.196334
12.150000	28.196334
12.160000	28.196334
12.170000	28.196334
12.180000	28.196334
12.190000	28.196334
12.200000	28.196334
12.210000	28.196334
12.220000	28.196334
12.230000	28.196334
12.240000	28.196334
12.250000	28.196334
12.260000	28.196334
12.270000	28.196334
12.280000	28.196334
12.290000	28.196334
12.300000	28.196334
12.310000	28.196334
12.320000	28.196334
12.330000	28.196334
12.340000	28.196334
12.350000	28.196334
12.360000	28.196334
12.370000	28.196334
12.380000	28.196334
12.390000	28.196334
12.400000	28.196334
12.410000	28.196334
12.420000	28.196334
12.430000	28.196334
12.440000	28.196334
12.450000	28.196334
12.460000	28.196334
12.470000	28.196334
12.480000	28.196334
12.490000	28.196334
12.500000	28.129576
12.510000	28.129576
12.520000	28.129576
12.530000	28.129576
12.540000	28.129576
12.550000	28.129576
12.560000	28.129576
12.570000	28.129576
12.580000	28.129576
12.590000	28.129576
12.600000	28.129576
12.610000	28.129576
12.620000	28.129576
12.630000	28.129576
12.640000	28.129576
12.650000	28.129576
12.660000	28.129576
12.670000	28.129576
12.680000	28.129576
12.690000	28.129576
12.700000	28.129576
12.710000	28.129576
12.720000	28.129576
12.730000	28.129576
12.740000	28.129576
12.750000	28.129576
12.760000	28.129576
12.770000	28.129576
12.780000	28.129576
12.790000	28.129576
12.800000	28.129576
12.810000	28.129576
12.820000	28.129576
12.830000	28.129576
12.840000	28.129576
12.850000	28.129576
12.860000	28.129576
12.870000	28.129576
12.880000	28.129576
12.890000	28.129576
12.900000	28.129576
12.910000	28.129576
12.920000	28.129576
12.930000	28.129576
12.940000	28.129576
12.950000	28.129576
12.960000	28.129576
12.970000	28.129576
12.980000	28.129576
12.990000	28.129576
13.000000	28.062695
13.010000	28.062695
13.020000	28.062695
13.030000	28.062695
13.040000	28.062695
13.050000	28.062695
13.060000	28.062695
13.070000	28.062695
13.080000	28.062695
13.090000	28.062695
13.100000	28.062695
13.110000	28.062695
13.120000	28.062695
13.130000	28.062695
13.140000	28.062695
13.150000	28.062695
13.160000	28.062695
13.170000	28.062695
13.180000	28.062695
13.190000	28.062695
13.200000	28.062695
13.210000	28.062695
13.220000	28.062695
13.230000	28.062695
13.240000	28.062695
13.250000	28.062695
13.260000	28.062695
13.270000	28.062695
13.280000	28.062695
13.290000	28.062695
13.300000	28.062695
13.310000	28.062695
13.320000	28.062695
13.330000	28.062695
13.340000	28.062695
13.350000	28.062695
13.360000	28.062695
13.370000	28.062695
13.380000	28.062695
13.390000	28.062695
13.400000	28.062695
13.410000	28.062695
13.420000	28.062695
13.430000	28.062695
13.440000	28.062695
13.450000	28.062695
13.460000	28.062695
13.470000	28.062695
13.480000	28.062695
13.490000	28.062695
13.500000	27.994845
13.510000	27.994845
13.520000	27.994845
13.530000	27.994845
13.540000	27.994845
13.550000	27.994845
13.560000	27.994845
13.570000	27.994845
13.580000	27.994845
13.590000	27.994845
13.600000	27.994845
13.610000	27.994845
13.620000	27.994845
13.630000	27.994845
13.640000	27.994845
13.650000	27.994845
13.660000	27.994845
13.670000	27.994845
13.680000	27.994845
13.690000	27.994845
13.700000	27.994845
13.710000	27.994845
13.720000	27.994845
13.730000	27.994845
13.740000	27.994845
13.750000	27.994845
13.760000	27.994845
13.770000	27.994845
13.780000	27.994845
13.790000	27.994845
13.800000	27.994845
13.810000	27.994845
13.820000	27.994845
13.830000	27.994845
13.840000	27.994845
13.850000	27.994845
13.860000	27.994845
13.870000	27.994845
13.880000	27.994845
13.890000	27.994845
13.900000	27.994845
13.910000	27.994845
13.920000	27.994845
13.930000	27.994845
13.940000	27.994845
13.950000	27.994845
13.960000	27.994845
13.970000	27.994845
13.980000	27.994845
13.990000	27.994845
14.000000	27.926756
14.010000	27.926756
14.020000	27.926756
14.030000	27.926756
14.040000	27.926756
14.050000	27.926756
14.060000	27.926756
14.070000	27.926756
14.080000	27.926756
14.090000	27.926756
14.100000	27.926756
14.110000	27.926756
14.120000	27.926756
14.130000	27.926756
14.140000	27.926756
14.150000	27.926756
14.160000	27.926756
14.170000	27.926756
14.180000	27.926756
14.190000	27.926756
14.200000	27.926756
14.210000	27.926756
14.220000	27.926756
14.230000	27.926756
14.240000	27.926756
14.250000	27.926756
14.260000	27.926756
14.270000	27.926756
14.280000	27.926756
14.290000	27.926756
14.300000	27.926756
14.310000	27.926756
14.320000	27.926756
14.330000	27.926756
14.340000	27.926756
14.350000	27.926756
14.360000	27.926756
14.370000	27.926756
14.380000	27.926756
14.390000	27.926756
14.400000	27.926756
14.410000	27.926756
14.420000	27.926756
14.430000	27.926756
14.440000	27.926756
14.450000	27.926756
14.460000	27.926756
14.470000	27.926756
14.480000	27.926756
14.490000	27.926756
14.500000	27.861539
14.510000	27.861539
14.520000	27.861539
14.530000	27.861539
14.540000	27.861539
14.550000	27.861539
14.560000	27.861539
14.570000	27.861539
14.580000	27.861539
14.590000	27.861539
14.600000	27.861539
14.610000	27.861539
14.620000	27.861539
14.630000	27.861539
14.640000	27.861539
14.650000	27.861539
14.660000	27.861539
14.670000	27.861539
14.680000	27.861539
14.690000	27.861539
14.700000	27.861539
14.710000	27.861539
14.720000	27.861539
14.730000	27.861539
14.740000	27.861539
14.750000	27.861539
14.760000	27.861539
14.770000	27.861539
14.780000	27.861539
14.790000	27.861539
14.800000	27.861539
14.810000	27.861539
14.820000	27.861539
14.830000	27.861539
14.840000	27.861539
14.850000	27.861539
14.860000	27.861539
14.870000	27.861539
14.880000	27.861539
14.890000	27.861539
14.900000	27.861539
14.910000	27.861539
14.920000	27.861539
14.930000	27.861539
14.940000	27.861539
14.950000	27.861539
14.960000	27.861539
14.970000	27.861539
14.980000	27.861539
14.990000	27.861539
15.000000	27.798595
15.010000	27.798595
15.020000	27.798595
15.030000	27.798595
15.040000	27.798595
15.050000	27.798595
15.060000	27.798595
15.070000	27.798595
15.080000	27.798595
15.090000	27.798595
15.100000	27.798595
15.110000	27.798595
15.120000	27.798595
15.130000	27.798595
15.140000	27.798595
15.150000	27.798595
15.160000	27.798595
15.170000	27.798595
15.180000	27.798595
15.190000	27.798595
15.200000	27.798595
15.210000	27.798595
15.220000	27.798595
15.230000	27.798595
15.240000	27.798595
15.250000	27.798595
15.260000	27.798595
15.270000	27.798595
15.280000	27.798595
15.290000	27.798595
15.300000	27.798595
15.310000	27.798595
15.320000	27.798595
15.330000	27.798595
15.340000	27.798595
15.350000	27.798595
15.360000	27.798595
15.370000	27.798595
15.380000	27.798595
15.390000	27.798595
15.400000	27.798595
15.410000	27.798595
15.420000	27.798595
15.430000	27.798595
15.440000	27.798595
15.450000	27.798595
15.460000	27.798595
15.470000	27.798595
15.480000	27.798595
15.490000	27.798595
15.500000	27.737915
15.510000	27.737915
15.520000	27.737915
15.530000	27.737915
15.540000	27.737915
15.550000	27.737915
15.560000	27.737915
15.570000	27.737915
15.580000	27.737915
15.590000	27.737915
15.600000	27.737915
15.610000	27.737915
15.620000	27.737915
15.630000	27.737915
15.640000	27.737915
15.650000	27.737915
15.660000	27.737915
15.670000	27.737915
15.680000	27.737915
15.690000	27.737915
15.700000	27.737915
15.710000	27.737915
15.720000	27.737915
15.730000	27.737915
15.740000	27.737915
15.750000	27.737915
15.760000	27.737915
15.770000	27.737915
15.780000	27.737915
15.790000	27.737915
15.800000	27.737915
15.810000	27.737915
15.820000	27.737915
15.830000	27.737915
15.840000	27.737915
15.850000	27.737915
15.860000	27.737915
15.870000	27.737915
15.880000	27.737915
15.890000	27.737915
15.900000	27.737915
15.910000	27.737915
15.920000	27.737915
15.930000	27.737915
15.940000	27.737915
15.950000	27.737915
15.960000	27.737915
15.970000	27.737915
15.980000	27.737915
15.990000	27.737915
16.000000	27.678179
16.010000	27.678179
16.020000	27.678179
16.030000	27.678179
16.040000	27.678179
16.050000	27.678179
16.060000	27.678179
16.070000	27.678179
16.080000	27.678179
16.090000	27.678179
16.100000	27.678179
16.110000	27.678179
16.120000	27.678179
16.130000	27.678179
16.140000	27.678179
16.150000	27.678179
16.160000	27.678179
16.170000	27.678179
16.180000	27.678179
16.190000	27.678179
16.200000	27.678179
16.210000	27.678179
16.220000	27.678179
16.230000	27.678179
16.240000	27.678179
16.250000	27.678179
16.260000	27.678179
16.270000	27.678179
16.280000	27.678179
16.290000	27.678179
16.300000	27.678179
16.310000	27.678179
16.320000	27.678179
16.330000	27.678179
16.340000	27.678179
16.350000	27.678179
16.360000	27.678179
16.370000	27.678179
16.380000	27.678179
16.390000	27.678179
16.400000	27.678179
16.410000	27.678179
16.420000	27.678179
16.430000	27.678179
16.440000	27.678179
16.450000	27.678179
16.460000	27.678179
16.470000	27.678179
16.480000	27.678179
16.490000	27.678179
16.500000	27.620040
16.510000	27.620040
16.520000	27.620040
16.530000	27.620040
16.540000	27.620040
16.550000	27.620040
16.560000	27.620040
16.570000	27.620040
16.580000	27.620040
16.590000	27.620040
16.600000	27.620040
16.610000	27.620040
16.620000	27.620040
16.630000	27.620040
16.640000	27.620040
16.650000	27.620040
16.660000	27.620040
16.670000	27.620040
16.680000	27.620040
16.690000	27.620040
16.700000	27.620040
16.710000	27.620040
16.720000	27.620040
16.730000	27.620040
16.740000	27.620040
16.750000	27.620040
16.760000	27.620040
16.770000	27.620040
16.780000	27.620040
16.790000	27.620040
16.800000	27.620040
16.810000	27.620040
16.820000	27.620040
16.830000	27.620040
16.840000	27.620040
16.850000	27.620040
16.860000	27.620040
16.870000	27.620040
16.880000	27.620040
16.890000	27.620040
16.900000	27.620040
16.910000	27.620040
16.920000	27.620040
16.930000	27.620040
16.940000	27.620040
16.950000	27.620040
16.960000	27.620040
16.970000	27.620040
16.980000	27.620040
16.990000	27.620040
17.000000	27.562936
17.010000	27.562936
17.020000	27.562936
17.030000	27.562936
17.040000	27.562936
17.050000	27.562936
17.060000	27.562936
17.070000	27.562936
17.080000	27.562936
17.090000	27.562936
17.100000	27.562936
17.110000	27.562936
17.120000	27.562936
17.130000	27.562936
17.140000	27.562936
17.150000	27.562936
17.160000	27.562936
17.170000	27.562936
17.180000	27.562936
17.190000	27.562936
17.200000	27.562936
17.210000	27.562936
17.220000	27.562936
17.230000	27.562936
17.240000	27.562936
17.250000	27.562936
17.260000	27.562936
17.270000	27.562936
17.280000	27.562936
17.290000	27.562936
17.300000	27.562936
17.310000	27.562936
17.320000	27.562936
17.330000	27.562936
17.340000	27.562936
17.350000	27.562936
17.360000	27.562936
17.370000	27.562936
17.380000	27.562936
17.390000	27.562936
17.400000	27.562936
17.410000	27.562936
17.420000	27.562936
17.430000	27.562936
17.440000	27.562936
17.450000	27.562936
17.460000	27.562936
17.470000	27.562936
17.480000	27.562936
17.490000	27.562936
17.500000	27.507543
17.510000	27.507543
17.520000	27.507543
17.530000	27.507543
17.540000	27.507543
17.550000	27.507543
17.560000	27.507543
17.570000	27.507543
17.580000	27.507543
17.590000	27.507543
17.600000	27.507543
17.610000	27.507543
17.620000	27.507543
17.630000	27.507543
17.640000	27.507543
17.650000	27.507543
17.660000	27.507543
17.670000	27.507543
17.680000	27.507543
17.690000	27.507543
17.700000	27.507543
17.710000	27.507543
17.720000	27.507543
17.730000	27.507543
17.740000	27.507543
17.750000	27.507543
17.760000	27.507543
17.770000	27.507543
17.780000	27.507543
17.790000	27.507543
17.800000	27.507543
17.810000	27.507543
17.820000	27.507543
17.830000	27.507543
17.840000	27.507543
17.850000	27.507543
17.860000	27.507543
17.870000	27.507543
17.880000	27.507543
17.890000	27.507543
17.900000	27.507543
17.910000	27.507543
17.920000	27.507543
17.930000	27.507543
17.940000	27.507543
17.950000	27.507543
17.960000	27.507543
17.970000	27.507543
17.980000	27.507543
17.990000	27.507543
