LabVIEW Measurement	
Writer_Version	2
Reader_Version	2
Separator	Tab
Decimal_Separator	.
Multi_Headings	No
X_Columns	One
Time_Pref	Absolute
Operator	biomech-dyno
Date	2023/05/23
Time	16:26:31.1792034999998606061
***End_of_Header***	
	
Channels	1	
Samples	10	
Date	2023/05/23	
Time	18:21:52.9844617999999614423	
X_Dimension	Time	
X0	0.0000000000000000E+0	
Delta_X	0.010000	
***End_of_Header***		
X_Value	Untitled	Comment
0.000000	25.191024
0.010000	25.191024
0.020000	25.191024
0.030000	25.191024
0.040000	25.191024
0.050000	25.191024
0.060000	25.191024
0.070000	25.191024
0.080000	25.191024
0.090000	25.191024
0.100000	25.191024
0.110000	25.191024
0.120000	25.191024
0.130000	25.191024
0.140000	25.191024
0.150000	25.191024
0.160000	25.191024
0.170000	25.191024
0.180000	25.191024
0.190000	25.191024
0.200000	25.191024
0.210000	25.191024
0.220000	25.191024
0.230000	25.191024
0.240000	25.191024
0.250000	25.191024
0.260000	25.191024
0.270000	25.191024
0.280000	25.191024
0.290000	25.191024
0.300000	25.191024
0.310000	25.191024
0.320000	25.191024
0.330000	25.191024
0.340000	25.191024
0.350000	25.191024
0.360000	25.191024
0.370000	25.191024
0.380000	25.191024
0.390000	25.191024
0.400000	25.191024
0.410000	25.191024
0.420000	25.191024
0.430000	25.191024
0.440000	25.191024
0.450000	25.191024
0.460000	25.191024
0.470000	25.191024
0.480000	25.191024
0.490000	25.191024
0.500000	25.199787
0.510000	25.199787
0.520000	25.199787
0.530000	25.199787
0.540000	25.199787
0.550000	25.199787
0.560000	25.199787
0.570000	25.199787
0.580000	25.199787
0.590000	25.199787
0.600000	25.199787
0.610000	25.199787
0.620000	25.199787
0.630000	25.199787
0.640000	25.199787
0.650000	25.199787
0.660000	25.199787
0.670000	25.199787
0.680000	25.199787
0.690000	25.199787
0.700000	25.199787
0.710000	25.199787
0.720000	25.199787
0.730000	25.199787
0.740000	25.199787
0.750000	25.199787
0.760000	25.199787
0.770000	25.199787
0.780000	25.199787
0.790000	25.199787
0.800000	25.199787
0.810000	25.199787
0.820000	25.199787
0.830000	25.199787
0.840000	25.199787
0.850000	25.199787
0.860000	25.199787
0.870000	25.199787
0.880000	25.199787
0.890000	25.199787
0.900000	25.199787
0.910000	25.199787
0.920000	25.199787
0.930000	25.199787
0.940000	25.199787
0.950000	25.199787
0.960000	25.199787
0.970000	25.199787
0.980000	25.199787
0.990000	25.199787
1.000000	25.207226
1.010000	25.207226
1.020000	25.207226
1.030000	25.207226
1.040000	25.207226
1.050000	25.207226
1.060000	25.207226
1.070000	25.207226
1.080000	25.207226
1.090000	25.207226
1.100000	25.207226
1.110000	25.207226
1.120000	25.207226
1.130000	25.207226
1.140000	25.207226
1.150000	25.207226
1.160000	25.207226
1.170000	25.207226
1.180000	25.207226
1.190000	25.207226
1.200000	25.207226
1.210000	25.207226
1.220000	25.207226
1.230000	25.207226
1.240000	25.207226
1.250000	25.207226
1.260000	25.207226
1.270000	25.207226
1.280000	25.207226
1.290000	25.207226
1.300000	25.207226
1.310000	25.207226
1.320000	25.207226
1.330000	25.207226
1.340000	25.207226
1.350000	25.207226
1.360000	25.207226
1.370000	25.207226
1.380000	25.207226
1.390000	25.207226
1.400000	25.207226
1.410000	25.207226
1.420000	25.207226
1.430000	25.207226
1.440000	25.207226
1.450000	25.207226
1.460000	25.207226
1.470000	25.207226
1.480000	25.207226
1.490000	25.207226
1.500000	25.214123
1.510000	25.214123
1.520000	25.214123
1.530000	25.214123
1.540000	25.214123
1.550000	25.214123
1.560000	25.214123
1.570000	25.214123
1.580000	25.214123
1.590000	25.214123
1.600000	25.214123
1.610000	25.214123
1.620000	25.214123
1.630000	25.214123
1.640000	25.214123
1.650000	25.214123
1.660000	25.214123
1.670000	25.214123
1.680000	25.214123
1.690000	25.214123
1.700000	25.214123
1.710000	25.214123
1.720000	25.214123
1.730000	25.214123
1.740000	25.214123
1.750000	25.214123
1.760000	25.214123
1.770000	25.214123
1.780000	25.214123
1.790000	25.214123
1.800000	25.214123
1.810000	25.214123
1.820000	25.214123
1.830000	25.214123
1.840000	25.214123
1.850000	25.214123
1.860000	25.214123
1.870000	25.214123
1.880000	25.214123
1.890000	25.214123
1.900000	25.214123
1.910000	25.214123
1.920000	25.214123
1.930000	25.214123
1.940000	25.214123
1.950000	25.214123
1.960000	25.214123
1.970000	25.214123
1.980000	25.214123
1.990000	25.214123
2.000000	25.221268
2.010000	25.221268
2.020000	25.221268
2.030000	25.221268
2.040000	25.221268
2.050000	25.221268
2.060000	25.221268
2.070000	25.221268
2.080000	25.221268
2.090000	25.221268
2.100000	25.221268
2.110000	25.221268
2.120000	25.221268
2.130000	25.221268
2.140000	25.221268
2.150000	25.221268
2.160000	25.221268
2.170000	25.221268
2.180000	25.221268
2.190000	25.221268
2.200000	25.221268
2.210000	25.221268
2.220000	25.221268
2.230000	25.221268
2.240000	25.221268
2.250000	25.221268
2.260000	25.221268
2.270000	25.221268
2.280000	25.221268
2.290000	25.221268
2.300000	25.221268
2.310000	25.221268
2.320000	25.221268
2.330000	25.221268
2.340000	25.221268
2.350000	25.221268
2.360000	25.221268
2.370000	25.221268
2.380000	25.221268
2.390000	25.221268
2.400000	25.221268
2.410000	25.221268
2.420000	25.221268
2.430000	25.221268
2.440000	25.221268
2.450000	25.221268
2.460000	25.221268
2.470000	25.221268
2.480000	25.221268
2.490000	25.221268
2.500000	25.227227
2.510000	25.227227
2.520000	25.227227
2.530000	25.227227
2.540000	25.227227
2.550000	25.227227
2.560000	25.227227
2.570000	25.227227
2.580000	25.227227
2.590000	25.227227
2.600000	25.227227
2.610000	25.227227
2.620000	25.227227
2.630000	25.227227
2.640000	25.227227
2.650000	25.227227
2.660000	25.227227
2.670000	25.227227
2.680000	25.227227
2.690000	25.227227
2.700000	25.227227
2.710000	25.227227
2.720000	25.227227
2.730000	25.227227
2.740000	25.227227
2.750000	25.227227
2.760000	25.227227
2.770000	25.227227
2.780000	25.227227
2.790000	25.227227
2.800000	25.227227
2.810000	25.227227
2.820000	25.227227
2.830000	25.227227
2.840000	25.227227
2.850000	25.227227
2.860000	25.227227
2.870000	25.227227
2.880000	25.227227
2.890000	25.227227
2.900000	25.227227
2.910000	25.227227
2.920000	25.227227
2.930000	25.227227
2.940000	25.227227
2.950000	25.227227
2.960000	25.227227
2.970000	25.227227
2.980000	25.227227
2.990000	25.227227
3.000000	25.233426
3.010000	25.233426
3.020000	25.233426
3.030000	25.233426
3.040000	25.233426
3.050000	25.233426
3.060000	25.233426
3.070000	25.233426
3.080000	25.233426
3.090000	25.233426
3.100000	25.233426
3.110000	25.233426
3.120000	25.233426
3.130000	25.233426
3.140000	25.233426
3.150000	25.233426
3.160000	25.233426
3.170000	25.233426
3.180000	25.233426
3.190000	25.233426
3.200000	25.233426
3.210000	25.233426
3.220000	25.233426
3.230000	25.233426
3.240000	25.233426
3.250000	25.233426
3.260000	25.233426
3.270000	25.233426
3.280000	25.233426
3.290000	25.233426
3.300000	25.233426
3.310000	25.233426
3.320000	25.233426
3.330000	25.233426
3.340000	25.233426
3.350000	25.233426
3.360000	25.233426
3.370000	25.233426
3.380000	25.233426
3.390000	25.233426
3.400000	25.233426
3.410000	25.233426
3.420000	25.233426
3.430000	25.233426
3.440000	25.233426
3.450000	25.233426
3.460000	25.233426
3.470000	25.233426
3.480000	25.233426
3.490000	25.233426
3.500000	25.239452
3.510000	25.239452
3.520000	25.239452
3.530000	25.239452
3.540000	25.239452
3.550000	25.239452
3.560000	25.239452
3.570000	25.239452
3.580000	25.239452
3.590000	25.239452
3.600000	25.239452
3.610000	25.239452
3.620000	25.239452
3.630000	25.239452
3.640000	25.239452
3.650000	25.239452
3.660000	25.239452
3.670000	25.239452
3.680000	25.239452
3.690000	25.239452
3.700000	25.239452
3.710000	25.239452
3.720000	25.239452
3.730000	25.239452
3.740000	25.239452
3.750000	25.239452
3.760000	25.239452
3.770000	25.239452
3.780000	25.239452
3.790000	25.239452
3.800000	25.239452
3.810000	25.239452
3.820000	25.239452
3.830000	25.239452
3.840000	25.239452
3.850000	25.239452
3.860000	25.239452
3.870000	25.239452
3.880000	25.239452
3.890000	25.239452
3.900000	25.239452
3.910000	25.239452
3.920000	25.239452
3.930000	25.239452
3.940000	25.239452
3.950000	25.239452
3.960000	25.239452
3.970000	25.239452
3.980000	25.239452
3.990000	25.239452
4.000000	25.245572
4.010000	25.245572
4.020000	25.245572
4.030000	25.245572
4.040000	25.245572
4.050000	25.245572
4.060000	25.245572
4.070000	25.245572
4.080000	25.245572
4.090000	25.245572
4.100000	25.245572
4.110000	25.245572
4.120000	25.245572
4.130000	25.245572
4.140000	25.245572
4.150000	25.245572
4.160000	25.245572
4.170000	25.245572
4.180000	25.245572
4.190000	25.245572
4.200000	25.245572
4.210000	25.245572
4.220000	25.245572
4.230000	25.245572
4.240000	25.245572
4.250000	25.245572
4.260000	25.245572
4.270000	25.245572
4.280000	25.245572
4.290000	25.245572
4.300000	25.245572
4.310000	25.245572
4.320000	25.245572
4.330000	25.245572
4.340000	25.245572
4.350000	25.245572
4.360000	25.245572
4.370000	25.245572
4.380000	25.245572
4.390000	25.245572
4.400000	25.245572
4.410000	25.245572
4.420000	25.245572
4.430000	25.245572
4.440000	25.245572
4.450000	25.245572
4.460000	25.245572
4.470000	25.245572
4.480000	25.245572
4.490000	25.245572
4.500000	25.252051
4.510000	25.252051
4.520000	25.252051
4.530000	25.252051
4.540000	25.252051
4.550000	25.252051
4.560000	25.252051
4.570000	25.252051
4.580000	25.252051
4.590000	25.252051
4.600000	25.252051
4.610000	25.252051
4.620000	25.252051
4.630000	25.252051
4.640000	25.252051
4.650000	25.252051
4.660000	25.252051
4.670000	25.252051
4.680000	25.252051
4.690000	25.252051
4.700000	25.252051
4.710000	25.252051
4.720000	25.252051
4.730000	25.252051
4.740000	25.252051
4.750000	25.252051
4.760000	25.252051
4.770000	25.252051
4.780000	25.252051
4.790000	25.252051
4.800000	25.252051
4.810000	25.252051
4.820000	25.252051
4.830000	25.252051
4.840000	25.252051
4.850000	25.252051
4.860000	25.252051
4.870000	25.252051
4.880000	25.252051
4.890000	25.252051
4.900000	25.252051
4.910000	25.252051
4.920000	25.252051
4.930000	25.252051
4.940000	25.252051
4.950000	25.252051
4.960000	25.252051
4.970000	25.252051
4.980000	25.252051
4.990000	25.252051
5.000000	25.259131
5.010000	25.259131
5.020000	25.259131
5.030000	25.259131
5.040000	25.259131
5.050000	25.259131
5.060000	25.259131
5.070000	25.259131
5.080000	25.259131
5.090000	25.259131
5.100000	25.259131
5.110000	25.259131
5.120000	25.259131
5.130000	25.259131
5.140000	25.259131
5.150000	25.259131
5.160000	25.259131
5.170000	25.259131
5.180000	25.259131
5.190000	25.259131
5.200000	25.259131
5.210000	25.259131
5.220000	25.259131
5.230000	25.259131
5.240000	25.259131
5.250000	25.259131
5.260000	25.259131
5.270000	25.259131
5.280000	25.259131
5.290000	25.259131
5.300000	25.259131
5.310000	25.259131
5.320000	25.259131
5.330000	25.259131
5.340000	25.259131
5.350000	25.259131
5.360000	25.259131
5.370000	25.259131
5.380000	25.259131
5.390000	25.259131
5.400000	25.259131
5.410000	25.259131
5.420000	25.259131
5.430000	25.259131
5.440000	25.259131
5.450000	25.259131
5.460000	25.259131
5.470000	25.259131
5.480000	25.259131
5.490000	25.259131
5.500000	25.265119
5.510000	25.265119
5.520000	25.265119
5.530000	25.265119
5.540000	25.265119
5.550000	25.265119
5.560000	25.265119
5.570000	25.265119
5.580000	25.265119
5.590000	25.265119
5.600000	25.265119
5.610000	25.265119
5.620000	25.265119
5.630000	25.265119
5.640000	25.265119
5.650000	25.265119
5.660000	25.265119
5.670000	25.265119
5.680000	25.265119
5.690000	25.265119
5.700000	25.265119
5.710000	25.265119
5.720000	25.265119
5.730000	25.265119
5.740000	25.265119
5.750000	25.265119
5.760000	25.265119
5.770000	25.265119
5.780000	25.265119
5.790000	25.265119
5.800000	25.265119
5.810000	25.265119
5.820000	25.265119
5.830000	25.265119
5.840000	25.265119
5.850000	25.265119
5.860000	25.265119
5.870000	25.265119
5.880000	25.265119
5.890000	25.265119
5.900000	25.265119
5.910000	25.265119
5.920000	25.265119
5.930000	25.265119
5.940000	25.265119
5.950000	25.265119
5.960000	25.265119
5.970000	25.265119
5.980000	25.265119
5.990000	25.265119
6.000000	25.270953
6.010000	25.270953
6.020000	25.270953
6.030000	25.270953
6.040000	25.270953
6.050000	25.270953
6.060000	25.270953
6.070000	25.270953
6.080000	25.270953
6.090000	25.270953
6.100000	25.270953
6.110000	25.270953
6.120000	25.270953
6.130000	25.270953
6.140000	25.270953
6.150000	25.270953
6.160000	25.270953
6.170000	25.270953
6.180000	25.270953
6.190000	25.270953
6.200000	25.270953
6.210000	25.270953
6.220000	25.270953
6.230000	25.270953
6.240000	25.270953
6.250000	25.270953
6.260000	25.270953
6.270000	25.270953
6.280000	25.270953
6.290000	25.270953
6.300000	25.270953
6.310000	25.270953
6.320000	25.270953
6.330000	25.270953
6.340000	25.270953
6.350000	25.270953
6.360000	25.270953
6.370000	25.270953
6.380000	25.270953
6.390000	25.270953
6.400000	25.270953
6.410000	25.270953
6.420000	25.270953
6.430000	25.270953
6.440000	25.270953
6.450000	25.270953
6.460000	25.270953
6.470000	25.270953
6.480000	25.270953
6.490000	25.270953
6.500000	25.275645
6.510000	25.275645
6.520000	25.275645
6.530000	25.275645
6.540000	25.275645
6.550000	25.275645
6.560000	25.275645
6.570000	25.275645
6.580000	25.275645
6.590000	25.275645
6.600000	25.275645
6.610000	25.275645
6.620000	25.275645
6.630000	25.275645
6.640000	25.275645
6.650000	25.275645
6.660000	25.275645
6.670000	25.275645
6.680000	25.275645
6.690000	25.275645
6.700000	25.275645
6.710000	25.275645
6.720000	25.275645
6.730000	25.275645
6.740000	25.275645
6.750000	25.275645
6.760000	25.275645
6.770000	25.275645
6.780000	25.275645
6.790000	25.275645
6.800000	25.275645
6.810000	25.275645
6.820000	25.275645
6.830000	25.275645
6.840000	25.275645
6.850000	25.275645
6.860000	25.275645
6.870000	25.275645
6.880000	25.275645
6.890000	25.275645
6.900000	25.275645
6.910000	25.275645
6.920000	25.275645
6.930000	25.275645
6.940000	25.275645
6.950000	25.275645
6.960000	25.275645
6.970000	25.275645
6.980000	25.275645
6.990000	25.275645
7.000000	25.279565
7.010000	25.279565
7.020000	25.279565
7.030000	25.279565
7.040000	25.279565
7.050000	25.279565
7.060000	25.279565
7.070000	25.279565
7.080000	25.279565
7.090000	25.279565
7.100000	25.279565
7.110000	25.279565
7.120000	25.279565
7.130000	25.279565
7.140000	25.279565
7.150000	25.279565
7.160000	25.279565
7.170000	25.279565
7.180000	25.279565
7.190000	25.279565
7.200000	25.279565
7.210000	25.279565
7.220000	25.279565
7.230000	25.279565
7.240000	25.279565
7.250000	25.279565
7.260000	25.279565
7.270000	25.279565
7.280000	25.279565
7.290000	25.279565
7.300000	25.279565
7.310000	25.279565
7.320000	25.279565
7.330000	25.279565
7.340000	25.279565
7.350000	25.279565
7.360000	25.279565
7.370000	25.279565
7.380000	25.279565
7.390000	25.279565
7.400000	25.279565
7.410000	25.279565
7.420000	25.279565
7.430000	25.279565
7.440000	25.279565
7.450000	25.279565
7.460000	25.279565
7.470000	25.279565
7.480000	25.279565
7.490000	25.279565
7.500000	25.283158
7.510000	25.283158
7.520000	25.283158
7.530000	25.283158
7.540000	25.283158
7.550000	25.283158
7.560000	25.283158
7.570000	25.283158
7.580000	25.283158
7.590000	25.283158
7.600000	25.283158
7.610000	25.283158
7.620000	25.283158
7.630000	25.283158
7.640000	25.283158
7.650000	25.283158
7.660000	25.283158
7.670000	25.283158
7.680000	25.283158
7.690000	25.283158
7.700000	25.283158
7.710000	25.283158
7.720000	25.283158
7.730000	25.283158
7.740000	25.283158
7.750000	25.283158
7.760000	25.283158
7.770000	25.283158
7.780000	25.283158
7.790000	25.283158
7.800000	25.283158
7.810000	25.283158
7.820000	25.283158
7.830000	25.283158
7.840000	25.283158
7.850000	25.283158
7.860000	25.283158
7.870000	25.283158
7.880000	25.283158
7.890000	25.283158
7.900000	25.283158
7.910000	25.283158
7.920000	25.283158
7.930000	25.283158
7.940000	25.283158
7.950000	25.283158
7.960000	25.283158
7.970000	25.283158
7.980000	25.283158
7.990000	25.283158
8.000000	25.286288
8.010000	25.286288
8.020000	25.286288
8.030000	25.286288
8.040000	25.286288
8.050000	25.286288
8.060000	25.286288
8.070000	25.286288
8.080000	25.286288
8.090000	25.286288
8.100000	25.286288
8.110000	25.286288
8.120000	25.286288
8.130000	25.286288
8.140000	25.286288
8.150000	25.286288
8.160000	25.286288
8.170000	25.286288
8.180000	25.286288
8.190000	25.286288
8.200000	25.286288
8.210000	25.286288
8.220000	25.286288
8.230000	25.286288
8.240000	25.286288
8.250000	25.286288
8.260000	25.286288
8.270000	25.286288
8.280000	25.286288
8.290000	25.286288
8.300000	25.286288
8.310000	25.286288
8.320000	25.286288
8.330000	25.286288
8.340000	25.286288
8.350000	25.286288
8.360000	25.286288
8.370000	25.286288
8.380000	25.286288
8.390000	25.286288
8.400000	25.286288
8.410000	25.286288
8.420000	25.286288
8.430000	25.286288
8.440000	25.286288
8.450000	25.286288
8.460000	25.286288
8.470000	25.286288
8.480000	25.286288
8.490000	25.286288
8.500000	25.288552
8.510000	25.288552
8.520000	25.288552
8.530000	25.288552
8.540000	25.288552
8.550000	25.288552
8.560000	25.288552
8.570000	25.288552
8.580000	25.288552
8.590000	25.288552
8.600000	25.288552
8.610000	25.288552
8.620000	25.288552
8.630000	25.288552
8.640000	25.288552
8.650000	25.288552
8.660000	25.288552
8.670000	25.288552
8.680000	25.288552
8.690000	25.288552
8.700000	25.288552
8.710000	25.288552
8.720000	25.288552
8.730000	25.288552
8.740000	25.288552
8.750000	25.288552
8.760000	25.288552
8.770000	25.288552
8.780000	25.288552
8.790000	25.288552
8.800000	25.288552
8.810000	25.288552
8.820000	25.288552
8.830000	25.288552
8.840000	25.288552
8.850000	25.288552
8.860000	25.288552
8.870000	25.288552
8.880000	25.288552
8.890000	25.288552
8.900000	25.288552
8.910000	25.288552
8.920000	25.288552
8.930000	25.288552
8.940000	25.288552
8.950000	25.288552
8.960000	25.288552
8.970000	25.288552
8.980000	25.288552
8.990000	25.288552
9.000000	25.290344
9.010000	25.290344
9.020000	25.290344
9.030000	25.290344
9.040000	25.290344
9.050000	25.290344
9.060000	25.290344
9.070000	25.290344
9.080000	25.290344
9.090000	25.290344
9.100000	25.290344
9.110000	25.290344
9.120000	25.290344
9.130000	25.290344
9.140000	25.290344
9.150000	25.290344
9.160000	25.290344
9.170000	25.290344
9.180000	25.290344
9.190000	25.290344
9.200000	25.290344
9.210000	25.290344
9.220000	25.290344
9.230000	25.290344
9.240000	25.290344
9.250000	25.290344
9.260000	25.290344
9.270000	25.290344
9.280000	25.290344
9.290000	25.290344
9.300000	25.290344
9.310000	25.290344
9.320000	25.290344
9.330000	25.290344
9.340000	25.290344
9.350000	25.290344
9.360000	25.290344
9.370000	25.290344
9.380000	25.290344
9.390000	25.290344
9.400000	25.290344
9.410000	25.290344
9.420000	25.290344
9.430000	25.290344
9.440000	25.290344
9.450000	25.290344
9.460000	25.290344
9.470000	25.290344
9.480000	25.290344
9.490000	25.290344
9.500000	25.291871
9.510000	25.291871
9.520000	25.291871
9.530000	25.291871
9.540000	25.291871
9.550000	25.291871
9.560000	25.291871
9.570000	25.291871
9.580000	25.291871
9.590000	25.291871
9.600000	25.291871
9.610000	25.291871
9.620000	25.291871
9.630000	25.291871
9.640000	25.291871
9.650000	25.291871
9.660000	25.291871
9.670000	25.291871
9.680000	25.291871
9.690000	25.291871
9.700000	25.291871
9.710000	25.291871
9.720000	25.291871
9.730000	25.291871
9.740000	25.291871
9.750000	25.291871
9.760000	25.291871
9.770000	25.291871
9.780000	25.291871
9.790000	25.291871
9.800000	25.291871
9.810000	25.291871
9.820000	25.291871
9.830000	25.291871
9.840000	25.291871
9.850000	25.291871
9.860000	25.291871
9.870000	25.291871
9.880000	25.291871
9.890000	25.291871
9.900000	25.291871
9.910000	25.291871
9.920000	25.291871
9.930000	25.291871
9.940000	25.291871
9.950000	25.291871
9.960000	25.291871
9.970000	25.291871
9.980000	25.291871
9.990000	25.291871
10.000000	25.292522
10.010000	25.292522
10.020000	25.292522
10.030000	25.292522
10.040000	25.292522
10.050000	25.292522
10.060000	25.292522
10.070000	25.292522
10.080000	25.292522
10.090000	25.292522
10.100000	25.292522
10.110000	25.292522
10.120000	25.292522
10.130000	25.292522
10.140000	25.292522
10.150000	25.292522
10.160000	25.292522
10.170000	25.292522
10.180000	25.292522
10.190000	25.292522
10.200000	25.292522
10.210000	25.292522
10.220000	25.292522
10.230000	25.292522
10.240000	25.292522
10.250000	25.292522
10.260000	25.292522
10.270000	25.292522
10.280000	25.292522
10.290000	25.292522
10.300000	25.292522
10.310000	25.292522
10.320000	25.292522
10.330000	25.292522
10.340000	25.292522
10.350000	25.292522
10.360000	25.292522
10.370000	25.292522
10.380000	25.292522
10.390000	25.292522
10.400000	25.292522
10.410000	25.292522
10.420000	25.292522
10.430000	25.292522
10.440000	25.292522
10.450000	25.292522
10.460000	25.292522
10.470000	25.292522
10.480000	25.292522
10.490000	25.292522
10.500000	25.292462
10.510000	25.292462
10.520000	25.292462
10.530000	25.292462
10.540000	25.292462
10.550000	25.292462
10.560000	25.292462
10.570000	25.292462
10.580000	25.292462
10.590000	25.292462
10.600000	25.292462
10.610000	25.292462
10.620000	25.292462
10.630000	25.292462
10.640000	25.292462
10.650000	25.292462
10.660000	25.292462
10.670000	25.292462
10.680000	25.292462
10.690000	25.292462
10.700000	25.292462
10.710000	25.292462
10.720000	25.292462
10.730000	25.292462
10.740000	25.292462
10.750000	25.292462
10.760000	25.292462
10.770000	25.292462
10.780000	25.292462
10.790000	25.292462
10.800000	25.292462
10.810000	25.292462
10.820000	25.292462
10.830000	25.292462
10.840000	25.292462
10.850000	25.292462
10.860000	25.292462
10.870000	25.292462
10.880000	25.292462
10.890000	25.292462
10.900000	25.292462
10.910000	25.292462
10.920000	25.292462
10.930000	25.292462
10.940000	25.292462
10.950000	25.292462
10.960000	25.292462
10.970000	25.292462
10.980000	25.292462
10.990000	25.292462
11.000000	25.292377
11.010000	25.292377
11.020000	25.292377
11.030000	25.292377
11.040000	25.292377
11.050000	25.292377
11.060000	25.292377
11.070000	25.292377
11.080000	25.292377
11.090000	25.292377
11.100000	25.292377
11.110000	25.292377
11.120000	25.292377
11.130000	25.292377
11.140000	25.292377
11.150000	25.292377
11.160000	25.292377
11.170000	25.292377
11.180000	25.292377
11.190000	25.292377
11.200000	25.292377
11.210000	25.292377
11.220000	25.292377
11.230000	25.292377
11.240000	25.292377
11.250000	25.292377
11.260000	25.292377
11.270000	25.292377
11.280000	25.292377
11.290000	25.292377
11.300000	25.292377
11.310000	25.292377
11.320000	25.292377
11.330000	25.292377
11.340000	25.292377
11.350000	25.292377
11.360000	25.292377
11.370000	25.292377
11.380000	25.292377
11.390000	25.292377
11.400000	25.292377
11.410000	25.292377
11.420000	25.292377
11.430000	25.292377
11.440000	25.292377
11.450000	25.292377
11.460000	25.292377
11.470000	25.292377
11.480000	25.292377
11.490000	25.292377
11.500000	25.292411
11.510000	25.292411
11.520000	25.292411
11.530000	25.292411
11.540000	25.292411
11.550000	25.292411
11.560000	25.292411
11.570000	25.292411
11.580000	25.292411
11.590000	25.292411
11.600000	25.292411
11.610000	25.292411
11.620000	25.292411
11.630000	25.292411
11.640000	25.292411
11.650000	25.292411
11.660000	25.292411
11.670000	25.292411
11.680000	25.292411
11.690000	25.292411
11.700000	25.292411
11.710000	25.292411
11.720000	25.292411
11.730000	25.292411
11.740000	25.292411
11.750000	25.292411
11.760000	25.292411
11.770000	25.292411
11.780000	25.292411
11.790000	25.292411
11.800000	25.292411
11.810000	25.292411
11.820000	25.292411
11.830000	25.292411
11.840000	25.292411
11.850000	25.292411
11.860000	25.292411
11.870000	25.292411
11.880000	25.292411
11.890000	25.292411
11.900000	25.292411
11.910000	25.292411
11.920000	25.292411
11.930000	25.292411
11.940000	25.292411
11.950000	25.292411
11.960000	25.292411
11.970000	25.292411
11.980000	25.292411
11.990000	25.292411
12.000000	25.292196
12.010000	25.292196
12.020000	25.292196
12.030000	25.292196
12.040000	25.292196
12.050000	25.292196
12.060000	25.292196
12.070000	25.292196
12.080000	25.292196
12.090000	25.292196
12.100000	25.292196
12.110000	25.292196
12.120000	25.292196
12.130000	25.292196
12.140000	25.292196
12.150000	25.292196
12.160000	25.292196
12.170000	25.292196
12.180000	25.292196
12.190000	25.292196
12.200000	25.292196
12.210000	25.292196
12.220000	25.292196
12.230000	25.292196
12.240000	25.292196
12.250000	25.292196
12.260000	25.292196
12.270000	25.292196
12.280000	25.292196
12.290000	25.292196
12.300000	25.292196
12.310000	25.292196
12.320000	25.292196
12.330000	25.292196
12.340000	25.292196
12.350000	25.292196
12.360000	25.292196
12.370000	25.292196
12.380000	25.292196
12.390000	25.292196
12.400000	25.292196
12.410000	25.292196
12.420000	25.292196
12.430000	25.292196
12.440000	25.292196
12.450000	25.292196
12.460000	25.292196
12.470000	25.292196
12.480000	25.292196
12.490000	25.292196
12.500000	25.289967
12.510000	25.289967
12.520000	25.289967
12.530000	25.289967
12.540000	25.289967
12.550000	25.289967
12.560000	25.289967
12.570000	25.289967
12.580000	25.289967
12.590000	25.289967
12.600000	25.289967
12.610000	25.289967
12.620000	25.289967
12.630000	25.289967
12.640000	25.289967
12.650000	25.289967
12.660000	25.289967
12.670000	25.289967
12.680000	25.289967
12.690000	25.289967
12.700000	25.289967
12.710000	25.289967
12.720000	25.289967
12.730000	25.289967
12.740000	25.289967
12.750000	25.289967
12.760000	25.289967
12.770000	25.289967
12.780000	25.289967
12.790000	25.289967
12.800000	25.289967
12.810000	25.289967
12.820000	25.289967
12.830000	25.289967
12.840000	25.289967
12.850000	25.289967
12.860000	25.289967
12.870000	25.289967
12.880000	25.289967
12.890000	25.289967
12.900000	25.289967
12.910000	25.289967
12.920000	25.289967
12.930000	25.289967
12.940000	25.289967
12.950000	25.289967
12.960000	25.289967
12.970000	25.289967
12.980000	25.289967
12.990000	25.289967
13.000000	25.287592
13.010000	25.287592
13.020000	25.287592
13.030000	25.287592
13.040000	25.287592
13.050000	25.287592
13.060000	25.287592
13.070000	25.287592
13.080000	25.287592
13.090000	25.287592
13.100000	25.287592
13.110000	25.287592
13.120000	25.287592
13.130000	25.287592
13.140000	25.287592
13.150000	25.287592
13.160000	25.287592
13.170000	25.287592
13.180000	25.287592
13.190000	25.287592
13.200000	25.287592
13.210000	25.287592
13.220000	25.287592
13.230000	25.287592
13.240000	25.287592
13.250000	25.287592
13.260000	25.287592
13.270000	25.287592
13.280000	25.287592
13.290000	25.287592
13.300000	25.287592
13.310000	25.287592
13.320000	25.287592
13.330000	25.287592
13.340000	25.287592
13.350000	25.287592
13.360000	25.287592
13.370000	25.287592
13.380000	25.287592
13.390000	25.287592
13.400000	25.287592
13.410000	25.287592
13.420000	25.287592
13.430000	25.287592
13.440000	25.287592
13.450000	25.287592
13.460000	25.287592
13.470000	25.287592
13.480000	25.287592
13.490000	25.287592
13.500000	25.285731
13.510000	25.285731
13.520000	25.285731
13.530000	25.285731
13.540000	25.285731
13.550000	25.285731
13.560000	25.285731
13.570000	25.285731
13.580000	25.285731
13.590000	25.285731
13.600000	25.285731
13.610000	25.285731
13.620000	25.285731
13.630000	25.285731
13.640000	25.285731
13.650000	25.285731
13.660000	25.285731
13.670000	25.285731
13.680000	25.285731
13.690000	25.285731
13.700000	25.285731
13.710000	25.285731
13.720000	25.285731
13.730000	25.285731
13.740000	25.285731
13.750000	25.285731
13.760000	25.285731
13.770000	25.285731
13.780000	25.285731
13.790000	25.285731
13.800000	25.285731
13.810000	25.285731
13.820000	25.285731
13.830000	25.285731
13.840000	25.285731
13.850000	25.285731
13.860000	25.285731
13.870000	25.285731
13.880000	25.285731
13.890000	25.285731
13.900000	25.285731
13.910000	25.285731
13.920000	25.285731
13.930000	25.285731
13.940000	25.285731
13.950000	25.285731
13.960000	25.285731
13.970000	25.285731
13.980000	25.285731
13.990000	25.285731
14.000000	25.284539
14.010000	25.284539
14.020000	25.284539
14.030000	25.284539
14.040000	25.284539
14.050000	25.284539
14.060000	25.284539
14.070000	25.284539
14.080000	25.284539
14.090000	25.284539
14.100000	25.284539
14.110000	25.284539
14.120000	25.284539
14.130000	25.284539
14.140000	25.284539
14.150000	25.284539
14.160000	25.284539
14.170000	25.284539
14.180000	25.284539
14.190000	25.284539
14.200000	25.284539
14.210000	25.284539
14.220000	25.284539
14.230000	25.284539
14.240000	25.284539
14.250000	25.284539
14.260000	25.284539
14.270000	25.284539
14.280000	25.284539
14.290000	25.284539
14.300000	25.284539
14.310000	25.284539
14.320000	25.284539
14.330000	25.284539
14.340000	25.284539
14.350000	25.284539
14.360000	25.284539
14.370000	25.284539
14.380000	25.284539
14.390000	25.284539
14.400000	25.284539
14.410000	25.284539
14.420000	25.284539
14.430000	25.284539
14.440000	25.284539
14.450000	25.284539
14.460000	25.284539
14.470000	25.284539
14.480000	25.284539
14.490000	25.284539
14.500000	25.281794
14.510000	25.281794
14.520000	25.281794
14.530000	25.281794
14.540000	25.281794
14.550000	25.281794
14.560000	25.281794
14.570000	25.281794
14.580000	25.281794
14.590000	25.281794
14.600000	25.281794
14.610000	25.281794
14.620000	25.281794
14.630000	25.281794
14.640000	25.281794
14.650000	25.281794
14.660000	25.281794
14.670000	25.281794
14.680000	25.281794
14.690000	25.281794
14.700000	25.281794
14.710000	25.281794
14.720000	25.281794
14.730000	25.281794
14.740000	25.281794
14.750000	25.281794
14.760000	25.281794
14.770000	25.281794
14.780000	25.281794
14.790000	25.281794
14.800000	25.281794
14.810000	25.281794
14.820000	25.281794
14.830000	25.281794
14.840000	25.281794
14.850000	25.281794
14.860000	25.281794
14.870000	25.281794
14.880000	25.281794
14.890000	25.281794
14.900000	25.281794
14.910000	25.281794
14.920000	25.281794
14.930000	25.281794
14.940000	25.281794
14.950000	25.281794
14.960000	25.281794
14.970000	25.281794
14.980000	25.281794
14.990000	25.281794
15.000000	25.278132
15.010000	25.278132
15.020000	25.278132
15.030000	25.278132
15.040000	25.278132
15.050000	25.278132
15.060000	25.278132
15.070000	25.278132
15.080000	25.278132
15.090000	25.278132
15.100000	25.278132
15.110000	25.278132
15.120000	25.278132
15.130000	25.278132
15.140000	25.278132
15.150000	25.278132
15.160000	25.278132
15.170000	25.278132
15.180000	25.278132
15.190000	25.278132
15.200000	25.278132
15.210000	25.278132
15.220000	25.278132
15.230000	25.278132
15.240000	25.278132
15.250000	25.278132
15.260000	25.278132
15.270000	25.278132
15.280000	25.278132
15.290000	25.278132
15.300000	25.278132
15.310000	25.278132
15.320000	25.278132
15.330000	25.278132
15.340000	25.278132
15.350000	25.278132
15.360000	25.278132
15.370000	25.278132
15.380000	25.278132
15.390000	25.278132
15.400000	25.278132
15.410000	25.278132
15.420000	25.278132
15.430000	25.278132
15.440000	25.278132
15.450000	25.278132
15.460000	25.278132
15.470000	25.278132
15.480000	25.278132
15.490000	25.278132
15.500000	25.275722
15.510000	25.275722
15.520000	25.275722
15.530000	25.275722
15.540000	25.275722
15.550000	25.275722
15.560000	25.275722
15.570000	25.275722
15.580000	25.275722
15.590000	25.275722
15.600000	25.275722
15.610000	25.275722
15.620000	25.275722
15.630000	25.275722
15.640000	25.275722
15.650000	25.275722
15.660000	25.275722
15.670000	25.275722
15.680000	25.275722
15.690000	25.275722
15.700000	25.275722
15.710000	25.275722
15.720000	25.275722
15.730000	25.275722
15.740000	25.275722
15.750000	25.275722
15.760000	25.275722
15.770000	25.275722
15.780000	25.275722
15.790000	25.275722
15.800000	25.275722
15.810000	25.275722
15.820000	25.275722
15.830000	25.275722
15.840000	25.275722
15.850000	25.275722
15.860000	25.275722
15.870000	25.275722
15.880000	25.275722
15.890000	25.275722
15.900000	25.275722
15.910000	25.275722
15.920000	25.275722
15.930000	25.275722
15.940000	25.275722
15.950000	25.275722
15.960000	25.275722
15.970000	25.275722
15.980000	25.275722
15.990000	25.275722
16.000000	25.273106
16.010000	25.273106
16.020000	25.273106
16.030000	25.273106
16.040000	25.273106
16.050000	25.273106
16.060000	25.273106
16.070000	25.273106
16.080000	25.273106
16.090000	25.273106
16.100000	25.273106
16.110000	25.273106
16.120000	25.273106
16.130000	25.273106
16.140000	25.273106
16.150000	25.273106
16.160000	25.273106
16.170000	25.273106
16.180000	25.273106
16.190000	25.273106
16.200000	25.273106
16.210000	25.273106
16.220000	25.273106
16.230000	25.273106
16.240000	25.273106
16.250000	25.273106
16.260000	25.273106
16.270000	25.273106
16.280000	25.273106
16.290000	25.273106
16.300000	25.273106
16.310000	25.273106
16.320000	25.273106
16.330000	25.273106
16.340000	25.273106
16.350000	25.273106
16.360000	25.273106
16.370000	25.273106
16.380000	25.273106
16.390000	25.273106
16.400000	25.273106
16.410000	25.273106
16.420000	25.273106
16.430000	25.273106
16.440000	25.273106
16.450000	25.273106
16.460000	25.273106
16.470000	25.273106
16.480000	25.273106
16.490000	25.273106
16.500000	25.270841
16.510000	25.270841
16.520000	25.270841
16.530000	25.270841
16.540000	25.270841
16.550000	25.270841
16.560000	25.270841
16.570000	25.270841
16.580000	25.270841
16.590000	25.270841
16.600000	25.270841
16.610000	25.270841
16.620000	25.270841
16.630000	25.270841
16.640000	25.270841
16.650000	25.270841
16.660000	25.270841
16.670000	25.270841
16.680000	25.270841
16.690000	25.270841
16.700000	25.270841
16.710000	25.270841
16.720000	25.270841
16.730000	25.270841
16.740000	25.270841
16.750000	25.270841
16.760000	25.270841
16.770000	25.270841
16.780000	25.270841
16.790000	25.270841
16.800000	25.270841
16.810000	25.270841
16.820000	25.270841
16.830000	25.270841
16.840000	25.270841
16.850000	25.270841
16.860000	25.270841
16.870000	25.270841
16.880000	25.270841
16.890000	25.270841
16.900000	25.270841
16.910000	25.270841
16.920000	25.270841
16.930000	25.270841
16.940000	25.270841
16.950000	25.270841
16.960000	25.270841
16.970000	25.270841
16.980000	25.270841
16.990000	25.270841
17.000000	25.268148
17.010000	25.268148
17.020000	25.268148
17.030000	25.268148
17.040000	25.268148
17.050000	25.268148
17.060000	25.268148
17.070000	25.268148
17.080000	25.268148
17.090000	25.268148
17.100000	25.268148
17.110000	25.268148
17.120000	25.268148
17.130000	25.268148
17.140000	25.268148
17.150000	25.268148
17.160000	25.268148
17.170000	25.268148
17.180000	25.268148
17.190000	25.268148
17.200000	25.268148
17.210000	25.268148
17.220000	25.268148
17.230000	25.268148
17.240000	25.268148
17.250000	25.268148
17.260000	25.268148
17.270000	25.268148
17.280000	25.268148
17.290000	25.268148
17.300000	25.268148
17.310000	25.268148
17.320000	25.268148
17.330000	25.268148
17.340000	25.268148
17.350000	25.268148
17.360000	25.268148
17.370000	25.268148
17.380000	25.268148
17.390000	25.268148
17.400000	25.268148
17.410000	25.268148
17.420000	25.268148
17.430000	25.268148
17.440000	25.268148
17.450000	25.268148
17.460000	25.268148
17.470000	25.268148
17.480000	25.268148
17.490000	25.268148
17.500000	25.265488
17.510000	25.265488
17.520000	25.265488
17.530000	25.265488
17.540000	25.265488
17.550000	25.265488
17.560000	25.265488
17.570000	25.265488
17.580000	25.265488
17.590000	25.265488
17.600000	25.265488
17.610000	25.265488
17.620000	25.265488
17.630000	25.265488
17.640000	25.265488
17.650000	25.265488
17.660000	25.265488
17.670000	25.265488
17.680000	25.265488
17.690000	25.265488
17.700000	25.265488
17.710000	25.265488
17.720000	25.265488
17.730000	25.265488
17.740000	25.265488
17.750000	25.265488
17.760000	25.265488
17.770000	25.265488
17.780000	25.265488
17.790000	25.265488
17.800000	25.265488
17.810000	25.265488
17.820000	25.265488
17.830000	25.265488
17.840000	25.265488
17.850000	25.265488
17.860000	25.265488
17.870000	25.265488
17.880000	25.265488
17.890000	25.265488
17.900000	25.265488
17.910000	25.265488
17.920000	25.265488
17.930000	25.265488
17.940000	25.265488
17.950000	25.265488
17.960000	25.265488
17.970000	25.265488
17.980000	25.265488
17.990000	25.265488
