LabVIEW Measurement	
Writer_Version	2
Reader_Version	2
Separator	Tab
Decimal_Separator	.
Multi_Headings	No
X_Columns	One
Time_Pref	Absolute
Operator	biomech-dyno
Date	2023/05/23
Time	16:26:31.1792034999998606061
***End_of_Header***	
	
Channels	1	
Samples	10	
Date	2023/05/23	
Time	18:26:18.9937918999999566112	
X_Dimension	Time	
X0	0.0000000000000000E+0	
Delta_X	0.010000	
***End_of_Header***		
X_Value	Untitled	Comment
0.000000	25.000922
0.010000	25.000922
0.020000	25.000922
0.030000	25.000922
0.040000	25.000922
0.050000	25.000922
0.060000	25.000922
0.070000	25.000922
0.080000	25.000922
0.090000	25.000922
0.100000	25.000922
0.110000	25.000922
0.120000	25.000922
0.130000	25.000922
0.140000	25.000922
0.150000	25.000922
0.160000	25.000922
0.170000	25.000922
0.180000	25.000922
0.190000	25.000922
0.200000	25.000922
0.210000	25.000922
0.220000	25.000922
0.230000	25.000922
0.240000	25.000922
0.250000	25.000922
0.260000	25.000922
0.270000	25.000922
0.280000	25.000922
0.290000	25.000922
0.300000	25.000922
0.310000	25.000922
0.320000	25.000922
0.330000	25.000922
0.340000	25.000922
0.350000	25.000922
0.360000	25.000922
0.370000	25.000922
0.380000	25.000922
0.390000	25.000922
0.400000	25.000922
0.410000	25.000922
0.420000	25.000922
0.430000	25.000922
0.440000	25.000922
0.450000	25.000922
0.460000	25.000922
0.470000	25.000922
0.480000	25.000922
0.490000	25.000922
0.500000	25.023673
0.510000	25.023673
0.520000	25.023673
0.530000	25.023673
0.540000	25.023673
0.550000	25.023673
0.560000	25.023673
0.570000	25.023673
0.580000	25.023673
0.590000	25.023673
0.600000	25.023673
0.610000	25.023673
0.620000	25.023673
0.630000	25.023673
0.640000	25.023673
0.650000	25.023673
0.660000	25.023673
0.670000	25.023673
0.680000	25.023673
0.690000	25.023673
0.700000	25.023673
0.710000	25.023673
0.720000	25.023673
0.730000	25.023673
0.740000	25.023673
0.750000	25.023673
0.760000	25.023673
0.770000	25.023673
0.780000	25.023673
0.790000	25.023673
0.800000	25.023673
0.810000	25.023673
0.820000	25.023673
0.830000	25.023673
0.840000	25.023673
0.850000	25.023673
0.860000	25.023673
0.870000	25.023673
0.880000	25.023673
0.890000	25.023673
0.900000	25.023673
0.910000	25.023673
0.920000	25.023673
0.930000	25.023673
0.940000	25.023673
0.950000	25.023673
0.960000	25.023673
0.970000	25.023673
0.980000	25.023673
0.990000	25.023673
1.000000	25.198971
1.010000	25.198971
1.020000	25.198971
1.030000	25.198971
1.040000	25.198971
1.050000	25.198971
1.060000	25.198971
1.070000	25.198971
1.080000	25.198971
1.090000	25.198971
1.100000	25.198971
1.110000	25.198971
1.120000	25.198971
1.130000	25.198971
1.140000	25.198971
1.150000	25.198971
1.160000	25.198971
1.170000	25.198971
1.180000	25.198971
1.190000	25.198971
1.200000	25.198971
1.210000	25.198971
1.220000	25.198971
1.230000	25.198971
1.240000	25.198971
1.250000	25.198971
1.260000	25.198971
1.270000	25.198971
1.280000	25.198971
1.290000	25.198971
1.300000	25.198971
1.310000	25.198971
1.320000	25.198971
1.330000	25.198971
1.340000	25.198971
1.350000	25.198971
1.360000	25.198971
1.370000	25.198971
1.380000	25.198971
1.390000	25.198971
1.400000	25.198971
1.410000	25.198971
1.420000	25.198971
1.430000	25.198971
1.440000	25.198971
1.450000	25.198971
1.460000	25.198971
1.470000	25.198971
1.480000	25.198971
1.490000	25.198971
1.500000	25.605838
1.510000	25.605838
1.520000	25.605838
1.530000	25.605838
1.540000	25.605838
1.550000	25.605838
1.560000	25.605838
1.570000	25.605838
1.580000	25.605838
1.590000	25.605838
1.600000	25.605838
1.610000	25.605838
1.620000	25.605838
1.630000	25.605838
1.640000	25.605838
1.650000	25.605838
1.660000	25.605838
1.670000	25.605838
1.680000	25.605838
1.690000	25.605838
1.700000	25.605838
1.710000	25.605838
1.720000	25.605838
1.730000	25.605838
1.740000	25.605838
1.750000	25.605838
1.760000	25.605838
1.770000	25.605838
1.780000	25.605838
1.790000	25.605838
1.800000	25.605838
1.810000	25.605838
1.820000	25.605838
1.830000	25.605838
1.840000	25.605838
1.850000	25.605838
1.860000	25.605838
1.870000	25.605838
1.880000	25.605838
1.890000	25.605838
1.900000	25.605838
1.910000	25.605838
1.920000	25.605838
1.930000	25.605838
1.940000	25.605838
1.950000	25.605838
1.960000	25.605838
1.970000	25.605838
1.980000	25.605838
1.990000	25.605838
2.000000	26.202925
2.010000	26.202925
2.020000	26.202925
2.030000	26.202925
2.040000	26.202925
2.050000	26.202925
2.060000	26.202925
2.070000	26.202925
2.080000	26.202925
2.090000	26.202925
2.100000	26.202925
2.110000	26.202925
2.120000	26.202925
2.130000	26.202925
2.140000	26.202925
2.150000	26.202925
2.160000	26.202925
2.170000	26.202925
2.180000	26.202925
2.190000	26.202925
2.200000	26.202925
2.210000	26.202925
2.220000	26.202925
2.230000	26.202925
2.240000	26.202925
2.250000	26.202925
2.260000	26.202925
2.270000	26.202925
2.280000	26.202925
2.290000	26.202925
2.300000	26.202925
2.310000	26.202925
2.320000	26.202925
2.330000	26.202925
2.340000	26.202925
2.350000	26.202925
2.360000	26.202925
2.370000	26.202925
2.380000	26.202925
2.390000	26.202925
2.400000	26.202925
2.410000	26.202925
2.420000	26.202925
2.430000	26.202925
2.440000	26.202925
2.450000	26.202925
2.460000	26.202925
2.470000	26.202925
2.480000	26.202925
2.490000	26.202925
2.500000	26.945093
2.510000	26.945093
2.520000	26.945093
2.530000	26.945093
2.540000	26.945093
2.550000	26.945093
2.560000	26.945093
2.570000	26.945093
2.580000	26.945093
2.590000	26.945093
2.600000	26.945093
2.610000	26.945093
2.620000	26.945093
2.630000	26.945093
2.640000	26.945093
2.650000	26.945093
2.660000	26.945093
2.670000	26.945093
2.680000	26.945093
2.690000	26.945093
2.700000	26.945093
2.710000	26.945093
2.720000	26.945093
2.730000	26.945093
2.740000	26.945093
2.750000	26.945093
2.760000	26.945093
2.770000	26.945093
2.780000	26.945093
2.790000	26.945093
2.800000	26.945093
2.810000	26.945093
2.820000	26.945093
2.830000	26.945093
2.840000	26.945093
2.850000	26.945093
2.860000	26.945093
2.870000	26.945093
2.880000	26.945093
2.890000	26.945093
2.900000	26.945093
2.910000	26.945093
2.920000	26.945093
2.930000	26.945093
2.940000	26.945093
2.950000	26.945093
2.960000	26.945093
2.970000	26.945093
2.980000	26.945093
2.990000	26.945093
3.000000	27.789215
3.010000	27.789215
3.020000	27.789215
3.030000	27.789215
3.040000	27.789215
3.050000	27.789215
3.060000	27.789215
3.070000	27.789215
3.080000	27.789215
3.090000	27.789215
3.100000	27.789215
3.110000	27.789215
3.120000	27.789215
3.130000	27.789215
3.140000	27.789215
3.150000	27.789215
3.160000	27.789215
3.170000	27.789215
3.180000	27.789215
3.190000	27.789215
3.200000	27.789215
3.210000	27.789215
3.220000	27.789215
3.230000	27.789215
3.240000	27.789215
3.250000	27.789215
3.260000	27.789215
3.270000	27.789215
3.280000	27.789215
3.290000	27.789215
3.300000	27.789215
3.310000	27.789215
3.320000	27.789215
3.330000	27.789215
3.340000	27.789215
3.350000	27.789215
3.360000	27.789215
3.370000	27.789215
3.380000	27.789215
3.390000	27.789215
3.400000	27.789215
3.410000	27.789215
3.420000	27.789215
3.430000	27.789215
3.440000	27.789215
3.450000	27.789215
3.460000	27.789215
3.470000	27.789215
3.480000	27.789215
3.490000	27.789215
3.500000	28.665505
3.510000	28.665505
3.520000	28.665505
3.530000	28.665505
3.540000	28.665505
3.550000	28.665505
3.560000	28.665505
3.570000	28.665505
3.580000	28.665505
3.590000	28.665505
3.600000	28.665505
3.610000	28.665505
3.620000	28.665505
3.630000	28.665505
3.640000	28.665505
3.650000	28.665505
3.660000	28.665505
3.670000	28.665505
3.680000	28.665505
3.690000	28.665505
3.700000	28.665505
3.710000	28.665505
3.720000	28.665505
3.730000	28.665505
3.740000	28.665505
3.750000	28.665505
3.760000	28.665505
3.770000	28.665505
3.780000	28.665505
3.790000	28.665505
3.800000	28.665505
3.810000	28.665505
3.820000	28.665505
3.830000	28.665505
3.840000	28.665505
3.850000	28.665505
3.860000	28.665505
3.870000	28.665505
3.880000	28.665505
3.890000	28.665505
3.900000	28.665505
3.910000	28.665505
3.920000	28.665505
3.930000	28.665505
3.940000	28.665505
3.950000	28.665505
3.960000	28.665505
3.970000	28.665505
3.980000	28.665505
3.990000	28.665505
4.000000	29.400254
4.010000	29.400254
4.020000	29.400254
4.030000	29.400254
4.040000	29.400254
4.050000	29.400254
4.060000	29.400254
4.070000	29.400254
4.080000	29.400254
4.090000	29.400254
4.100000	29.400254
4.110000	29.400254
4.120000	29.400254
4.130000	29.400254
4.140000	29.400254
4.150000	29.400254
4.160000	29.400254
4.170000	29.400254
4.180000	29.400254
4.190000	29.400254
4.200000	29.400254
4.210000	29.400254
4.220000	29.400254
4.230000	29.400254
4.240000	29.400254
4.250000	29.400254
4.260000	29.400254
4.270000	29.400254
4.280000	29.400254
4.290000	29.400254
4.300000	29.400254
4.310000	29.400254
4.320000	29.400254
4.330000	29.400254
4.340000	29.400254
4.350000	29.400254
4.360000	29.400254
4.370000	29.400254
4.380000	29.400254
4.390000	29.400254
4.400000	29.400254
4.410000	29.400254
4.420000	29.400254
4.430000	29.400254
4.440000	29.400254
4.450000	29.400254
4.460000	29.400254
4.470000	29.400254
4.480000	29.400254
4.490000	29.400254
4.500000	29.944816
4.510000	29.944816
4.520000	29.944816
4.530000	29.944816
4.540000	29.944816
4.550000	29.944816
4.560000	29.944816
4.570000	29.944816
4.580000	29.944816
4.590000	29.944816
4.600000	29.944816
4.610000	29.944816
4.620000	29.944816
4.630000	29.944816
4.640000	29.944816
4.650000	29.944816
4.660000	29.944816
4.670000	29.944816
4.680000	29.944816
4.690000	29.944816
4.700000	29.944816
4.710000	29.944816
4.720000	29.944816
4.730000	29.944816
4.740000	29.944816
4.750000	29.944816
4.760000	29.944816
4.770000	29.944816
4.780000	29.944816
4.790000	29.944816
4.800000	29.944816
4.810000	29.944816
4.820000	29.944816
4.830000	29.944816
4.840000	29.944816
4.850000	29.944816
4.860000	29.944816
4.870000	29.944816
4.880000	29.944816
4.890000	29.944816
4.900000	29.944816
4.910000	29.944816
4.920000	29.944816
4.930000	29.944816
4.940000	29.944816
4.950000	29.944816
4.960000	29.944816
4.970000	29.944816
4.980000	29.944816
4.990000	29.944816
5.000000	30.328893
5.010000	30.328893
5.020000	30.328893
5.030000	30.328893
5.040000	30.328893
5.050000	30.328893
5.060000	30.328893
5.070000	30.328893
5.080000	30.328893
5.090000	30.328893
5.100000	30.328893
5.110000	30.328893
5.120000	30.328893
5.130000	30.328893
5.140000	30.328893
5.150000	30.328893
5.160000	30.328893
5.170000	30.328893
5.180000	30.328893
5.190000	30.328893
5.200000	30.328893
5.210000	30.328893
5.220000	30.328893
5.230000	30.328893
5.240000	30.328893
5.250000	30.328893
5.260000	30.328893
5.270000	30.328893
5.280000	30.328893
5.290000	30.328893
5.300000	30.328893
5.310000	30.328893
5.320000	30.328893
5.330000	30.328893
5.340000	30.328893
5.350000	30.328893
5.360000	30.328893
5.370000	30.328893
5.380000	30.328893
5.390000	30.328893
5.400000	30.328893
5.410000	30.328893
5.420000	30.328893
5.430000	30.328893
5.440000	30.328893
5.450000	30.328893
5.460000	30.328893
5.470000	30.328893
5.480000	30.328893
5.490000	30.328893
5.500000	30.593130
5.510000	30.593130
5.520000	30.593130
5.530000	30.593130
5.540000	30.593130
5.550000	30.593130
5.560000	30.593130
5.570000	30.593130
5.580000	30.593130
5.590000	30.593130
5.600000	30.593130
5.610000	30.593130
5.620000	30.593130
5.630000	30.593130
5.640000	30.593130
5.650000	30.593130
5.660000	30.593130
5.670000	30.593130
5.680000	30.593130
5.690000	30.593130
5.700000	30.593130
5.710000	30.593130
5.720000	30.593130
5.730000	30.593130
5.740000	30.593130
5.750000	30.593130
5.760000	30.593130
5.770000	30.593130
5.780000	30.593130
5.790000	30.593130
5.800000	30.593130
5.810000	30.593130
5.820000	30.593130
5.830000	30.593130
5.840000	30.593130
5.850000	30.593130
5.860000	30.593130
5.870000	30.593130
5.880000	30.593130
5.890000	30.593130
5.900000	30.593130
5.910000	30.593130
5.920000	30.593130
5.930000	30.593130
5.940000	30.593130
5.950000	30.593130
5.960000	30.593130
5.970000	30.593130
5.980000	30.593130
5.990000	30.593130
6.000000	30.766218
6.010000	30.766218
6.020000	30.766218
6.030000	30.766218
6.040000	30.766218
6.050000	30.766218
6.060000	30.766218
6.070000	30.766218
6.080000	30.766218
6.090000	30.766218
6.100000	30.766218
6.110000	30.766218
6.120000	30.766218
6.130000	30.766218
6.140000	30.766218
6.150000	30.766218
6.160000	30.766218
6.170000	30.766218
6.180000	30.766218
6.190000	30.766218
6.200000	30.766218
6.210000	30.766218
6.220000	30.766218
6.230000	30.766218
6.240000	30.766218
6.250000	30.766218
6.260000	30.766218
6.270000	30.766218
6.280000	30.766218
6.290000	30.766218
6.300000	30.766218
6.310000	30.766218
6.320000	30.766218
6.330000	30.766218
6.340000	30.766218
6.350000	30.766218
6.360000	30.766218
6.370000	30.766218
6.380000	30.766218
6.390000	30.766218
6.400000	30.766218
6.410000	30.766218
6.420000	30.766218
6.430000	30.766218
6.440000	30.766218
6.450000	30.766218
6.460000	30.766218
6.470000	30.766218
6.480000	30.766218
6.490000	30.766218
6.500000	30.869395
6.510000	30.869395
6.520000	30.869395
6.530000	30.869395
6.540000	30.869395
6.550000	30.869395
6.560000	30.869395
6.570000	30.869395
6.580000	30.869395
6.590000	30.869395
6.600000	30.869395
6.610000	30.869395
6.620000	30.869395
6.630000	30.869395
6.640000	30.869395
6.650000	30.869395
6.660000	30.869395
6.670000	30.869395
6.680000	30.869395
6.690000	30.869395
6.700000	30.869395
6.710000	30.869395
6.720000	30.869395
6.730000	30.869395
6.740000	30.869395
6.750000	30.869395
6.760000	30.869395
6.770000	30.869395
6.780000	30.869395
6.790000	30.869395
6.800000	30.869395
6.810000	30.869395
6.820000	30.869395
6.830000	30.869395
6.840000	30.869395
6.850000	30.869395
6.860000	30.869395
6.870000	30.869395
6.880000	30.869395
6.890000	30.869395
6.900000	30.869395
6.910000	30.869395
6.920000	30.869395
6.930000	30.869395
6.940000	30.869395
6.950000	30.869395
6.960000	30.869395
6.970000	30.869395
6.980000	30.869395
6.990000	30.869395
7.000000	30.916485
7.010000	30.916485
7.020000	30.916485
7.030000	30.916485
7.040000	30.916485
7.050000	30.916485
7.060000	30.916485
7.070000	30.916485
7.080000	30.916485
7.090000	30.916485
7.100000	30.916485
7.110000	30.916485
7.120000	30.916485
7.130000	30.916485
7.140000	30.916485
7.150000	30.916485
7.160000	30.916485
7.170000	30.916485
7.180000	30.916485
7.190000	30.916485
7.200000	30.916485
7.210000	30.916485
7.220000	30.916485
7.230000	30.916485
7.240000	30.916485
7.250000	30.916485
7.260000	30.916485
7.270000	30.916485
7.280000	30.916485
7.290000	30.916485
7.300000	30.916485
7.310000	30.916485
7.320000	30.916485
7.330000	30.916485
7.340000	30.916485
7.350000	30.916485
7.360000	30.916485
7.370000	30.916485
7.380000	30.916485
7.390000	30.916485
7.400000	30.916485
7.410000	30.916485
7.420000	30.916485
7.430000	30.916485
7.440000	30.916485
7.450000	30.916485
7.460000	30.916485
7.470000	30.916485
7.480000	30.916485
7.490000	30.916485
7.500000	30.924587
7.510000	30.924587
7.520000	30.924587
7.530000	30.924587
7.540000	30.924587
7.550000	30.924587
7.560000	30.924587
7.570000	30.924587
7.580000	30.924587
7.590000	30.924587
7.600000	30.924587
7.610000	30.924587
7.620000	30.924587
7.630000	30.924587
7.640000	30.924587
7.650000	30.924587
7.660000	30.924587
7.670000	30.924587
7.680000	30.924587
7.690000	30.924587
7.700000	30.924587
7.710000	30.924587
7.720000	30.924587
7.730000	30.924587
7.740000	30.924587
7.750000	30.924587
7.760000	30.924587
7.770000	30.924587
7.780000	30.924587
7.790000	30.924587
7.800000	30.924587
7.810000	30.924587
7.820000	30.924587
7.830000	30.924587
7.840000	30.924587
7.850000	30.924587
7.860000	30.924587
7.870000	30.924587
7.880000	30.924587
7.890000	30.924587
7.900000	30.924587
7.910000	30.924587
7.920000	30.924587
7.930000	30.924587
7.940000	30.924587
7.950000	30.924587
7.960000	30.924587
7.970000	30.924587
7.980000	30.924587
7.990000	30.924587
8.000000	30.899940
8.010000	30.899940
8.020000	30.899940
8.030000	30.899940
8.040000	30.899940
8.050000	30.899940
8.060000	30.899940
8.070000	30.899940
8.080000	30.899940
8.090000	30.899940
8.100000	30.899940
8.110000	30.899940
8.120000	30.899940
8.130000	30.899940
8.140000	30.899940
8.150000	30.899940
8.160000	30.899940
8.170000	30.899940
8.180000	30.899940
8.190000	30.899940
8.200000	30.899940
8.210000	30.899940
8.220000	30.899940
8.230000	30.899940
8.240000	30.899940
8.250000	30.899940
8.260000	30.899940
8.270000	30.899940
8.280000	30.899940
8.290000	30.899940
8.300000	30.899940
8.310000	30.899940
8.320000	30.899940
8.330000	30.899940
8.340000	30.899940
8.350000	30.899940
8.360000	30.899940
8.370000	30.899940
8.380000	30.899940
8.390000	30.899940
8.400000	30.899940
8.410000	30.899940
8.420000	30.899940
8.430000	30.899940
8.440000	30.899940
8.450000	30.899940
8.460000	30.899940
8.470000	30.899940
8.480000	30.899940
8.490000	30.899940
8.500000	30.851784
8.510000	30.851784
8.520000	30.851784
8.530000	30.851784
8.540000	30.851784
8.550000	30.851784
8.560000	30.851784
8.570000	30.851784
8.580000	30.851784
8.590000	30.851784
8.600000	30.851784
8.610000	30.851784
8.620000	30.851784
8.630000	30.851784
8.640000	30.851784
8.650000	30.851784
8.660000	30.851784
8.670000	30.851784
8.680000	30.851784
8.690000	30.851784
8.700000	30.851784
8.710000	30.851784
8.720000	30.851784
8.730000	30.851784
8.740000	30.851784
8.750000	30.851784
8.760000	30.851784
8.770000	30.851784
8.780000	30.851784
8.790000	30.851784
8.800000	30.851784
8.810000	30.851784
8.820000	30.851784
8.830000	30.851784
8.840000	30.851784
8.850000	30.851784
8.860000	30.851784
8.870000	30.851784
8.880000	30.851784
8.890000	30.851784
8.900000	30.851784
8.910000	30.851784
8.920000	30.851784
8.930000	30.851784
8.940000	30.851784
8.950000	30.851784
8.960000	30.851784
8.970000	30.851784
8.980000	30.851784
8.990000	30.851784
9.000000	30.785418
9.010000	30.785418
9.020000	30.785418
9.030000	30.785418
9.040000	30.785418
9.050000	30.785418
9.060000	30.785418
9.070000	30.785418
9.080000	30.785418
9.090000	30.785418
9.100000	30.785418
9.110000	30.785418
9.120000	30.785418
9.130000	30.785418
9.140000	30.785418
9.150000	30.785418
9.160000	30.785418
9.170000	30.785418
9.180000	30.785418
9.190000	30.785418
9.200000	30.785418
9.210000	30.785418
9.220000	30.785418
9.230000	30.785418
9.240000	30.785418
9.250000	30.785418
9.260000	30.785418
9.270000	30.785418
9.280000	30.785418
9.290000	30.785418
9.300000	30.785418
9.310000	30.785418
9.320000	30.785418
9.330000	30.785418
9.340000	30.785418
9.350000	30.785418
9.360000	30.785418
9.370000	30.785418
9.380000	30.785418
9.390000	30.785418
9.400000	30.785418
9.410000	30.785418
9.420000	30.785418
9.430000	30.785418
9.440000	30.785418
9.450000	30.785418
9.460000	30.785418
9.470000	30.785418
9.480000	30.785418
9.490000	30.785418
9.500000	30.706113
9.510000	30.706113
9.520000	30.706113
9.530000	30.706113
9.540000	30.706113
9.550000	30.706113
9.560000	30.706113
9.570000	30.706113
9.580000	30.706113
9.590000	30.706113
9.600000	30.706113
9.610000	30.706113
9.620000	30.706113
9.630000	30.706113
9.640000	30.706113
9.650000	30.706113
9.660000	30.706113
9.670000	30.706113
9.680000	30.706113
9.690000	30.706113
9.700000	30.706113
9.710000	30.706113
9.720000	30.706113
9.730000	30.706113
9.740000	30.706113
9.750000	30.706113
9.760000	30.706113
9.770000	30.706113
9.780000	30.706113
9.790000	30.706113
9.800000	30.706113
9.810000	30.706113
9.820000	30.706113
9.830000	30.706113
9.840000	30.706113
9.850000	30.706113
9.860000	30.706113
9.870000	30.706113
9.880000	30.706113
9.890000	30.706113
9.900000	30.706113
9.910000	30.706113
9.920000	30.706113
9.930000	30.706113
9.940000	30.706113
9.950000	30.706113
9.960000	30.706113
9.970000	30.706113
9.980000	30.706113
9.990000	30.706113
10.000000	30.618539
10.010000	30.618539
10.020000	30.618539
10.030000	30.618539
10.040000	30.618539
10.050000	30.618539
10.060000	30.618539
10.070000	30.618539
10.080000	30.618539
10.090000	30.618539
10.100000	30.618539
10.110000	30.618539
10.120000	30.618539
10.130000	30.618539
10.140000	30.618539
10.150000	30.618539
10.160000	30.618539
10.170000	30.618539
10.180000	30.618539
10.190000	30.618539
10.200000	30.618539
10.210000	30.618539
10.220000	30.618539
10.230000	30.618539
10.240000	30.618539
10.250000	30.618539
10.260000	30.618539
10.270000	30.618539
10.280000	30.618539
10.290000	30.618539
10.300000	30.618539
10.310000	30.618539
10.320000	30.618539
10.330000	30.618539
10.340000	30.618539
10.350000	30.618539
10.360000	30.618539
10.370000	30.618539
10.380000	30.618539
10.390000	30.618539
10.400000	30.618539
10.410000	30.618539
10.420000	30.618539
10.430000	30.618539
10.440000	30.618539
10.450000	30.618539
10.460000	30.618539
10.470000	30.618539
10.480000	30.618539
10.490000	30.618539
10.500000	30.523945
10.510000	30.523945
10.520000	30.523945
10.530000	30.523945
10.540000	30.523945
10.550000	30.523945
10.560000	30.523945
10.570000	30.523945
10.580000	30.523945
10.590000	30.523945
10.600000	30.523945
10.610000	30.523945
10.620000	30.523945
10.630000	30.523945
10.640000	30.523945
10.650000	30.523945
10.660000	30.523945
10.670000	30.523945
10.680000	30.523945
10.690000	30.523945
10.700000	30.523945
10.710000	30.523945
10.720000	30.523945
10.730000	30.523945
10.740000	30.523945
10.750000	30.523945
10.760000	30.523945
10.770000	30.523945
10.780000	30.523945
10.790000	30.523945
10.800000	30.523945
10.810000	30.523945
10.820000	30.523945
10.830000	30.523945
10.840000	30.523945
10.850000	30.523945
10.860000	30.523945
10.870000	30.523945
10.880000	30.523945
10.890000	30.523945
10.900000	30.523945
10.910000	30.523945
10.920000	30.523945
10.930000	30.523945
10.940000	30.523945
10.950000	30.523945
10.960000	30.523945
10.970000	30.523945
10.980000	30.523945
10.990000	30.523945
11.000000	30.423124
11.010000	30.423124
11.020000	30.423124
11.030000	30.423124
11.040000	30.423124
11.050000	30.423124
11.060000	30.423124
11.070000	30.423124
11.080000	30.423124
11.090000	30.423124
11.100000	30.423124
11.110000	30.423124
11.120000	30.423124
11.130000	30.423124
11.140000	30.423124
11.150000	30.423124
11.160000	30.423124
11.170000	30.423124
11.180000	30.423124
11.190000	30.423124
11.200000	30.423124
11.210000	30.423124
11.220000	30.423124
11.230000	30.423124
11.240000	30.423124
11.250000	30.423124
11.260000	30.423124
11.270000	30.423124
11.280000	30.423124
11.290000	30.423124
11.300000	30.423124
11.310000	30.423124
11.320000	30.423124
11.330000	30.423124
11.340000	30.423124
11.350000	30.423124
11.360000	30.423124
11.370000	30.423124
11.380000	30.423124
11.390000	30.423124
11.400000	30.423124
11.410000	30.423124
11.420000	30.423124
11.430000	30.423124
11.440000	30.423124
11.450000	30.423124
11.460000	30.423124
11.470000	30.423124
11.480000	30.423124
11.490000	30.423124
11.500000	30.318143
11.510000	30.318143
11.520000	30.318143
11.530000	30.318143
11.540000	30.318143
11.550000	30.318143
11.560000	30.318143
11.570000	30.318143
11.580000	30.318143
11.590000	30.318143
11.600000	30.318143
11.610000	30.318143
11.620000	30.318143
11.630000	30.318143
11.640000	30.318143
11.650000	30.318143
11.660000	30.318143
11.670000	30.318143
11.680000	30.318143
11.690000	30.318143
11.700000	30.318143
11.710000	30.318143
11.720000	30.318143
11.730000	30.318143
11.740000	30.318143
11.750000	30.318143
11.760000	30.318143
11.770000	30.318143
11.780000	30.318143
11.790000	30.318143
11.800000	30.318143
11.810000	30.318143
11.820000	30.318143
11.830000	30.318143
11.840000	30.318143
11.850000	30.318143
11.860000	30.318143
11.870000	30.318143
11.880000	30.318143
11.890000	30.318143
11.900000	30.318143
11.910000	30.318143
11.920000	30.318143
11.930000	30.318143
11.940000	30.318143
11.950000	30.318143
11.960000	30.318143
11.970000	30.318143
11.980000	30.318143
11.990000	30.318143
12.000000	30.210468
12.010000	30.210468
12.020000	30.210468
12.030000	30.210468
12.040000	30.210468
12.050000	30.210468
12.060000	30.210468
12.070000	30.210468
12.080000	30.210468
12.090000	30.210468
12.100000	30.210468
12.110000	30.210468
12.120000	30.210468
12.130000	30.210468
12.140000	30.210468
12.150000	30.210468
12.160000	30.210468
12.170000	30.210468
12.180000	30.210468
12.190000	30.210468
12.200000	30.210468
12.210000	30.210468
12.220000	30.210468
12.230000	30.210468
12.240000	30.210468
12.250000	30.210468
12.260000	30.210468
12.270000	30.210468
12.280000	30.210468
12.290000	30.210468
12.300000	30.210468
12.310000	30.210468
12.320000	30.210468
12.330000	30.210468
12.340000	30.210468
12.350000	30.210468
12.360000	30.210468
12.370000	30.210468
12.380000	30.210468
12.390000	30.210468
12.400000	30.210468
12.410000	30.210468
12.420000	30.210468
12.430000	30.210468
12.440000	30.210468
12.450000	30.210468
12.460000	30.210468
12.470000	30.210468
12.480000	30.210468
12.490000	30.210468
12.500000	30.102918
12.510000	30.102918
12.520000	30.102918
12.530000	30.102918
12.540000	30.102918
12.550000	30.102918
12.560000	30.102918
12.570000	30.102918
12.580000	30.102918
12.590000	30.102918
12.600000	30.102918
12.610000	30.102918
12.620000	30.102918
12.630000	30.102918
12.640000	30.102918
12.650000	30.102918
12.660000	30.102918
12.670000	30.102918
12.680000	30.102918
12.690000	30.102918
12.700000	30.102918
12.710000	30.102918
12.720000	30.102918
12.730000	30.102918
12.740000	30.102918
12.750000	30.102918
12.760000	30.102918
12.770000	30.102918
12.780000	30.102918
12.790000	30.102918
12.800000	30.102918
12.810000	30.102918
12.820000	30.102918
12.830000	30.102918
12.840000	30.102918
12.850000	30.102918
12.860000	30.102918
12.870000	30.102918
12.880000	30.102918
12.890000	30.102918
12.900000	30.102918
12.910000	30.102918
12.920000	30.102918
12.930000	30.102918
12.940000	30.102918
12.950000	30.102918
12.960000	30.102918
12.970000	30.102918
12.980000	30.102918
12.990000	30.102918
13.000000	29.994607
13.010000	29.994607
13.020000	29.994607
13.030000	29.994607
13.040000	29.994607
13.050000	29.994607
13.060000	29.994607
13.070000	29.994607
13.080000	29.994607
13.090000	29.994607
13.100000	29.994607
13.110000	29.994607
13.120000	29.994607
13.130000	29.994607
13.140000	29.994607
13.150000	29.994607
13.160000	29.994607
13.170000	29.994607
13.180000	29.994607
13.190000	29.994607
13.200000	29.994607
13.210000	29.994607
13.220000	29.994607
13.230000	29.994607
13.240000	29.994607
13.250000	29.994607
13.260000	29.994607
13.270000	29.994607
13.280000	29.994607
13.290000	29.994607
13.300000	29.994607
13.310000	29.994607
13.320000	29.994607
13.330000	29.994607
13.340000	29.994607
13.350000	29.994607
13.360000	29.994607
13.370000	29.994607
13.380000	29.994607
13.390000	29.994607
13.400000	29.994607
13.410000	29.994607
13.420000	29.994607
13.430000	29.994607
13.440000	29.994607
13.450000	29.994607
13.460000	29.994607
13.470000	29.994607
13.480000	29.994607
13.490000	29.994607
13.500000	29.888345
13.510000	29.888345
13.520000	29.888345
13.530000	29.888345
13.540000	29.888345
13.550000	29.888345
13.560000	29.888345
13.570000	29.888345
13.580000	29.888345
13.590000	29.888345
13.600000	29.888345
13.610000	29.888345
13.620000	29.888345
13.630000	29.888345
13.640000	29.888345
13.650000	29.888345
13.660000	29.888345
13.670000	29.888345
13.680000	29.888345
13.690000	29.888345
13.700000	29.888345
13.710000	29.888345
13.720000	29.888345
13.730000	29.888345
13.740000	29.888345
13.750000	29.888345
13.760000	29.888345
13.770000	29.888345
13.780000	29.888345
13.790000	29.888345
13.800000	29.888345
13.810000	29.888345
13.820000	29.888345
13.830000	29.888345
13.840000	29.888345
13.850000	29.888345
13.860000	29.888345
13.870000	29.888345
13.880000	29.888345
13.890000	29.888345
13.900000	29.888345
13.910000	29.888345
13.920000	29.888345
13.930000	29.888345
13.940000	29.888345
13.950000	29.888345
13.960000	29.888345
13.970000	29.888345
13.980000	29.888345
13.990000	29.888345
14.000000	29.785381
14.010000	29.785381
14.020000	29.785381
14.030000	29.785381
14.040000	29.785381
14.050000	29.785381
14.060000	29.785381
14.070000	29.785381
14.080000	29.785381
14.090000	29.785381
14.100000	29.785381
14.110000	29.785381
14.120000	29.785381
14.130000	29.785381
14.140000	29.785381
14.150000	29.785381
14.160000	29.785381
14.170000	29.785381
14.180000	29.785381
14.190000	29.785381
14.200000	29.785381
14.210000	29.785381
14.220000	29.785381
14.230000	29.785381
14.240000	29.785381
14.250000	29.785381
14.260000	29.785381
14.270000	29.785381
14.280000	29.785381
14.290000	29.785381
14.300000	29.785381
14.310000	29.785381
14.320000	29.785381
14.330000	29.785381
14.340000	29.785381
14.350000	29.785381
14.360000	29.785381
14.370000	29.785381
14.380000	29.785381
14.390000	29.785381
14.400000	29.785381
14.410000	29.785381
14.420000	29.785381
14.430000	29.785381
14.440000	29.785381
14.450000	29.785381
14.460000	29.785381
14.470000	29.785381
14.480000	29.785381
14.490000	29.785381
14.500000	29.683561
14.510000	29.683561
14.520000	29.683561
14.530000	29.683561
14.540000	29.683561
14.550000	29.683561
14.560000	29.683561
14.570000	29.683561
14.580000	29.683561
14.590000	29.683561
14.600000	29.683561
14.610000	29.683561
14.620000	29.683561
14.630000	29.683561
14.640000	29.683561
14.650000	29.683561
14.660000	29.683561
14.670000	29.683561
14.680000	29.683561
14.690000	29.683561
14.700000	29.683561
14.710000	29.683561
14.720000	29.683561
14.730000	29.683561
14.740000	29.683561
14.750000	29.683561
14.760000	29.683561
14.770000	29.683561
14.780000	29.683561
14.790000	29.683561
14.800000	29.683561
14.810000	29.683561
14.820000	29.683561
14.830000	29.683561
14.840000	29.683561
14.850000	29.683561
14.860000	29.683561
14.870000	29.683561
14.880000	29.683561
14.890000	29.683561
14.900000	29.683561
14.910000	29.683561
14.920000	29.683561
14.930000	29.683561
14.940000	29.683561
14.950000	29.683561
14.960000	29.683561
14.970000	29.683561
14.980000	29.683561
14.990000	29.683561
15.000000	29.584297
15.010000	29.584297
15.020000	29.584297
15.030000	29.584297
15.040000	29.584297
15.050000	29.584297
15.060000	29.584297
15.070000	29.584297
15.080000	29.584297
15.090000	29.584297
15.100000	29.584297
15.110000	29.584297
15.120000	29.584297
15.130000	29.584297
15.140000	29.584297
15.150000	29.584297
15.160000	29.584297
15.170000	29.584297
15.180000	29.584297
15.190000	29.584297
15.200000	29.584297
15.210000	29.584297
15.220000	29.584297
15.230000	29.584297
15.240000	29.584297
15.250000	29.584297
15.260000	29.584297
15.270000	29.584297
15.280000	29.584297
15.290000	29.584297
15.300000	29.584297
15.310000	29.584297
15.320000	29.584297
15.330000	29.584297
15.340000	29.584297
15.350000	29.584297
15.360000	29.584297
15.370000	29.584297
15.380000	29.584297
15.390000	29.584297
15.400000	29.584297
15.410000	29.584297
15.420000	29.584297
15.430000	29.584297
15.440000	29.584297
15.450000	29.584297
15.460000	29.584297
15.470000	29.584297
15.480000	29.584297
15.490000	29.584297
15.500000	29.489890
15.510000	29.489890
15.520000	29.489890
15.530000	29.489890
15.540000	29.489890
15.550000	29.489890
15.560000	29.489890
15.570000	29.489890
15.580000	29.489890
15.590000	29.489890
15.600000	29.489890
15.610000	29.489890
15.620000	29.489890
15.630000	29.489890
15.640000	29.489890
15.650000	29.489890
15.660000	29.489890
15.670000	29.489890
15.680000	29.489890
15.690000	29.489890
15.700000	29.489890
15.710000	29.489890
15.720000	29.489890
15.730000	29.489890
15.740000	29.489890
15.750000	29.489890
15.760000	29.489890
15.770000	29.489890
15.780000	29.489890
15.790000	29.489890
15.800000	29.489890
15.810000	29.489890
15.820000	29.489890
15.830000	29.489890
15.840000	29.489890
15.850000	29.489890
15.860000	29.489890
15.870000	29.489890
15.880000	29.489890
15.890000	29.489890
15.900000	29.489890
15.910000	29.489890
15.920000	29.489890
15.930000	29.489890
15.940000	29.489890
15.950000	29.489890
15.960000	29.489890
15.970000	29.489890
15.980000	29.489890
15.990000	29.489890
16.000000	29.396693
16.010000	29.396693
16.020000	29.396693
16.030000	29.396693
16.040000	29.396693
16.050000	29.396693
16.060000	29.396693
16.070000	29.396693
16.080000	29.396693
16.090000	29.396693
16.100000	29.396693
16.110000	29.396693
16.120000	29.396693
16.130000	29.396693
16.140000	29.396693
16.150000	29.396693
16.160000	29.396693
16.170000	29.396693
16.180000	29.396693
16.190000	29.396693
16.200000	29.396693
16.210000	29.396693
16.220000	29.396693
16.230000	29.396693
16.240000	29.396693
16.250000	29.396693
16.260000	29.396693
16.270000	29.396693
16.280000	29.396693
16.290000	29.396693
16.300000	29.396693
16.310000	29.396693
16.320000	29.396693
16.330000	29.396693
16.340000	29.396693
16.350000	29.396693
16.360000	29.396693
16.370000	29.396693
16.380000	29.396693
16.390000	29.396693
16.400000	29.396693
16.410000	29.396693
16.420000	29.396693
16.430000	29.396693
16.440000	29.396693
16.450000	29.396693
16.460000	29.396693
16.470000	29.396693
16.480000	29.396693
16.490000	29.396693
16.500000	29.303138
16.510000	29.303138
16.520000	29.303138
16.530000	29.303138
16.540000	29.303138
16.550000	29.303138
16.560000	29.303138
16.570000	29.303138
16.580000	29.303138
16.590000	29.303138
16.600000	29.303138
16.610000	29.303138
16.620000	29.303138
16.630000	29.303138
16.640000	29.303138
16.650000	29.303138
16.660000	29.303138
16.670000	29.303138
16.680000	29.303138
16.690000	29.303138
16.700000	29.303138
16.710000	29.303138
16.720000	29.303138
16.730000	29.303138
16.740000	29.303138
16.750000	29.303138
16.760000	29.303138
16.770000	29.303138
16.780000	29.303138
16.790000	29.303138
16.800000	29.303138
16.810000	29.303138
16.820000	29.303138
16.830000	29.303138
16.840000	29.303138
16.850000	29.303138
16.860000	29.303138
16.870000	29.303138
16.880000	29.303138
16.890000	29.303138
16.900000	29.303138
16.910000	29.303138
16.920000	29.303138
16.930000	29.303138
16.940000	29.303138
16.950000	29.303138
16.960000	29.303138
16.970000	29.303138
16.980000	29.303138
16.990000	29.303138
17.000000	29.212906
17.010000	29.212906
17.020000	29.212906
17.030000	29.212906
17.040000	29.212906
17.050000	29.212906
17.060000	29.212906
17.070000	29.212906
17.080000	29.212906
17.090000	29.212906
17.100000	29.212906
17.110000	29.212906
17.120000	29.212906
17.130000	29.212906
17.140000	29.212906
17.150000	29.212906
17.160000	29.212906
17.170000	29.212906
17.180000	29.212906
17.190000	29.212906
17.200000	29.212906
17.210000	29.212906
17.220000	29.212906
17.230000	29.212906
17.240000	29.212906
17.250000	29.212906
17.260000	29.212906
17.270000	29.212906
17.280000	29.212906
17.290000	29.212906
17.300000	29.212906
17.310000	29.212906
17.320000	29.212906
17.330000	29.212906
17.340000	29.212906
17.350000	29.212906
17.360000	29.212906
17.370000	29.212906
17.380000	29.212906
17.390000	29.212906
17.400000	29.212906
17.410000	29.212906
17.420000	29.212906
17.430000	29.212906
17.440000	29.212906
17.450000	29.212906
17.460000	29.212906
17.470000	29.212906
17.480000	29.212906
17.490000	29.212906
17.500000	29.125623
17.510000	29.125623
17.520000	29.125623
17.530000	29.125623
17.540000	29.125623
17.550000	29.125623
17.560000	29.125623
17.570000	29.125623
17.580000	29.125623
17.590000	29.125623
17.600000	29.125623
17.610000	29.125623
17.620000	29.125623
17.630000	29.125623
17.640000	29.125623
17.650000	29.125623
17.660000	29.125623
17.670000	29.125623
17.680000	29.125623
17.690000	29.125623
17.700000	29.125623
17.710000	29.125623
17.720000	29.125623
17.730000	29.125623
17.740000	29.125623
17.750000	29.125623
17.760000	29.125623
17.770000	29.125623
17.780000	29.125623
17.790000	29.125623
17.800000	29.125623
17.810000	29.125623
17.820000	29.125623
17.830000	29.125623
17.840000	29.125623
17.850000	29.125623
17.860000	29.125623
17.870000	29.125623
17.880000	29.125623
17.890000	29.125623
17.900000	29.125623
17.910000	29.125623
17.920000	29.125623
17.930000	29.125623
17.940000	29.125623
17.950000	29.125623
17.960000	29.125623
17.970000	29.125623
17.980000	29.125623
17.990000	29.125623
