LabVIEW Measurement	
Writer_Version	2
Reader_Version	2
Separator	Tab
Decimal_Separator	.
Multi_Headings	No
X_Columns	One
Time_Pref	Absolute
Operator	biomech-dyno
Date	2023/05/23
Time	16:26:31.1792034999998606061
***End_of_Header***	
	
Channels	1	
Samples	10	
Date	2023/05/23	
Time	18:24:09.5018076999996935636	
X_Dimension	Time	
X0	0.0000000000000000E+0	
Delta_X	0.010000	
***End_of_Header***		
X_Value	Untitled	Comment
0.000000	24.663157
0.010000	24.663157
0.020000	24.663157
0.030000	24.663157
0.040000	24.663157
0.050000	24.663157
0.060000	24.663157
0.070000	24.663157
0.080000	24.663157
0.090000	24.663157
0.100000	24.663157
0.110000	24.663157
0.120000	24.663157
0.130000	24.663157
0.140000	24.663157
0.150000	24.663157
0.160000	24.663157
0.170000	24.663157
0.180000	24.663157
0.190000	24.663157
0.200000	24.663157
0.210000	24.663157
0.220000	24.663157
0.230000	24.663157
0.240000	24.663157
0.250000	24.663157
0.260000	24.663157
0.270000	24.663157
0.280000	24.663157
0.290000	24.663157
0.300000	24.663157
0.310000	24.663157
0.320000	24.663157
0.330000	24.663157
0.340000	24.663157
0.350000	24.663157
0.360000	24.663157
0.370000	24.663157
0.380000	24.663157
0.390000	24.663157
0.400000	24.663157
0.410000	24.663157
0.420000	24.663157
0.430000	24.663157
0.440000	24.663157
0.450000	24.663157
0.460000	24.663157
0.470000	24.663157
0.480000	24.663157
0.490000	24.663157
0.500000	24.669473
0.510000	24.669473
0.520000	24.669473
0.530000	24.669473
0.540000	24.669473
0.550000	24.669473
0.560000	24.669473
0.570000	24.669473
0.580000	24.669473
0.590000	24.669473
0.600000	24.669473
0.610000	24.669473
0.620000	24.669473
0.630000	24.669473
0.640000	24.669473
0.650000	24.669473
0.660000	24.669473
0.670000	24.669473
0.680000	24.669473
0.690000	24.669473
0.700000	24.669473
0.710000	24.669473
0.720000	24.669473
0.730000	24.669473
0.740000	24.669473
0.750000	24.669473
0.760000	24.669473
0.770000	24.669473
0.780000	24.669473
0.790000	24.669473
0.800000	24.669473
0.810000	24.669473
0.820000	24.669473
0.830000	24.669473
0.840000	24.669473
0.850000	24.669473
0.860000	24.669473
0.870000	24.669473
0.880000	24.669473
0.890000	24.669473
0.900000	24.669473
0.910000	24.669473
0.920000	24.669473
0.930000	24.669473
0.940000	24.669473
0.950000	24.669473
0.960000	24.669473
0.970000	24.669473
0.980000	24.669473
0.990000	24.669473
1.000000	24.700828
1.010000	24.700828
1.020000	24.700828
1.030000	24.700828
1.040000	24.700828
1.050000	24.700828
1.060000	24.700828
1.070000	24.700828
1.080000	24.700828
1.090000	24.700828
1.100000	24.700828
1.110000	24.700828
1.120000	24.700828
1.130000	24.700828
1.140000	24.700828
1.150000	24.700828
1.160000	24.700828
1.170000	24.700828
1.180000	24.700828
1.190000	24.700828
1.200000	24.700828
1.210000	24.700828
1.220000	24.700828
1.230000	24.700828
1.240000	24.700828
1.250000	24.700828
1.260000	24.700828
1.270000	24.700828
1.280000	24.700828
1.290000	24.700828
1.300000	24.700828
1.310000	24.700828
1.320000	24.700828
1.330000	24.700828
1.340000	24.700828
1.350000	24.700828
1.360000	24.700828
1.370000	24.700828
1.380000	24.700828
1.390000	24.700828
1.400000	24.700828
1.410000	24.700828
1.420000	24.700828
1.430000	24.700828
1.440000	24.700828
1.450000	24.700828
1.460000	24.700828
1.470000	24.700828
1.480000	24.700828
1.490000	24.700828
1.500000	24.768808
1.510000	24.768808
1.520000	24.768808
1.530000	24.768808
1.540000	24.768808
1.550000	24.768808
1.560000	24.768808
1.570000	24.768808
1.580000	24.768808
1.590000	24.768808
1.600000	24.768808
1.610000	24.768808
1.620000	24.768808
1.630000	24.768808
1.640000	24.768808
1.650000	24.768808
1.660000	24.768808
1.670000	24.768808
1.680000	24.768808
1.690000	24.768808
1.700000	24.768808
1.710000	24.768808
1.720000	24.768808
1.730000	24.768808
1.740000	24.768808
1.750000	24.768808
1.760000	24.768808
1.770000	24.768808
1.780000	24.768808
1.790000	24.768808
1.800000	24.768808
1.810000	24.768808
1.820000	24.768808
1.830000	24.768808
1.840000	24.768808
1.850000	24.768808
1.860000	24.768808
1.870000	24.768808
1.880000	24.768808
1.890000	24.768808
1.900000	24.768808
1.910000	24.768808
1.920000	24.768808
1.930000	24.768808
1.940000	24.768808
1.950000	24.768808
1.960000	24.768808
1.970000	24.768808
1.980000	24.768808
1.990000	24.768808
2.000000	24.866424
2.010000	24.866424
2.020000	24.866424
2.030000	24.866424
2.040000	24.866424
2.050000	24.866424
2.060000	24.866424
2.070000	24.866424
2.080000	24.866424
2.090000	24.866424
2.100000	24.866424
2.110000	24.866424
2.120000	24.866424
2.130000	24.866424
2.140000	24.866424
2.150000	24.866424
2.160000	24.866424
2.170000	24.866424
2.180000	24.866424
2.190000	24.866424
2.200000	24.866424
2.210000	24.866424
2.220000	24.866424
2.230000	24.866424
2.240000	24.866424
2.250000	24.866424
2.260000	24.866424
2.270000	24.866424
2.280000	24.866424
2.290000	24.866424
2.300000	24.866424
2.310000	24.866424
2.320000	24.866424
2.330000	24.866424
2.340000	24.866424
2.350000	24.866424
2.360000	24.866424
2.370000	24.866424
2.380000	24.866424
2.390000	24.866424
2.400000	24.866424
2.410000	24.866424
2.420000	24.866424
2.430000	24.866424
2.440000	24.866424
2.450000	24.866424
2.460000	24.866424
2.470000	24.866424
2.480000	24.866424
2.490000	24.866424
2.500000	24.987705
2.510000	24.987705
2.520000	24.987705
2.530000	24.987705
2.540000	24.987705
2.550000	24.987705
2.560000	24.987705
2.570000	24.987705
2.580000	24.987705
2.590000	24.987705
2.600000	24.987705
2.610000	24.987705
2.620000	24.987705
2.630000	24.987705
2.640000	24.987705
2.650000	24.987705
2.660000	24.987705
2.670000	24.987705
2.680000	24.987705
2.690000	24.987705
2.700000	24.987705
2.710000	24.987705
2.720000	24.987705
2.730000	24.987705
2.740000	24.987705
2.750000	24.987705
2.760000	24.987705
2.770000	24.987705
2.780000	24.987705
2.790000	24.987705
2.800000	24.987705
2.810000	24.987705
2.820000	24.987705
2.830000	24.987705
2.840000	24.987705
2.850000	24.987705
2.860000	24.987705
2.870000	24.987705
2.880000	24.987705
2.890000	24.987705
2.900000	24.987705
2.910000	24.987705
2.920000	24.987705
2.930000	24.987705
2.940000	24.987705
2.950000	24.987705
2.960000	24.987705
2.970000	24.987705
2.980000	24.987705
2.990000	24.987705
3.000000	25.124757
3.010000	25.124757
3.020000	25.124757
3.030000	25.124757
3.040000	25.124757
3.050000	25.124757
3.060000	25.124757
3.070000	25.124757
3.080000	25.124757
3.090000	25.124757
3.100000	25.124757
3.110000	25.124757
3.120000	25.124757
3.130000	25.124757
3.140000	25.124757
3.150000	25.124757
3.160000	25.124757
3.170000	25.124757
3.180000	25.124757
3.190000	25.124757
3.200000	25.124757
3.210000	25.124757
3.220000	25.124757
3.230000	25.124757
3.240000	25.124757
3.250000	25.124757
3.260000	25.124757
3.270000	25.124757
3.280000	25.124757
3.290000	25.124757
3.300000	25.124757
3.310000	25.124757
3.320000	25.124757
3.330000	25.124757
3.340000	25.124757
3.350000	25.124757
3.360000	25.124757
3.370000	25.124757
3.380000	25.124757
3.390000	25.124757
3.400000	25.124757
3.410000	25.124757
3.420000	25.124757
3.430000	25.124757
3.440000	25.124757
3.450000	25.124757
3.460000	25.124757
3.470000	25.124757
3.480000	25.124757
3.490000	25.124757
3.500000	25.270524
3.510000	25.270524
3.520000	25.270524
3.530000	25.270524
3.540000	25.270524
3.550000	25.270524
3.560000	25.270524
3.570000	25.270524
3.580000	25.270524
3.590000	25.270524
3.600000	25.270524
3.610000	25.270524
3.620000	25.270524
3.630000	25.270524
3.640000	25.270524
3.650000	25.270524
3.660000	25.270524
3.670000	25.270524
3.680000	25.270524
3.690000	25.270524
3.700000	25.270524
3.710000	25.270524
3.720000	25.270524
3.730000	25.270524
3.740000	25.270524
3.750000	25.270524
3.760000	25.270524
3.770000	25.270524
3.780000	25.270524
3.790000	25.270524
3.800000	25.270524
3.810000	25.270524
3.820000	25.270524
3.830000	25.270524
3.840000	25.270524
3.850000	25.270524
3.860000	25.270524
3.870000	25.270524
3.880000	25.270524
3.890000	25.270524
3.900000	25.270524
3.910000	25.270524
3.920000	25.270524
3.930000	25.270524
3.940000	25.270524
3.950000	25.270524
3.960000	25.270524
3.970000	25.270524
3.980000	25.270524
3.990000	25.270524
4.000000	25.392655
4.010000	25.392655
4.020000	25.392655
4.030000	25.392655
4.040000	25.392655
4.050000	25.392655
4.060000	25.392655
4.070000	25.392655
4.080000	25.392655
4.090000	25.392655
4.100000	25.392655
4.110000	25.392655
4.120000	25.392655
4.130000	25.392655
4.140000	25.392655
4.150000	25.392655
4.160000	25.392655
4.170000	25.392655
4.180000	25.392655
4.190000	25.392655
4.200000	25.392655
4.210000	25.392655
4.220000	25.392655
4.230000	25.392655
4.240000	25.392655
4.250000	25.392655
4.260000	25.392655
4.270000	25.392655
4.280000	25.392655
4.290000	25.392655
4.300000	25.392655
4.310000	25.392655
4.320000	25.392655
4.330000	25.392655
4.340000	25.392655
4.350000	25.392655
4.360000	25.392655
4.370000	25.392655
4.380000	25.392655
4.390000	25.392655
4.400000	25.392655
4.410000	25.392655
4.420000	25.392655
4.430000	25.392655
4.440000	25.392655
4.450000	25.392655
4.460000	25.392655
4.470000	25.392655
4.480000	25.392655
4.490000	25.392655
4.500000	25.484521
4.510000	25.484521
4.520000	25.484521
4.530000	25.484521
4.540000	25.484521
4.550000	25.484521
4.560000	25.484521
4.570000	25.484521
4.580000	25.484521
4.590000	25.484521
4.600000	25.484521
4.610000	25.484521
4.620000	25.484521
4.630000	25.484521
4.640000	25.484521
4.650000	25.484521
4.660000	25.484521
4.670000	25.484521
4.680000	25.484521
4.690000	25.484521
4.700000	25.484521
4.710000	25.484521
4.720000	25.484521
4.730000	25.484521
4.740000	25.484521
4.750000	25.484521
4.760000	25.484521
4.770000	25.484521
4.780000	25.484521
4.790000	25.484521
4.800000	25.484521
4.810000	25.484521
4.820000	25.484521
4.830000	25.484521
4.840000	25.484521
4.850000	25.484521
4.860000	25.484521
4.870000	25.484521
4.880000	25.484521
4.890000	25.484521
4.900000	25.484521
4.910000	25.484521
4.920000	25.484521
4.930000	25.484521
4.940000	25.484521
4.950000	25.484521
4.960000	25.484521
4.970000	25.484521
4.980000	25.484521
4.990000	25.484521
5.000000	25.552561
5.010000	25.552561
5.020000	25.552561
5.030000	25.552561
5.040000	25.552561
5.050000	25.552561
5.060000	25.552561
5.070000	25.552561
5.080000	25.552561
5.090000	25.552561
5.100000	25.552561
5.110000	25.552561
5.120000	25.552561
5.130000	25.552561
5.140000	25.552561
5.150000	25.552561
5.160000	25.552561
5.170000	25.552561
5.180000	25.552561
5.190000	25.552561
5.200000	25.552561
5.210000	25.552561
5.220000	25.552561
5.230000	25.552561
5.240000	25.552561
5.250000	25.552561
5.260000	25.552561
5.270000	25.552561
5.280000	25.552561
5.290000	25.552561
5.300000	25.552561
5.310000	25.552561
5.320000	25.552561
5.330000	25.552561
5.340000	25.552561
5.350000	25.552561
5.360000	25.552561
5.370000	25.552561
5.380000	25.552561
5.390000	25.552561
5.400000	25.552561
5.410000	25.552561
5.420000	25.552561
5.430000	25.552561
5.440000	25.552561
5.450000	25.552561
5.460000	25.552561
5.470000	25.552561
5.480000	25.552561
5.490000	25.552561
5.500000	25.599721
5.510000	25.599721
5.520000	25.599721
5.530000	25.599721
5.540000	25.599721
5.550000	25.599721
5.560000	25.599721
5.570000	25.599721
5.580000	25.599721
5.590000	25.599721
5.600000	25.599721
5.610000	25.599721
5.620000	25.599721
5.630000	25.599721
5.640000	25.599721
5.650000	25.599721
5.660000	25.599721
5.670000	25.599721
5.680000	25.599721
5.690000	25.599721
5.700000	25.599721
5.710000	25.599721
5.720000	25.599721
5.730000	25.599721
5.740000	25.599721
5.750000	25.599721
5.760000	25.599721
5.770000	25.599721
5.780000	25.599721
5.790000	25.599721
5.800000	25.599721
5.810000	25.599721
5.820000	25.599721
5.830000	25.599721
5.840000	25.599721
5.850000	25.599721
5.860000	25.599721
5.870000	25.599721
5.880000	25.599721
5.890000	25.599721
5.900000	25.599721
5.910000	25.599721
5.920000	25.599721
5.930000	25.599721
5.940000	25.599721
5.950000	25.599721
5.960000	25.599721
5.970000	25.599721
5.980000	25.599721
5.990000	25.599721
6.000000	25.630999
6.010000	25.630999
6.020000	25.630999
6.030000	25.630999
6.040000	25.630999
6.050000	25.630999
6.060000	25.630999
6.070000	25.630999
6.080000	25.630999
6.090000	25.630999
6.100000	25.630999
6.110000	25.630999
6.120000	25.630999
6.130000	25.630999
6.140000	25.630999
6.150000	25.630999
6.160000	25.630999
6.170000	25.630999
6.180000	25.630999
6.190000	25.630999
6.200000	25.630999
6.210000	25.630999
6.220000	25.630999
6.230000	25.630999
6.240000	25.630999
6.250000	25.630999
6.260000	25.630999
6.270000	25.630999
6.280000	25.630999
6.290000	25.630999
6.300000	25.630999
6.310000	25.630999
6.320000	25.630999
6.330000	25.630999
6.340000	25.630999
6.350000	25.630999
6.360000	25.630999
6.370000	25.630999
6.380000	25.630999
6.390000	25.630999
6.400000	25.630999
6.410000	25.630999
6.420000	25.630999
6.430000	25.630999
6.440000	25.630999
6.450000	25.630999
6.460000	25.630999
6.470000	25.630999
6.480000	25.630999
6.490000	25.630999
6.500000	25.650138
6.510000	25.650138
6.520000	25.650138
6.530000	25.650138
6.540000	25.650138
6.550000	25.650138
6.560000	25.650138
6.570000	25.650138
6.580000	25.650138
6.590000	25.650138
6.600000	25.650138
6.610000	25.650138
6.620000	25.650138
6.630000	25.650138
6.640000	25.650138
6.650000	25.650138
6.660000	25.650138
6.670000	25.650138
6.680000	25.650138
6.690000	25.650138
6.700000	25.650138
6.710000	25.650138
6.720000	25.650138
6.730000	25.650138
6.740000	25.650138
6.750000	25.650138
6.760000	25.650138
6.770000	25.650138
6.780000	25.650138
6.790000	25.650138
6.800000	25.650138
6.810000	25.650138
6.820000	25.650138
6.830000	25.650138
6.840000	25.650138
6.850000	25.650138
6.860000	25.650138
6.870000	25.650138
6.880000	25.650138
6.890000	25.650138
6.900000	25.650138
6.910000	25.650138
6.920000	25.650138
6.930000	25.650138
6.940000	25.650138
6.950000	25.650138
6.960000	25.650138
6.970000	25.650138
6.980000	25.650138
6.990000	25.650138
7.000000	25.660547
7.010000	25.660547
7.020000	25.660547
7.030000	25.660547
7.040000	25.660547
7.050000	25.660547
7.060000	25.660547
7.070000	25.660547
7.080000	25.660547
7.090000	25.660547
7.100000	25.660547
7.110000	25.660547
7.120000	25.660547
7.130000	25.660547
7.140000	25.660547
7.150000	25.660547
7.160000	25.660547
7.170000	25.660547
7.180000	25.660547
7.190000	25.660547
7.200000	25.660547
7.210000	25.660547
7.220000	25.660547
7.230000	25.660547
7.240000	25.660547
7.250000	25.660547
7.260000	25.660547
7.270000	25.660547
7.280000	25.660547
7.290000	25.660547
7.300000	25.660547
7.310000	25.660547
7.320000	25.660547
7.330000	25.660547
7.340000	25.660547
7.350000	25.660547
7.360000	25.660547
7.370000	25.660547
7.380000	25.660547
7.390000	25.660547
7.400000	25.660547
7.410000	25.660547
7.420000	25.660547
7.430000	25.660547
7.440000	25.660547
7.450000	25.660547
7.460000	25.660547
7.470000	25.660547
7.480000	25.660547
7.490000	25.660547
7.500000	25.664053
7.510000	25.664053
7.520000	25.664053
7.530000	25.664053
7.540000	25.664053
7.550000	25.664053
7.560000	25.664053
7.570000	25.664053
7.580000	25.664053
7.590000	25.664053
7.600000	25.664053
7.610000	25.664053
7.620000	25.664053
7.630000	25.664053
7.640000	25.664053
7.650000	25.664053
7.660000	25.664053
7.670000	25.664053
7.680000	25.664053
7.690000	25.664053
7.700000	25.664053
7.710000	25.664053
7.720000	25.664053
7.730000	25.664053
7.740000	25.664053
7.750000	25.664053
7.760000	25.664053
7.770000	25.664053
7.780000	25.664053
7.790000	25.664053
7.800000	25.664053
7.810000	25.664053
7.820000	25.664053
7.830000	25.664053
7.840000	25.664053
7.850000	25.664053
7.860000	25.664053
7.870000	25.664053
7.880000	25.664053
7.890000	25.664053
7.900000	25.664053
7.910000	25.664053
7.920000	25.664053
7.930000	25.664053
7.940000	25.664053
7.950000	25.664053
7.960000	25.664053
7.970000	25.664053
7.980000	25.664053
7.990000	25.664053
8.000000	25.662377
8.010000	25.662377
8.020000	25.662377
8.030000	25.662377
8.040000	25.662377
8.050000	25.662377
8.060000	25.662377
8.070000	25.662377
8.080000	25.662377
8.090000	25.662377
8.100000	25.662377
8.110000	25.662377
8.120000	25.662377
8.130000	25.662377
8.140000	25.662377
8.150000	25.662377
8.160000	25.662377
8.170000	25.662377
8.180000	25.662377
8.190000	25.662377
8.200000	25.662377
8.210000	25.662377
8.220000	25.662377
8.230000	25.662377
8.240000	25.662377
8.250000	25.662377
8.260000	25.662377
8.270000	25.662377
8.280000	25.662377
8.290000	25.662377
8.300000	25.662377
8.310000	25.662377
8.320000	25.662377
8.330000	25.662377
8.340000	25.662377
8.350000	25.662377
8.360000	25.662377
8.370000	25.662377
8.380000	25.662377
8.390000	25.662377
8.400000	25.662377
8.410000	25.662377
8.420000	25.662377
8.430000	25.662377
8.440000	25.662377
8.450000	25.662377
8.460000	25.662377
8.470000	25.662377
8.480000	25.662377
8.490000	25.662377
8.500000	25.656522
8.510000	25.656522
8.520000	25.656522
8.530000	25.656522
8.540000	25.656522
8.550000	25.656522
8.560000	25.656522
8.570000	25.656522
8.580000	25.656522
8.590000	25.656522
8.600000	25.656522
8.610000	25.656522
8.620000	25.656522
8.630000	25.656522
8.640000	25.656522
8.650000	25.656522
8.660000	25.656522
8.670000	25.656522
8.680000	25.656522
8.690000	25.656522
8.700000	25.656522
8.710000	25.656522
8.720000	25.656522
8.730000	25.656522
8.740000	25.656522
8.750000	25.656522
8.760000	25.656522
8.770000	25.656522
8.780000	25.656522
8.790000	25.656522
8.800000	25.656522
8.810000	25.656522
8.820000	25.656522
8.830000	25.656522
8.840000	25.656522
8.850000	25.656522
8.860000	25.656522
8.870000	25.656522
8.880000	25.656522
8.890000	25.656522
8.900000	25.656522
8.910000	25.656522
8.920000	25.656522
8.930000	25.656522
8.940000	25.656522
8.950000	25.656522
8.960000	25.656522
8.970000	25.656522
8.980000	25.656522
8.990000	25.656522
9.000000	25.647652
9.010000	25.647652
9.020000	25.647652
9.030000	25.647652
9.040000	25.647652
9.050000	25.647652
9.060000	25.647652
9.070000	25.647652
9.080000	25.647652
9.090000	25.647652
9.100000	25.647652
9.110000	25.647652
9.120000	25.647652
9.130000	25.647652
9.140000	25.647652
9.150000	25.647652
9.160000	25.647652
9.170000	25.647652
9.180000	25.647652
9.190000	25.647652
9.200000	25.647652
9.210000	25.647652
9.220000	25.647652
9.230000	25.647652
9.240000	25.647652
9.250000	25.647652
9.260000	25.647652
9.270000	25.647652
9.280000	25.647652
9.290000	25.647652
9.300000	25.647652
9.310000	25.647652
9.320000	25.647652
9.330000	25.647652
9.340000	25.647652
9.350000	25.647652
9.360000	25.647652
9.370000	25.647652
9.380000	25.647652
9.390000	25.647652
9.400000	25.647652
9.410000	25.647652
9.420000	25.647652
9.430000	25.647652
9.440000	25.647652
9.450000	25.647652
9.460000	25.647652
9.470000	25.647652
9.480000	25.647652
9.490000	25.647652
9.500000	25.636040
9.510000	25.636040
9.520000	25.636040
9.530000	25.636040
9.540000	25.636040
9.550000	25.636040
9.560000	25.636040
9.570000	25.636040
9.580000	25.636040
9.590000	25.636040
9.600000	25.636040
9.610000	25.636040
9.620000	25.636040
9.630000	25.636040
9.640000	25.636040
9.650000	25.636040
9.660000	25.636040
9.670000	25.636040
9.680000	25.636040
9.690000	25.636040
9.700000	25.636040
9.710000	25.636040
9.720000	25.636040
9.730000	25.636040
9.740000	25.636040
9.750000	25.636040
9.760000	25.636040
9.770000	25.636040
9.780000	25.636040
9.790000	25.636040
9.800000	25.636040
9.810000	25.636040
9.820000	25.636040
9.830000	25.636040
9.840000	25.636040
9.850000	25.636040
9.860000	25.636040
9.870000	25.636040
9.880000	25.636040
9.890000	25.636040
9.900000	25.636040
9.910000	25.636040
9.920000	25.636040
9.930000	25.636040
9.940000	25.636040
9.950000	25.636040
9.960000	25.636040
9.970000	25.636040
9.980000	25.636040
9.990000	25.636040
10.000000	25.622900
10.010000	25.622900
10.020000	25.622900
10.030000	25.622900
10.040000	25.622900
10.050000	25.622900
10.060000	25.622900
10.070000	25.622900
10.080000	25.622900
10.090000	25.622900
10.100000	25.622900
10.110000	25.622900
10.120000	25.622900
10.130000	25.622900
10.140000	25.622900
10.150000	25.622900
10.160000	25.622900
10.170000	25.622900
10.180000	25.622900
10.190000	25.622900
10.200000	25.622900
10.210000	25.622900
10.220000	25.622900
10.230000	25.622900
10.240000	25.622900
10.250000	25.622900
10.260000	25.622900
10.270000	25.622900
10.280000	25.622900
10.290000	25.622900
10.300000	25.622900
10.310000	25.622900
10.320000	25.622900
10.330000	25.622900
10.340000	25.622900
10.350000	25.622900
10.360000	25.622900
10.370000	25.622900
10.380000	25.622900
10.390000	25.622900
10.400000	25.622900
10.410000	25.622900
10.420000	25.622900
10.430000	25.622900
10.440000	25.622900
10.450000	25.622900
10.460000	25.622900
10.470000	25.622900
10.480000	25.622900
10.490000	25.622900
10.500000	25.607133
10.510000	25.607133
10.520000	25.607133
10.530000	25.607133
10.540000	25.607133
10.550000	25.607133
10.560000	25.607133
10.570000	25.607133
10.580000	25.607133
10.590000	25.607133
10.600000	25.607133
10.610000	25.607133
10.620000	25.607133
10.630000	25.607133
10.640000	25.607133
10.650000	25.607133
10.660000	25.607133
10.670000	25.607133
10.680000	25.607133
10.690000	25.607133
10.700000	25.607133
10.710000	25.607133
10.720000	25.607133
10.730000	25.607133
10.740000	25.607133
10.750000	25.607133
10.760000	25.607133
10.770000	25.607133
10.780000	25.607133
10.790000	25.607133
10.800000	25.607133
10.810000	25.607133
10.820000	25.607133
10.830000	25.607133
10.840000	25.607133
10.850000	25.607133
10.860000	25.607133
10.870000	25.607133
10.880000	25.607133
10.890000	25.607133
10.900000	25.607133
10.910000	25.607133
10.920000	25.607133
10.930000	25.607133
10.940000	25.607133
10.950000	25.607133
10.960000	25.607133
10.970000	25.607133
10.980000	25.607133
10.990000	25.607133
11.000000	25.591063
11.010000	25.591063
11.020000	25.591063
11.030000	25.591063
11.040000	25.591063
11.050000	25.591063
11.060000	25.591063
11.070000	25.591063
11.080000	25.591063
11.090000	25.591063
11.100000	25.591063
11.110000	25.591063
11.120000	25.591063
11.130000	25.591063
11.140000	25.591063
11.150000	25.591063
11.160000	25.591063
11.170000	25.591063
11.180000	25.591063
11.190000	25.591063
11.200000	25.591063
11.210000	25.591063
11.220000	25.591063
11.230000	25.591063
11.240000	25.591063
11.250000	25.591063
11.260000	25.591063
11.270000	25.591063
11.280000	25.591063
11.290000	25.591063
11.300000	25.591063
11.310000	25.591063
11.320000	25.591063
11.330000	25.591063
11.340000	25.591063
11.350000	25.591063
11.360000	25.591063
11.370000	25.591063
11.380000	25.591063
11.390000	25.591063
11.400000	25.591063
11.410000	25.591063
11.420000	25.591063
11.430000	25.591063
11.440000	25.591063
11.450000	25.591063
11.460000	25.591063
11.470000	25.591063
11.480000	25.591063
11.490000	25.591063
11.500000	25.574586
11.510000	25.574586
11.520000	25.574586
11.530000	25.574586
11.540000	25.574586
11.550000	25.574586
11.560000	25.574586
11.570000	25.574586
11.580000	25.574586
11.590000	25.574586
11.600000	25.574586
11.610000	25.574586
11.620000	25.574586
11.630000	25.574586
11.640000	25.574586
11.650000	25.574586
11.660000	25.574586
11.670000	25.574586
11.680000	25.574586
11.690000	25.574586
11.700000	25.574586
11.710000	25.574586
11.720000	25.574586
11.730000	25.574586
11.740000	25.574586
11.750000	25.574586
11.760000	25.574586
11.770000	25.574586
11.780000	25.574586
11.790000	25.574586
11.800000	25.574586
11.810000	25.574586
11.820000	25.574586
11.830000	25.574586
11.840000	25.574586
11.850000	25.574586
11.860000	25.574586
11.870000	25.574586
11.880000	25.574586
11.890000	25.574586
11.900000	25.574586
11.910000	25.574586
11.920000	25.574586
11.930000	25.574586
11.940000	25.574586
11.950000	25.574586
11.960000	25.574586
11.970000	25.574586
11.980000	25.574586
11.990000	25.574586
12.000000	25.557874
12.010000	25.557874
12.020000	25.557874
12.030000	25.557874
12.040000	25.557874
12.050000	25.557874
12.060000	25.557874
12.070000	25.557874
12.080000	25.557874
12.090000	25.557874
12.100000	25.557874
12.110000	25.557874
12.120000	25.557874
12.130000	25.557874
12.140000	25.557874
12.150000	25.557874
12.160000	25.557874
12.170000	25.557874
12.180000	25.557874
12.190000	25.557874
12.200000	25.557874
12.210000	25.557874
12.220000	25.557874
12.230000	25.557874
12.240000	25.557874
12.250000	25.557874
12.260000	25.557874
12.270000	25.557874
12.280000	25.557874
12.290000	25.557874
12.300000	25.557874
12.310000	25.557874
12.320000	25.557874
12.330000	25.557874
12.340000	25.557874
12.350000	25.557874
12.360000	25.557874
12.370000	25.557874
12.380000	25.557874
12.390000	25.557874
12.400000	25.557874
12.410000	25.557874
12.420000	25.557874
12.430000	25.557874
12.440000	25.557874
12.450000	25.557874
12.460000	25.557874
12.470000	25.557874
12.480000	25.557874
12.490000	25.557874
12.500000	25.541284
12.510000	25.541284
12.520000	25.541284
12.530000	25.541284
12.540000	25.541284
12.550000	25.541284
12.560000	25.541284
12.570000	25.541284
12.580000	25.541284
12.590000	25.541284
12.600000	25.541284
12.610000	25.541284
12.620000	25.541284
12.630000	25.541284
12.640000	25.541284
12.650000	25.541284
12.660000	25.541284
12.670000	25.541284
12.680000	25.541284
12.690000	25.541284
12.700000	25.541284
12.710000	25.541284
12.720000	25.541284
12.730000	25.541284
12.740000	25.541284
12.750000	25.541284
12.760000	25.541284
12.770000	25.541284
12.780000	25.541284
12.790000	25.541284
12.800000	25.541284
12.810000	25.541284
12.820000	25.541284
12.830000	25.541284
12.840000	25.541284
12.850000	25.541284
12.860000	25.541284
12.870000	25.541284
12.880000	25.541284
12.890000	25.541284
12.900000	25.541284
12.910000	25.541284
12.920000	25.541284
12.930000	25.541284
12.940000	25.541284
12.950000	25.541284
12.960000	25.541284
12.970000	25.541284
12.980000	25.541284
12.990000	25.541284
13.000000	25.523929
13.010000	25.523929
13.020000	25.523929
13.030000	25.523929
13.040000	25.523929
13.050000	25.523929
13.060000	25.523929
13.070000	25.523929
13.080000	25.523929
13.090000	25.523929
13.100000	25.523929
13.110000	25.523929
13.120000	25.523929
13.130000	25.523929
13.140000	25.523929
13.150000	25.523929
13.160000	25.523929
13.170000	25.523929
13.180000	25.523929
13.190000	25.523929
13.200000	25.523929
13.210000	25.523929
13.220000	25.523929
13.230000	25.523929
13.240000	25.523929
13.250000	25.523929
13.260000	25.523929
13.270000	25.523929
13.280000	25.523929
13.290000	25.523929
13.300000	25.523929
13.310000	25.523929
13.320000	25.523929
13.330000	25.523929
13.340000	25.523929
13.350000	25.523929
13.360000	25.523929
13.370000	25.523929
13.380000	25.523929
13.390000	25.523929
13.400000	25.523929
13.410000	25.523929
13.420000	25.523929
13.430000	25.523929
13.440000	25.523929
13.450000	25.523929
13.460000	25.523929
13.470000	25.523929
13.480000	25.523929
13.490000	25.523929
13.500000	25.506816
13.510000	25.506816
13.520000	25.506816
13.530000	25.506816
13.540000	25.506816
13.550000	25.506816
13.560000	25.506816
13.570000	25.506816
13.580000	25.506816
13.590000	25.506816
13.600000	25.506816
13.610000	25.506816
13.620000	25.506816
13.630000	25.506816
13.640000	25.506816
13.650000	25.506816
13.660000	25.506816
13.670000	25.506816
13.680000	25.506816
13.690000	25.506816
13.700000	25.506816
13.710000	25.506816
13.720000	25.506816
13.730000	25.506816
13.740000	25.506816
13.750000	25.506816
13.760000	25.506816
13.770000	25.506816
13.780000	25.506816
13.790000	25.506816
13.800000	25.506816
13.810000	25.506816
13.820000	25.506816
13.830000	25.506816
13.840000	25.506816
13.850000	25.506816
13.860000	25.506816
13.870000	25.506816
13.880000	25.506816
13.890000	25.506816
13.900000	25.506816
13.910000	25.506816
13.920000	25.506816
13.930000	25.506816
13.940000	25.506816
13.950000	25.506816
13.960000	25.506816
13.970000	25.506816
13.980000	25.506816
13.990000	25.506816
14.000000	25.489747
14.010000	25.489747
14.020000	25.489747
14.030000	25.489747
14.040000	25.489747
14.050000	25.489747
14.060000	25.489747
14.070000	25.489747
14.080000	25.489747
14.090000	25.489747
14.100000	25.489747
14.110000	25.489747
14.120000	25.489747
14.130000	25.489747
14.140000	25.489747
14.150000	25.489747
14.160000	25.489747
14.170000	25.489747
14.180000	25.489747
14.190000	25.489747
14.200000	25.489747
14.210000	25.489747
14.220000	25.489747
14.230000	25.489747
14.240000	25.489747
14.250000	25.489747
14.260000	25.489747
14.270000	25.489747
14.280000	25.489747
14.290000	25.489747
14.300000	25.489747
14.310000	25.489747
14.320000	25.489747
14.330000	25.489747
14.340000	25.489747
14.350000	25.489747
14.360000	25.489747
14.370000	25.489747
14.380000	25.489747
14.390000	25.489747
14.400000	25.489747
14.410000	25.489747
14.420000	25.489747
14.430000	25.489747
14.440000	25.489747
14.450000	25.489747
14.460000	25.489747
14.470000	25.489747
14.480000	25.489747
14.490000	25.489747
14.500000	25.473134
14.510000	25.473134
14.520000	25.473134
14.530000	25.473134
14.540000	25.473134
14.550000	25.473134
14.560000	25.473134
14.570000	25.473134
14.580000	25.473134
14.590000	25.473134
14.600000	25.473134
14.610000	25.473134
14.620000	25.473134
14.630000	25.473134
14.640000	25.473134
14.650000	25.473134
14.660000	25.473134
14.670000	25.473134
14.680000	25.473134
14.690000	25.473134
14.700000	25.473134
14.710000	25.473134
14.720000	25.473134
14.730000	25.473134
14.740000	25.473134
14.750000	25.473134
14.760000	25.473134
14.770000	25.473134
14.780000	25.473134
14.790000	25.473134
14.800000	25.473134
14.810000	25.473134
14.820000	25.473134
14.830000	25.473134
14.840000	25.473134
14.850000	25.473134
14.860000	25.473134
14.870000	25.473134
14.880000	25.473134
14.890000	25.473134
14.900000	25.473134
14.910000	25.473134
14.920000	25.473134
14.930000	25.473134
14.940000	25.473134
14.950000	25.473134
14.960000	25.473134
14.970000	25.473134
14.980000	25.473134
14.990000	25.473134
15.000000	25.456866
15.010000	25.456866
15.020000	25.456866
15.030000	25.456866
15.040000	25.456866
15.050000	25.456866
15.060000	25.456866
15.070000	25.456866
15.080000	25.456866
15.090000	25.456866
15.100000	25.456866
15.110000	25.456866
15.120000	25.456866
15.130000	25.456866
15.140000	25.456866
15.150000	25.456866
15.160000	25.456866
15.170000	25.456866
15.180000	25.456866
15.190000	25.456866
15.200000	25.456866
15.210000	25.456866
15.220000	25.456866
15.230000	25.456866
15.240000	25.456866
15.250000	25.456866
15.260000	25.456866
15.270000	25.456866
15.280000	25.456866
15.290000	25.456866
15.300000	25.456866
15.310000	25.456866
15.320000	25.456866
15.330000	25.456866
15.340000	25.456866
15.350000	25.456866
15.360000	25.456866
15.370000	25.456866
15.380000	25.456866
15.390000	25.456866
15.400000	25.456866
15.410000	25.456866
15.420000	25.456866
15.430000	25.456866
15.440000	25.456866
15.450000	25.456866
15.460000	25.456866
15.470000	25.456866
15.480000	25.456866
15.490000	25.456866
15.500000	25.440712
15.510000	25.440712
15.520000	25.440712
15.530000	25.440712
15.540000	25.440712
15.550000	25.440712
15.560000	25.440712
15.570000	25.440712
15.580000	25.440712
15.590000	25.440712
15.600000	25.440712
15.610000	25.440712
15.620000	25.440712
15.630000	25.440712
15.640000	25.440712
15.650000	25.440712
15.660000	25.440712
15.670000	25.440712
15.680000	25.440712
15.690000	25.440712
15.700000	25.440712
15.710000	25.440712
15.720000	25.440712
15.730000	25.440712
15.740000	25.440712
15.750000	25.440712
15.760000	25.440712
15.770000	25.440712
15.780000	25.440712
15.790000	25.440712
15.800000	25.440712
15.810000	25.440712
15.820000	25.440712
15.830000	25.440712
15.840000	25.440712
15.850000	25.440712
15.860000	25.440712
15.870000	25.440712
15.880000	25.440712
15.890000	25.440712
15.900000	25.440712
15.910000	25.440712
15.920000	25.440712
15.930000	25.440712
15.940000	25.440712
15.950000	25.440712
15.960000	25.440712
15.970000	25.440712
15.980000	25.440712
15.990000	25.440712
16.000000	25.424228
16.010000	25.424228
16.020000	25.424228
16.030000	25.424228
16.040000	25.424228
16.050000	25.424228
16.060000	25.424228
16.070000	25.424228
16.080000	25.424228
16.090000	25.424228
16.100000	25.424228
16.110000	25.424228
16.120000	25.424228
16.130000	25.424228
16.140000	25.424228
16.150000	25.424228
16.160000	25.424228
16.170000	25.424228
16.180000	25.424228
16.190000	25.424228
16.200000	25.424228
16.210000	25.424228
16.220000	25.424228
16.230000	25.424228
16.240000	25.424228
16.250000	25.424228
16.260000	25.424228
16.270000	25.424228
16.280000	25.424228
16.290000	25.424228
16.300000	25.424228
16.310000	25.424228
16.320000	25.424228
16.330000	25.424228
16.340000	25.424228
16.350000	25.424228
16.360000	25.424228
16.370000	25.424228
16.380000	25.424228
16.390000	25.424228
16.400000	25.424228
16.410000	25.424228
16.420000	25.424228
16.430000	25.424228
16.440000	25.424228
16.450000	25.424228
16.460000	25.424228
16.470000	25.424228
16.480000	25.424228
16.490000	25.424228
16.500000	25.407807
16.510000	25.407807
16.520000	25.407807
16.530000	25.407807
16.540000	25.407807
16.550000	25.407807
16.560000	25.407807
16.570000	25.407807
16.580000	25.407807
16.590000	25.407807
16.600000	25.407807
16.610000	25.407807
16.620000	25.407807
16.630000	25.407807
16.640000	25.407807
16.650000	25.407807
16.660000	25.407807
16.670000	25.407807
16.680000	25.407807
16.690000	25.407807
16.700000	25.407807
16.710000	25.407807
16.720000	25.407807
16.730000	25.407807
16.740000	25.407807
16.750000	25.407807
16.760000	25.407807
16.770000	25.407807
16.780000	25.407807
16.790000	25.407807
16.800000	25.407807
16.810000	25.407807
16.820000	25.407807
16.830000	25.407807
16.840000	25.407807
16.850000	25.407807
16.860000	25.407807
16.870000	25.407807
16.880000	25.407807
16.890000	25.407807
16.900000	25.407807
16.910000	25.407807
16.920000	25.407807
16.930000	25.407807
16.940000	25.407807
16.950000	25.407807
16.960000	25.407807
16.970000	25.407807
16.980000	25.407807
16.990000	25.407807
17.000000	25.392218
17.010000	25.392218
17.020000	25.392218
17.030000	25.392218
17.040000	25.392218
17.050000	25.392218
17.060000	25.392218
17.070000	25.392218
17.080000	25.392218
17.090000	25.392218
17.100000	25.392218
17.110000	25.392218
17.120000	25.392218
17.130000	25.392218
17.140000	25.392218
17.150000	25.392218
17.160000	25.392218
17.170000	25.392218
17.180000	25.392218
17.190000	25.392218
17.200000	25.392218
17.210000	25.392218
17.220000	25.392218
17.230000	25.392218
17.240000	25.392218
17.250000	25.392218
17.260000	25.392218
17.270000	25.392218
17.280000	25.392218
17.290000	25.392218
17.300000	25.392218
17.310000	25.392218
17.320000	25.392218
17.330000	25.392218
17.340000	25.392218
17.350000	25.392218
17.360000	25.392218
17.370000	25.392218
17.380000	25.392218
17.390000	25.392218
17.400000	25.392218
17.410000	25.392218
17.420000	25.392218
17.430000	25.392218
17.440000	25.392218
17.450000	25.392218
17.460000	25.392218
17.470000	25.392218
17.480000	25.392218
17.490000	25.392218
17.500000	25.376676
17.510000	25.376676
17.520000	25.376676
17.530000	25.376676
17.540000	25.376676
17.550000	25.376676
17.560000	25.376676
17.570000	25.376676
17.580000	25.376676
17.590000	25.376676
17.600000	25.376676
17.610000	25.376676
17.620000	25.376676
17.630000	25.376676
17.640000	25.376676
17.650000	25.376676
17.660000	25.376676
17.670000	25.376676
17.680000	25.376676
17.690000	25.376676
17.700000	25.376676
17.710000	25.376676
17.720000	25.376676
17.730000	25.376676
17.740000	25.376676
17.750000	25.376676
17.760000	25.376676
17.770000	25.376676
17.780000	25.376676
17.790000	25.376676
17.800000	25.376676
17.810000	25.376676
17.820000	25.376676
17.830000	25.376676
17.840000	25.376676
17.850000	25.376676
17.860000	25.376676
17.870000	25.376676
17.880000	25.376676
17.890000	25.376676
17.900000	25.376676
17.910000	25.376676
17.920000	25.376676
17.930000	25.376676
17.940000	25.376676
17.950000	25.376676
17.960000	25.376676
17.970000	25.376676
17.980000	25.376676
17.990000	25.376676
