LabVIEW Measurement	
Writer_Version	2
Reader_Version	2
Separator	Tab
Decimal_Separator	.
Multi_Headings	No
X_Columns	One
Time_Pref	Absolute
Operator	biomech-dyno
Date	2023/05/23
Time	16:26:31.1792034999998606061
***End_of_Header***	
	
Channels	1	
Samples	10	
Date	2023/05/23	
Time	18:37:50.7817204999995486264	
X_Dimension	Time	
X0	0.0000000000000000E+0	
Delta_X	0.010000	
***End_of_Header***		
X_Value	Untitled	Comment
0.000000	24.786133
0.010000	24.786133
0.020000	24.786133
0.030000	24.786133
0.040000	24.786133
0.050000	24.786133
0.060000	24.786133
0.070000	24.786133
0.080000	24.786133
0.090000	24.786133
0.100000	24.786133
0.110000	24.786133
0.120000	24.786133
0.130000	24.786133
0.140000	24.786133
0.150000	24.786133
0.160000	24.786133
0.170000	24.786133
0.180000	24.786133
0.190000	24.786133
0.200000	24.786133
0.210000	24.786133
0.220000	24.786133
0.230000	24.786133
0.240000	24.786133
0.250000	24.786133
0.260000	24.786133
0.270000	24.786133
0.280000	24.786133
0.290000	24.786133
0.300000	24.786133
0.310000	24.786133
0.320000	24.786133
0.330000	24.786133
0.340000	24.786133
0.350000	24.786133
0.360000	24.786133
0.370000	24.786133
0.380000	24.786133
0.390000	24.786133
0.400000	24.786133
0.410000	24.786133
0.420000	24.786133
0.430000	24.786133
0.440000	24.786133
0.450000	24.786133
0.460000	24.786133
0.470000	24.786133
0.480000	24.786133
0.490000	24.786133
0.500000	24.796824
0.510000	24.796824
0.520000	24.796824
0.530000	24.796824
0.540000	24.796824
0.550000	24.796824
0.560000	24.796824
0.570000	24.796824
0.580000	24.796824
0.590000	24.796824
0.600000	24.796824
0.610000	24.796824
0.620000	24.796824
0.630000	24.796824
0.640000	24.796824
0.650000	24.796824
0.660000	24.796824
0.670000	24.796824
0.680000	24.796824
0.690000	24.796824
0.700000	24.796824
0.710000	24.796824
0.720000	24.796824
0.730000	24.796824
0.740000	24.796824
0.750000	24.796824
0.760000	24.796824
0.770000	24.796824
0.780000	24.796824
0.790000	24.796824
0.800000	24.796824
0.810000	24.796824
0.820000	24.796824
0.830000	24.796824
0.840000	24.796824
0.850000	24.796824
0.860000	24.796824
0.870000	24.796824
0.880000	24.796824
0.890000	24.796824
0.900000	24.796824
0.910000	24.796824
0.920000	24.796824
0.930000	24.796824
0.940000	24.796824
0.950000	24.796824
0.960000	24.796824
0.970000	24.796824
0.980000	24.796824
0.990000	24.796824
1.000000	24.863716
1.010000	24.863716
1.020000	24.863716
1.030000	24.863716
1.040000	24.863716
1.050000	24.863716
1.060000	24.863716
1.070000	24.863716
1.080000	24.863716
1.090000	24.863716
1.100000	24.863716
1.110000	24.863716
1.120000	24.863716
1.130000	24.863716
1.140000	24.863716
1.150000	24.863716
1.160000	24.863716
1.170000	24.863716
1.180000	24.863716
1.190000	24.863716
1.200000	24.863716
1.210000	24.863716
1.220000	24.863716
1.230000	24.863716
1.240000	24.863716
1.250000	24.863716
1.260000	24.863716
1.270000	24.863716
1.280000	24.863716
1.290000	24.863716
1.300000	24.863716
1.310000	24.863716
1.320000	24.863716
1.330000	24.863716
1.340000	24.863716
1.350000	24.863716
1.360000	24.863716
1.370000	24.863716
1.380000	24.863716
1.390000	24.863716
1.400000	24.863716
1.410000	24.863716
1.420000	24.863716
1.430000	24.863716
1.440000	24.863716
1.450000	24.863716
1.460000	24.863716
1.470000	24.863716
1.480000	24.863716
1.490000	24.863716
1.500000	25.014808
1.510000	25.014808
1.520000	25.014808
1.530000	25.014808
1.540000	25.014808
1.550000	25.014808
1.560000	25.014808
1.570000	25.014808
1.580000	25.014808
1.590000	25.014808
1.600000	25.014808
1.610000	25.014808
1.620000	25.014808
1.630000	25.014808
1.640000	25.014808
1.650000	25.014808
1.660000	25.014808
1.670000	25.014808
1.680000	25.014808
1.690000	25.014808
1.700000	25.014808
1.710000	25.014808
1.720000	25.014808
1.730000	25.014808
1.740000	25.014808
1.750000	25.014808
1.760000	25.014808
1.770000	25.014808
1.780000	25.014808
1.790000	25.014808
1.800000	25.014808
1.810000	25.014808
1.820000	25.014808
1.830000	25.014808
1.840000	25.014808
1.850000	25.014808
1.860000	25.014808
1.870000	25.014808
1.880000	25.014808
1.890000	25.014808
1.900000	25.014808
1.910000	25.014808
1.920000	25.014808
1.930000	25.014808
1.940000	25.014808
1.950000	25.014808
1.960000	25.014808
1.970000	25.014808
1.980000	25.014808
1.990000	25.014808
2.000000	25.235701
2.010000	25.235701
2.020000	25.235701
2.030000	25.235701
2.040000	25.235701
2.050000	25.235701
2.060000	25.235701
2.070000	25.235701
2.080000	25.235701
2.090000	25.235701
2.100000	25.235701
2.110000	25.235701
2.120000	25.235701
2.130000	25.235701
2.140000	25.235701
2.150000	25.235701
2.160000	25.235701
2.170000	25.235701
2.180000	25.235701
2.190000	25.235701
2.200000	25.235701
2.210000	25.235701
2.220000	25.235701
2.230000	25.235701
2.240000	25.235701
2.250000	25.235701
2.260000	25.235701
2.270000	25.235701
2.280000	25.235701
2.290000	25.235701
2.300000	25.235701
2.310000	25.235701
2.320000	25.235701
2.330000	25.235701
2.340000	25.235701
2.350000	25.235701
2.360000	25.235701
2.370000	25.235701
2.380000	25.235701
2.390000	25.235701
2.400000	25.235701
2.410000	25.235701
2.420000	25.235701
2.430000	25.235701
2.440000	25.235701
2.450000	25.235701
2.460000	25.235701
2.470000	25.235701
2.480000	25.235701
2.490000	25.235701
2.500000	25.506355
2.510000	25.506355
2.520000	25.506355
2.530000	25.506355
2.540000	25.506355
2.550000	25.506355
2.560000	25.506355
2.570000	25.506355
2.580000	25.506355
2.590000	25.506355
2.600000	25.506355
2.610000	25.506355
2.620000	25.506355
2.630000	25.506355
2.640000	25.506355
2.650000	25.506355
2.660000	25.506355
2.670000	25.506355
2.680000	25.506355
2.690000	25.506355
2.700000	25.506355
2.710000	25.506355
2.720000	25.506355
2.730000	25.506355
2.740000	25.506355
2.750000	25.506355
2.760000	25.506355
2.770000	25.506355
2.780000	25.506355
2.790000	25.506355
2.800000	25.506355
2.810000	25.506355
2.820000	25.506355
2.830000	25.506355
2.840000	25.506355
2.850000	25.506355
2.860000	25.506355
2.870000	25.506355
2.880000	25.506355
2.890000	25.506355
2.900000	25.506355
2.910000	25.506355
2.920000	25.506355
2.930000	25.506355
2.940000	25.506355
2.950000	25.506355
2.960000	25.506355
2.970000	25.506355
2.980000	25.506355
2.990000	25.506355
3.000000	25.813123
3.010000	25.813123
3.020000	25.813123
3.030000	25.813123
3.040000	25.813123
3.050000	25.813123
3.060000	25.813123
3.070000	25.813123
3.080000	25.813123
3.090000	25.813123
3.100000	25.813123
3.110000	25.813123
3.120000	25.813123
3.130000	25.813123
3.140000	25.813123
3.150000	25.813123
3.160000	25.813123
3.170000	25.813123
3.180000	25.813123
3.190000	25.813123
3.200000	25.813123
3.210000	25.813123
3.220000	25.813123
3.230000	25.813123
3.240000	25.813123
3.250000	25.813123
3.260000	25.813123
3.270000	25.813123
3.280000	25.813123
3.290000	25.813123
3.300000	25.813123
3.310000	25.813123
3.320000	25.813123
3.330000	25.813123
3.340000	25.813123
3.350000	25.813123
3.360000	25.813123
3.370000	25.813123
3.380000	25.813123
3.390000	25.813123
3.400000	25.813123
3.410000	25.813123
3.420000	25.813123
3.430000	25.813123
3.440000	25.813123
3.450000	25.813123
3.460000	25.813123
3.470000	25.813123
3.480000	25.813123
3.490000	25.813123
3.500000	26.131648
3.510000	26.131648
3.520000	26.131648
3.530000	26.131648
3.540000	26.131648
3.550000	26.131648
3.560000	26.131648
3.570000	26.131648
3.580000	26.131648
3.590000	26.131648
3.600000	26.131648
3.610000	26.131648
3.620000	26.131648
3.630000	26.131648
3.640000	26.131648
3.650000	26.131648
3.660000	26.131648
3.670000	26.131648
3.680000	26.131648
3.690000	26.131648
3.700000	26.131648
3.710000	26.131648
3.720000	26.131648
3.730000	26.131648
3.740000	26.131648
3.750000	26.131648
3.760000	26.131648
3.770000	26.131648
3.780000	26.131648
3.790000	26.131648
3.800000	26.131648
3.810000	26.131648
3.820000	26.131648
3.830000	26.131648
3.840000	26.131648
3.850000	26.131648
3.860000	26.131648
3.870000	26.131648
3.880000	26.131648
3.890000	26.131648
3.900000	26.131648
3.910000	26.131648
3.920000	26.131648
3.930000	26.131648
3.940000	26.131648
3.950000	26.131648
3.960000	26.131648
3.970000	26.131648
3.980000	26.131648
3.990000	26.131648
4.000000	26.391552
4.010000	26.391552
4.020000	26.391552
4.030000	26.391552
4.040000	26.391552
4.050000	26.391552
4.060000	26.391552
4.070000	26.391552
4.080000	26.391552
4.090000	26.391552
4.100000	26.391552
4.110000	26.391552
4.120000	26.391552
4.130000	26.391552
4.140000	26.391552
4.150000	26.391552
4.160000	26.391552
4.170000	26.391552
4.180000	26.391552
4.190000	26.391552
4.200000	26.391552
4.210000	26.391552
4.220000	26.391552
4.230000	26.391552
4.240000	26.391552
4.250000	26.391552
4.260000	26.391552
4.270000	26.391552
4.280000	26.391552
4.290000	26.391552
4.300000	26.391552
4.310000	26.391552
4.320000	26.391552
4.330000	26.391552
4.340000	26.391552
4.350000	26.391552
4.360000	26.391552
4.370000	26.391552
4.380000	26.391552
4.390000	26.391552
4.400000	26.391552
4.410000	26.391552
4.420000	26.391552
4.430000	26.391552
4.440000	26.391552
4.450000	26.391552
4.460000	26.391552
4.470000	26.391552
4.480000	26.391552
4.490000	26.391552
4.500000	26.582899
4.510000	26.582899
4.520000	26.582899
4.530000	26.582899
4.540000	26.582899
4.550000	26.582899
4.560000	26.582899
4.570000	26.582899
4.580000	26.582899
4.590000	26.582899
4.600000	26.582899
4.610000	26.582899
4.620000	26.582899
4.630000	26.582899
4.640000	26.582899
4.650000	26.582899
4.660000	26.582899
4.670000	26.582899
4.680000	26.582899
4.690000	26.582899
4.700000	26.582899
4.710000	26.582899
4.720000	26.582899
4.730000	26.582899
4.740000	26.582899
4.750000	26.582899
4.760000	26.582899
4.770000	26.582899
4.780000	26.582899
4.790000	26.582899
4.800000	26.582899
4.810000	26.582899
4.820000	26.582899
4.830000	26.582899
4.840000	26.582899
4.850000	26.582899
4.860000	26.582899
4.870000	26.582899
4.880000	26.582899
4.890000	26.582899
4.900000	26.582899
4.910000	26.582899
4.920000	26.582899
4.930000	26.582899
4.940000	26.582899
4.950000	26.582899
4.960000	26.582899
4.970000	26.582899
4.980000	26.582899
4.990000	26.582899
5.000000	26.717810
5.010000	26.717810
5.020000	26.717810
5.030000	26.717810
5.040000	26.717810
5.050000	26.717810
5.060000	26.717810
5.070000	26.717810
5.080000	26.717810
5.090000	26.717810
5.100000	26.717810
5.110000	26.717810
5.120000	26.717810
5.130000	26.717810
5.140000	26.717810
5.150000	26.717810
5.160000	26.717810
5.170000	26.717810
5.180000	26.717810
5.190000	26.717810
5.200000	26.717810
5.210000	26.717810
5.220000	26.717810
5.230000	26.717810
5.240000	26.717810
5.250000	26.717810
5.260000	26.717810
5.270000	26.717810
5.280000	26.717810
5.290000	26.717810
5.300000	26.717810
5.310000	26.717810
5.320000	26.717810
5.330000	26.717810
5.340000	26.717810
5.350000	26.717810
5.360000	26.717810
5.370000	26.717810
5.380000	26.717810
5.390000	26.717810
5.400000	26.717810
5.410000	26.717810
5.420000	26.717810
5.430000	26.717810
5.440000	26.717810
5.450000	26.717810
5.460000	26.717810
5.470000	26.717810
5.480000	26.717810
5.490000	26.717810
5.500000	26.810719
5.510000	26.810719
5.520000	26.810719
5.530000	26.810719
5.540000	26.810719
5.550000	26.810719
5.560000	26.810719
5.570000	26.810719
5.580000	26.810719
5.590000	26.810719
5.600000	26.810719
5.610000	26.810719
5.620000	26.810719
5.630000	26.810719
5.640000	26.810719
5.650000	26.810719
5.660000	26.810719
5.670000	26.810719
5.680000	26.810719
5.690000	26.810719
5.700000	26.810719
5.710000	26.810719
5.720000	26.810719
5.730000	26.810719
5.740000	26.810719
5.750000	26.810719
5.760000	26.810719
5.770000	26.810719
5.780000	26.810719
5.790000	26.810719
5.800000	26.810719
5.810000	26.810719
5.820000	26.810719
5.830000	26.810719
5.840000	26.810719
5.850000	26.810719
5.860000	26.810719
5.870000	26.810719
5.880000	26.810719
5.890000	26.810719
5.900000	26.810719
5.910000	26.810719
5.920000	26.810719
5.930000	26.810719
5.940000	26.810719
5.950000	26.810719
5.960000	26.810719
5.970000	26.810719
5.980000	26.810719
5.990000	26.810719
6.000000	26.872579
6.010000	26.872579
6.020000	26.872579
6.030000	26.872579
6.040000	26.872579
6.050000	26.872579
6.060000	26.872579
6.070000	26.872579
6.080000	26.872579
6.090000	26.872579
6.100000	26.872579
6.110000	26.872579
6.120000	26.872579
6.130000	26.872579
6.140000	26.872579
6.150000	26.872579
6.160000	26.872579
6.170000	26.872579
6.180000	26.872579
6.190000	26.872579
6.200000	26.872579
6.210000	26.872579
6.220000	26.872579
6.230000	26.872579
6.240000	26.872579
6.250000	26.872579
6.260000	26.872579
6.270000	26.872579
6.280000	26.872579
6.290000	26.872579
6.300000	26.872579
6.310000	26.872579
6.320000	26.872579
6.330000	26.872579
6.340000	26.872579
6.350000	26.872579
6.360000	26.872579
6.370000	26.872579
6.380000	26.872579
6.390000	26.872579
6.400000	26.872579
6.410000	26.872579
6.420000	26.872579
6.430000	26.872579
6.440000	26.872579
6.450000	26.872579
6.460000	26.872579
6.470000	26.872579
6.480000	26.872579
6.490000	26.872579
6.500000	26.909845
6.510000	26.909845
6.520000	26.909845
6.530000	26.909845
6.540000	26.909845
6.550000	26.909845
6.560000	26.909845
6.570000	26.909845
6.580000	26.909845
6.590000	26.909845
6.600000	26.909845
6.610000	26.909845
6.620000	26.909845
6.630000	26.909845
6.640000	26.909845
6.650000	26.909845
6.660000	26.909845
6.670000	26.909845
6.680000	26.909845
6.690000	26.909845
6.700000	26.909845
6.710000	26.909845
6.720000	26.909845
6.730000	26.909845
6.740000	26.909845
6.750000	26.909845
6.760000	26.909845
6.770000	26.909845
6.780000	26.909845
6.790000	26.909845
6.800000	26.909845
6.810000	26.909845
6.820000	26.909845
6.830000	26.909845
6.840000	26.909845
6.850000	26.909845
6.860000	26.909845
6.870000	26.909845
6.880000	26.909845
6.890000	26.909845
6.900000	26.909845
6.910000	26.909845
6.920000	26.909845
6.930000	26.909845
6.940000	26.909845
6.950000	26.909845
6.960000	26.909845
6.970000	26.909845
6.980000	26.909845
6.990000	26.909845
7.000000	26.927269
7.010000	26.927269
7.020000	26.927269
7.030000	26.927269
7.040000	26.927269
7.050000	26.927269
7.060000	26.927269
7.070000	26.927269
7.080000	26.927269
7.090000	26.927269
7.100000	26.927269
7.110000	26.927269
7.120000	26.927269
7.130000	26.927269
7.140000	26.927269
7.150000	26.927269
7.160000	26.927269
7.170000	26.927269
7.180000	26.927269
7.190000	26.927269
7.200000	26.927269
7.210000	26.927269
7.220000	26.927269
7.230000	26.927269
7.240000	26.927269
7.250000	26.927269
7.260000	26.927269
7.270000	26.927269
7.280000	26.927269
7.290000	26.927269
7.300000	26.927269
7.310000	26.927269
7.320000	26.927269
7.330000	26.927269
7.340000	26.927269
7.350000	26.927269
7.360000	26.927269
7.370000	26.927269
7.380000	26.927269
7.390000	26.927269
7.400000	26.927269
7.410000	26.927269
7.420000	26.927269
7.430000	26.927269
7.440000	26.927269
7.450000	26.927269
7.460000	26.927269
7.470000	26.927269
7.480000	26.927269
7.490000	26.927269
7.500000	26.929800
7.510000	26.929800
7.520000	26.929800
7.530000	26.929800
7.540000	26.929800
7.550000	26.929800
7.560000	26.929800
7.570000	26.929800
7.580000	26.929800
7.590000	26.929800
7.600000	26.929800
7.610000	26.929800
7.620000	26.929800
7.630000	26.929800
7.640000	26.929800
7.650000	26.929800
7.660000	26.929800
7.670000	26.929800
7.680000	26.929800
7.690000	26.929800
7.700000	26.929800
7.710000	26.929800
7.720000	26.929800
7.730000	26.929800
7.740000	26.929800
7.750000	26.929800
7.760000	26.929800
7.770000	26.929800
7.780000	26.929800
7.790000	26.929800
7.800000	26.929800
7.810000	26.929800
7.820000	26.929800
7.830000	26.929800
7.840000	26.929800
7.850000	26.929800
7.860000	26.929800
7.870000	26.929800
7.880000	26.929800
7.890000	26.929800
7.900000	26.929800
7.910000	26.929800
7.920000	26.929800
7.930000	26.929800
7.940000	26.929800
7.950000	26.929800
7.960000	26.929800
7.970000	26.929800
7.980000	26.929800
7.990000	26.929800
8.000000	26.921907
8.010000	26.921907
8.020000	26.921907
8.030000	26.921907
8.040000	26.921907
8.050000	26.921907
8.060000	26.921907
8.070000	26.921907
8.080000	26.921907
8.090000	26.921907
8.100000	26.921907
8.110000	26.921907
8.120000	26.921907
8.130000	26.921907
8.140000	26.921907
8.150000	26.921907
8.160000	26.921907
8.170000	26.921907
8.180000	26.921907
8.190000	26.921907
8.200000	26.921907
8.210000	26.921907
8.220000	26.921907
8.230000	26.921907
8.240000	26.921907
8.250000	26.921907
8.260000	26.921907
8.270000	26.921907
8.280000	26.921907
8.290000	26.921907
8.300000	26.921907
8.310000	26.921907
8.320000	26.921907
8.330000	26.921907
8.340000	26.921907
8.350000	26.921907
8.360000	26.921907
8.370000	26.921907
8.380000	26.921907
8.390000	26.921907
8.400000	26.921907
8.410000	26.921907
8.420000	26.921907
8.430000	26.921907
8.440000	26.921907
8.450000	26.921907
8.460000	26.921907
8.470000	26.921907
8.480000	26.921907
8.490000	26.921907
8.500000	26.906391
8.510000	26.906391
8.520000	26.906391
8.530000	26.906391
8.540000	26.906391
8.550000	26.906391
8.560000	26.906391
8.570000	26.906391
8.580000	26.906391
8.590000	26.906391
8.600000	26.906391
8.610000	26.906391
8.620000	26.906391
8.630000	26.906391
8.640000	26.906391
8.650000	26.906391
8.660000	26.906391
8.670000	26.906391
8.680000	26.906391
8.690000	26.906391
8.700000	26.906391
8.710000	26.906391
8.720000	26.906391
8.730000	26.906391
8.740000	26.906391
8.750000	26.906391
8.760000	26.906391
8.770000	26.906391
8.780000	26.906391
8.790000	26.906391
8.800000	26.906391
8.810000	26.906391
8.820000	26.906391
8.830000	26.906391
8.840000	26.906391
8.850000	26.906391
8.860000	26.906391
8.870000	26.906391
8.880000	26.906391
8.890000	26.906391
8.900000	26.906391
8.910000	26.906391
8.920000	26.906391
8.930000	26.906391
8.940000	26.906391
8.950000	26.906391
8.960000	26.906391
8.970000	26.906391
8.980000	26.906391
8.990000	26.906391
9.000000	26.882066
9.010000	26.882066
9.020000	26.882066
9.030000	26.882066
9.040000	26.882066
9.050000	26.882066
9.060000	26.882066
9.070000	26.882066
9.080000	26.882066
9.090000	26.882066
9.100000	26.882066
9.110000	26.882066
9.120000	26.882066
9.130000	26.882066
9.140000	26.882066
9.150000	26.882066
9.160000	26.882066
9.170000	26.882066
9.180000	26.882066
9.190000	26.882066
9.200000	26.882066
9.210000	26.882066
9.220000	26.882066
9.230000	26.882066
9.240000	26.882066
9.250000	26.882066
9.260000	26.882066
9.270000	26.882066
9.280000	26.882066
9.290000	26.882066
9.300000	26.882066
9.310000	26.882066
9.320000	26.882066
9.330000	26.882066
9.340000	26.882066
9.350000	26.882066
9.360000	26.882066
9.370000	26.882066
9.380000	26.882066
9.390000	26.882066
9.400000	26.882066
9.410000	26.882066
9.420000	26.882066
9.430000	26.882066
9.440000	26.882066
9.450000	26.882066
9.460000	26.882066
9.470000	26.882066
9.480000	26.882066
9.490000	26.882066
9.500000	26.853349
9.510000	26.853349
9.520000	26.853349
9.530000	26.853349
9.540000	26.853349
9.550000	26.853349
9.560000	26.853349
9.570000	26.853349
9.580000	26.853349
9.590000	26.853349
9.600000	26.853349
9.610000	26.853349
9.620000	26.853349
9.630000	26.853349
9.640000	26.853349
9.650000	26.853349
9.660000	26.853349
9.670000	26.853349
9.680000	26.853349
9.690000	26.853349
9.700000	26.853349
9.710000	26.853349
9.720000	26.853349
9.730000	26.853349
9.740000	26.853349
9.750000	26.853349
9.760000	26.853349
9.770000	26.853349
9.780000	26.853349
9.790000	26.853349
9.800000	26.853349
9.810000	26.853349
9.820000	26.853349
9.830000	26.853349
9.840000	26.853349
9.850000	26.853349
9.860000	26.853349
9.870000	26.853349
9.880000	26.853349
9.890000	26.853349
9.900000	26.853349
9.910000	26.853349
9.920000	26.853349
9.930000	26.853349
9.940000	26.853349
9.950000	26.853349
9.960000	26.853349
9.970000	26.853349
9.980000	26.853349
9.990000	26.853349
10.000000	26.822538
10.010000	26.822538
10.020000	26.822538
10.030000	26.822538
10.040000	26.822538
10.050000	26.822538
10.060000	26.822538
10.070000	26.822538
10.080000	26.822538
10.090000	26.822538
10.100000	26.822538
10.110000	26.822538
10.120000	26.822538
10.130000	26.822538
10.140000	26.822538
10.150000	26.822538
10.160000	26.822538
10.170000	26.822538
10.180000	26.822538
10.190000	26.822538
10.200000	26.822538
10.210000	26.822538
10.220000	26.822538
10.230000	26.822538
10.240000	26.822538
10.250000	26.822538
10.260000	26.822538
10.270000	26.822538
10.280000	26.822538
10.290000	26.822538
10.300000	26.822538
10.310000	26.822538
10.320000	26.822538
10.330000	26.822538
10.340000	26.822538
10.350000	26.822538
10.360000	26.822538
10.370000	26.822538
10.380000	26.822538
10.390000	26.822538
10.400000	26.822538
10.410000	26.822538
10.420000	26.822538
10.430000	26.822538
10.440000	26.822538
10.450000	26.822538
10.460000	26.822538
10.470000	26.822538
10.480000	26.822538
10.490000	26.822538
10.500000	26.788837
10.510000	26.788837
10.520000	26.788837
10.530000	26.788837
10.540000	26.788837
10.550000	26.788837
10.560000	26.788837
10.570000	26.788837
10.580000	26.788837
10.590000	26.788837
10.600000	26.788837
10.610000	26.788837
10.620000	26.788837
10.630000	26.788837
10.640000	26.788837
10.650000	26.788837
10.660000	26.788837
10.670000	26.788837
10.680000	26.788837
10.690000	26.788837
10.700000	26.788837
10.710000	26.788837
10.720000	26.788837
10.730000	26.788837
10.740000	26.788837
10.750000	26.788837
10.760000	26.788837
10.770000	26.788837
10.780000	26.788837
10.790000	26.788837
10.800000	26.788837
10.810000	26.788837
10.820000	26.788837
10.830000	26.788837
10.840000	26.788837
10.850000	26.788837
10.860000	26.788837
10.870000	26.788837
10.880000	26.788837
10.890000	26.788837
10.900000	26.788837
10.910000	26.788837
10.920000	26.788837
10.930000	26.788837
10.940000	26.788837
10.950000	26.788837
10.960000	26.788837
10.970000	26.788837
10.980000	26.788837
10.990000	26.788837
11.000000	26.752949
11.010000	26.752949
11.020000	26.752949
11.030000	26.752949
11.040000	26.752949
11.050000	26.752949
11.060000	26.752949
11.070000	26.752949
11.080000	26.752949
11.090000	26.752949
11.100000	26.752949
11.110000	26.752949
11.120000	26.752949
11.130000	26.752949
11.140000	26.752949
11.150000	26.752949
11.160000	26.752949
11.170000	26.752949
11.180000	26.752949
11.190000	26.752949
11.200000	26.752949
11.210000	26.752949
11.220000	26.752949
11.230000	26.752949
11.240000	26.752949
11.250000	26.752949
11.260000	26.752949
11.270000	26.752949
11.280000	26.752949
11.290000	26.752949
11.300000	26.752949
11.310000	26.752949
11.320000	26.752949
11.330000	26.752949
11.340000	26.752949
11.350000	26.752949
11.360000	26.752949
11.370000	26.752949
11.380000	26.752949
11.390000	26.752949
11.400000	26.752949
11.410000	26.752949
11.420000	26.752949
11.430000	26.752949
11.440000	26.752949
11.450000	26.752949
11.460000	26.752949
11.470000	26.752949
11.480000	26.752949
11.490000	26.752949
11.500000	26.715860
11.510000	26.715860
11.520000	26.715860
11.530000	26.715860
11.540000	26.715860
11.550000	26.715860
11.560000	26.715860
11.570000	26.715860
11.580000	26.715860
11.590000	26.715860
11.600000	26.715860
11.610000	26.715860
11.620000	26.715860
11.630000	26.715860
11.640000	26.715860
11.650000	26.715860
11.660000	26.715860
11.670000	26.715860
11.680000	26.715860
11.690000	26.715860
11.700000	26.715860
11.710000	26.715860
11.720000	26.715860
11.730000	26.715860
11.740000	26.715860
11.750000	26.715860
11.760000	26.715860
11.770000	26.715860
11.780000	26.715860
11.790000	26.715860
11.800000	26.715860
11.810000	26.715860
11.820000	26.715860
11.830000	26.715860
11.840000	26.715860
11.850000	26.715860
11.860000	26.715860
11.870000	26.715860
11.880000	26.715860
11.890000	26.715860
11.900000	26.715860
11.910000	26.715860
11.920000	26.715860
11.930000	26.715860
11.940000	26.715860
11.950000	26.715860
11.960000	26.715860
11.970000	26.715860
11.980000	26.715860
11.990000	26.715860
12.000000	26.678745
12.010000	26.678745
12.020000	26.678745
12.030000	26.678745
12.040000	26.678745
12.050000	26.678745
12.060000	26.678745
12.070000	26.678745
12.080000	26.678745
12.090000	26.678745
12.100000	26.678745
12.110000	26.678745
12.120000	26.678745
12.130000	26.678745
12.140000	26.678745
12.150000	26.678745
12.160000	26.678745
12.170000	26.678745
12.180000	26.678745
12.190000	26.678745
12.200000	26.678745
12.210000	26.678745
12.220000	26.678745
12.230000	26.678745
12.240000	26.678745
12.250000	26.678745
12.260000	26.678745
12.270000	26.678745
12.280000	26.678745
12.290000	26.678745
12.300000	26.678745
12.310000	26.678745
12.320000	26.678745
12.330000	26.678745
12.340000	26.678745
12.350000	26.678745
12.360000	26.678745
12.370000	26.678745
12.380000	26.678745
12.390000	26.678745
12.400000	26.678745
12.410000	26.678745
12.420000	26.678745
12.430000	26.678745
12.440000	26.678745
12.450000	26.678745
12.460000	26.678745
12.470000	26.678745
12.480000	26.678745
12.490000	26.678745
12.500000	26.641837
12.510000	26.641837
12.520000	26.641837
12.530000	26.641837
12.540000	26.641837
12.550000	26.641837
12.560000	26.641837
12.570000	26.641837
12.580000	26.641837
12.590000	26.641837
12.600000	26.641837
12.610000	26.641837
12.620000	26.641837
12.630000	26.641837
12.640000	26.641837
12.650000	26.641837
12.660000	26.641837
12.670000	26.641837
12.680000	26.641837
12.690000	26.641837
12.700000	26.641837
12.710000	26.641837
12.720000	26.641837
12.730000	26.641837
12.740000	26.641837
12.750000	26.641837
12.760000	26.641837
12.770000	26.641837
12.780000	26.641837
12.790000	26.641837
12.800000	26.641837
12.810000	26.641837
12.820000	26.641837
12.830000	26.641837
12.840000	26.641837
12.850000	26.641837
12.860000	26.641837
12.870000	26.641837
12.880000	26.641837
12.890000	26.641837
12.900000	26.641837
12.910000	26.641837
12.920000	26.641837
12.930000	26.641837
12.940000	26.641837
12.950000	26.641837
12.960000	26.641837
12.970000	26.641837
12.980000	26.641837
12.990000	26.641837
13.000000	26.604326
13.010000	26.604326
13.020000	26.604326
13.030000	26.604326
13.040000	26.604326
13.050000	26.604326
13.060000	26.604326
13.070000	26.604326
13.080000	26.604326
13.090000	26.604326
13.100000	26.604326
13.110000	26.604326
13.120000	26.604326
13.130000	26.604326
13.140000	26.604326
13.150000	26.604326
13.160000	26.604326
13.170000	26.604326
13.180000	26.604326
13.190000	26.604326
13.200000	26.604326
13.210000	26.604326
13.220000	26.604326
13.230000	26.604326
13.240000	26.604326
13.250000	26.604326
13.260000	26.604326
13.270000	26.604326
13.280000	26.604326
13.290000	26.604326
13.300000	26.604326
13.310000	26.604326
13.320000	26.604326
13.330000	26.604326
13.340000	26.604326
13.350000	26.604326
13.360000	26.604326
13.370000	26.604326
13.380000	26.604326
13.390000	26.604326
13.400000	26.604326
13.410000	26.604326
13.420000	26.604326
13.430000	26.604326
13.440000	26.604326
13.450000	26.604326
13.460000	26.604326
13.470000	26.604326
13.480000	26.604326
13.490000	26.604326
13.500000	26.566954
13.510000	26.566954
13.520000	26.566954
13.530000	26.566954
13.540000	26.566954
13.550000	26.566954
13.560000	26.566954
13.570000	26.566954
13.580000	26.566954
13.590000	26.566954
13.600000	26.566954
13.610000	26.566954
13.620000	26.566954
13.630000	26.566954
13.640000	26.566954
13.650000	26.566954
13.660000	26.566954
13.670000	26.566954
13.680000	26.566954
13.690000	26.566954
13.700000	26.566954
13.710000	26.566954
13.720000	26.566954
13.730000	26.566954
13.740000	26.566954
13.750000	26.566954
13.760000	26.566954
13.770000	26.566954
13.780000	26.566954
13.790000	26.566954
13.800000	26.566954
13.810000	26.566954
13.820000	26.566954
13.830000	26.566954
13.840000	26.566954
13.850000	26.566954
13.860000	26.566954
13.870000	26.566954
13.880000	26.566954
13.890000	26.566954
13.900000	26.566954
13.910000	26.566954
13.920000	26.566954
13.930000	26.566954
13.940000	26.566954
13.950000	26.566954
13.960000	26.566954
13.970000	26.566954
13.980000	26.566954
13.990000	26.566954
14.000000	26.529371
14.010000	26.529371
14.020000	26.529371
14.030000	26.529371
14.040000	26.529371
14.050000	26.529371
14.060000	26.529371
14.070000	26.529371
14.080000	26.529371
14.090000	26.529371
14.100000	26.529371
14.110000	26.529371
14.120000	26.529371
14.130000	26.529371
14.140000	26.529371
14.150000	26.529371
14.160000	26.529371
14.170000	26.529371
14.180000	26.529371
14.190000	26.529371
14.200000	26.529371
14.210000	26.529371
14.220000	26.529371
14.230000	26.529371
14.240000	26.529371
14.250000	26.529371
14.260000	26.529371
14.270000	26.529371
14.280000	26.529371
14.290000	26.529371
14.300000	26.529371
14.310000	26.529371
14.320000	26.529371
14.330000	26.529371
14.340000	26.529371
14.350000	26.529371
14.360000	26.529371
14.370000	26.529371
14.380000	26.529371
14.390000	26.529371
14.400000	26.529371
14.410000	26.529371
14.420000	26.529371
14.430000	26.529371
14.440000	26.529371
14.450000	26.529371
14.460000	26.529371
14.470000	26.529371
14.480000	26.529371
14.490000	26.529371
14.500000	26.492371
14.510000	26.492371
14.520000	26.492371
14.530000	26.492371
14.540000	26.492371
14.550000	26.492371
14.560000	26.492371
14.570000	26.492371
14.580000	26.492371
14.590000	26.492371
14.600000	26.492371
14.610000	26.492371
14.620000	26.492371
14.630000	26.492371
14.640000	26.492371
14.650000	26.492371
14.660000	26.492371
14.670000	26.492371
14.680000	26.492371
14.690000	26.492371
14.700000	26.492371
14.710000	26.492371
14.720000	26.492371
14.730000	26.492371
14.740000	26.492371
14.750000	26.492371
14.760000	26.492371
14.770000	26.492371
14.780000	26.492371
14.790000	26.492371
14.800000	26.492371
14.810000	26.492371
14.820000	26.492371
14.830000	26.492371
14.840000	26.492371
14.850000	26.492371
14.860000	26.492371
14.870000	26.492371
14.880000	26.492371
14.890000	26.492371
14.900000	26.492371
14.910000	26.492371
14.920000	26.492371
14.930000	26.492371
14.940000	26.492371
14.950000	26.492371
14.960000	26.492371
14.970000	26.492371
14.980000	26.492371
14.990000	26.492371
15.000000	26.456492
15.010000	26.456492
15.020000	26.456492
15.030000	26.456492
15.040000	26.456492
15.050000	26.456492
15.060000	26.456492
15.070000	26.456492
15.080000	26.456492
15.090000	26.456492
15.100000	26.456492
15.110000	26.456492
15.120000	26.456492
15.130000	26.456492
15.140000	26.456492
15.150000	26.456492
15.160000	26.456492
15.170000	26.456492
15.180000	26.456492
15.190000	26.456492
15.200000	26.456492
15.210000	26.456492
15.220000	26.456492
15.230000	26.456492
15.240000	26.456492
15.250000	26.456492
15.260000	26.456492
15.270000	26.456492
15.280000	26.456492
15.290000	26.456492
15.300000	26.456492
15.310000	26.456492
15.320000	26.456492
15.330000	26.456492
15.340000	26.456492
15.350000	26.456492
15.360000	26.456492
15.370000	26.456492
15.380000	26.456492
15.390000	26.456492
15.400000	26.456492
15.410000	26.456492
15.420000	26.456492
15.430000	26.456492
15.440000	26.456492
15.450000	26.456492
15.460000	26.456492
15.470000	26.456492
15.480000	26.456492
15.490000	26.456492
15.500000	26.421024
15.510000	26.421024
15.520000	26.421024
15.530000	26.421024
15.540000	26.421024
15.550000	26.421024
15.560000	26.421024
15.570000	26.421024
15.580000	26.421024
15.590000	26.421024
15.600000	26.421024
15.610000	26.421024
15.620000	26.421024
15.630000	26.421024
15.640000	26.421024
15.650000	26.421024
15.660000	26.421024
15.670000	26.421024
15.680000	26.421024
15.690000	26.421024
15.700000	26.421024
15.710000	26.421024
15.720000	26.421024
15.730000	26.421024
15.740000	26.421024
15.750000	26.421024
15.760000	26.421024
15.770000	26.421024
15.780000	26.421024
15.790000	26.421024
15.800000	26.421024
15.810000	26.421024
15.820000	26.421024
15.830000	26.421024
15.840000	26.421024
15.850000	26.421024
15.860000	26.421024
15.870000	26.421024
15.880000	26.421024
15.890000	26.421024
15.900000	26.421024
15.910000	26.421024
15.920000	26.421024
15.930000	26.421024
15.940000	26.421024
15.950000	26.421024
15.960000	26.421024
15.970000	26.421024
15.980000	26.421024
15.990000	26.421024
16.000000	26.386939
16.010000	26.386939
16.020000	26.386939
16.030000	26.386939
16.040000	26.386939
16.050000	26.386939
16.060000	26.386939
16.070000	26.386939
16.080000	26.386939
16.090000	26.386939
16.100000	26.386939
16.110000	26.386939
16.120000	26.386939
16.130000	26.386939
16.140000	26.386939
16.150000	26.386939
16.160000	26.386939
16.170000	26.386939
16.180000	26.386939
16.190000	26.386939
16.200000	26.386939
16.210000	26.386939
16.220000	26.386939
16.230000	26.386939
16.240000	26.386939
16.250000	26.386939
16.260000	26.386939
16.270000	26.386939
16.280000	26.386939
16.290000	26.386939
16.300000	26.386939
16.310000	26.386939
16.320000	26.386939
16.330000	26.386939
16.340000	26.386939
16.350000	26.386939
16.360000	26.386939
16.370000	26.386939
16.380000	26.386939
16.390000	26.386939
16.400000	26.386939
16.410000	26.386939
16.420000	26.386939
16.430000	26.386939
16.440000	26.386939
16.450000	26.386939
16.460000	26.386939
16.470000	26.386939
16.480000	26.386939
16.490000	26.386939
16.500000	26.353470
16.510000	26.353470
16.520000	26.353470
16.530000	26.353470
16.540000	26.353470
16.550000	26.353470
16.560000	26.353470
16.570000	26.353470
16.580000	26.353470
16.590000	26.353470
16.600000	26.353470
16.610000	26.353470
16.620000	26.353470
16.630000	26.353470
16.640000	26.353470
16.650000	26.353470
16.660000	26.353470
16.670000	26.353470
16.680000	26.353470
16.690000	26.353470
16.700000	26.353470
16.710000	26.353470
16.720000	26.353470
16.730000	26.353470
16.740000	26.353470
16.750000	26.353470
16.760000	26.353470
16.770000	26.353470
16.780000	26.353470
16.790000	26.353470
16.800000	26.353470
16.810000	26.353470
16.820000	26.353470
16.830000	26.353470
16.840000	26.353470
16.850000	26.353470
16.860000	26.353470
16.870000	26.353470
16.880000	26.353470
16.890000	26.353470
16.900000	26.353470
16.910000	26.353470
16.920000	26.353470
16.930000	26.353470
16.940000	26.353470
16.950000	26.353470
16.960000	26.353470
16.970000	26.353470
16.980000	26.353470
16.990000	26.353470
17.000000	26.320701
17.010000	26.320701
17.020000	26.320701
17.030000	26.320701
17.040000	26.320701
17.050000	26.320701
17.060000	26.320701
17.070000	26.320701
17.080000	26.320701
17.090000	26.320701
17.100000	26.320701
17.110000	26.320701
17.120000	26.320701
17.130000	26.320701
17.140000	26.320701
17.150000	26.320701
17.160000	26.320701
17.170000	26.320701
17.180000	26.320701
17.190000	26.320701
17.200000	26.320701
17.210000	26.320701
17.220000	26.320701
17.230000	26.320701
17.240000	26.320701
17.250000	26.320701
17.260000	26.320701
17.270000	26.320701
17.280000	26.320701
17.290000	26.320701
17.300000	26.320701
17.310000	26.320701
17.320000	26.320701
17.330000	26.320701
17.340000	26.320701
17.350000	26.320701
17.360000	26.320701
17.370000	26.320701
17.380000	26.320701
17.390000	26.320701
17.400000	26.320701
17.410000	26.320701
17.420000	26.320701
17.430000	26.320701
17.440000	26.320701
17.450000	26.320701
17.460000	26.320701
17.470000	26.320701
17.480000	26.320701
17.490000	26.320701
17.500000	26.288776
17.510000	26.288776
17.520000	26.288776
17.530000	26.288776
17.540000	26.288776
17.550000	26.288776
17.560000	26.288776
17.570000	26.288776
17.580000	26.288776
17.590000	26.288776
17.600000	26.288776
17.610000	26.288776
17.620000	26.288776
17.630000	26.288776
17.640000	26.288776
17.650000	26.288776
17.660000	26.288776
17.670000	26.288776
17.680000	26.288776
17.690000	26.288776
17.700000	26.288776
17.710000	26.288776
17.720000	26.288776
17.730000	26.288776
17.740000	26.288776
17.750000	26.288776
17.760000	26.288776
17.770000	26.288776
17.780000	26.288776
17.790000	26.288776
17.800000	26.288776
17.810000	26.288776
17.820000	26.288776
17.830000	26.288776
17.840000	26.288776
17.850000	26.288776
17.860000	26.288776
17.870000	26.288776
17.880000	26.288776
17.890000	26.288776
17.900000	26.288776
17.910000	26.288776
17.920000	26.288776
17.930000	26.288776
17.940000	26.288776
17.950000	26.288776
17.960000	26.288776
17.970000	26.288776
17.980000	26.288776
17.990000	26.288776
