LabVIEW Measurement	
Writer_Version	2
Reader_Version	2
Separator	Tab
Decimal_Separator	.
Multi_Headings	No
X_Columns	One
Time_Pref	Absolute
Operator	biomech-dyno
Date	2023/05/23
Time	16:26:31.1792034999998606061
***End_of_Header***	
	
Channels	1	
Samples	10	
Date	2023/05/23	
Time	18:36:41.1032348999998999422	
X_Dimension	Time	
X0	0.0000000000000000E+0	
Delta_X	0.010000	
***End_of_Header***		
X_Value	Untitled	Comment
0.000000	24.742068
0.010000	24.742068
0.020000	24.742068
0.030000	24.742068
0.040000	24.742068
0.050000	24.742068
0.060000	24.742068
0.070000	24.742068
0.080000	24.742068
0.090000	24.742068
0.100000	24.742068
0.110000	24.742068
0.120000	24.742068
0.130000	24.742068
0.140000	24.742068
0.150000	24.742068
0.160000	24.742068
0.170000	24.742068
0.180000	24.742068
0.190000	24.742068
0.200000	24.742068
0.210000	24.742068
0.220000	24.742068
0.230000	24.742068
0.240000	24.742068
0.250000	24.742068
0.260000	24.742068
0.270000	24.742068
0.280000	24.742068
0.290000	24.742068
0.300000	24.742068
0.310000	24.742068
0.320000	24.742068
0.330000	24.742068
0.340000	24.742068
0.350000	24.742068
0.360000	24.742068
0.370000	24.742068
0.380000	24.742068
0.390000	24.742068
0.400000	24.742068
0.410000	24.742068
0.420000	24.742068
0.430000	24.742068
0.440000	24.742068
0.450000	24.742068
0.460000	24.742068
0.470000	24.742068
0.480000	24.742068
0.490000	24.742068
0.500000	24.746587
0.510000	24.746587
0.520000	24.746587
0.530000	24.746587
0.540000	24.746587
0.550000	24.746587
0.560000	24.746587
0.570000	24.746587
0.580000	24.746587
0.590000	24.746587
0.600000	24.746587
0.610000	24.746587
0.620000	24.746587
0.630000	24.746587
0.640000	24.746587
0.650000	24.746587
0.660000	24.746587
0.670000	24.746587
0.680000	24.746587
0.690000	24.746587
0.700000	24.746587
0.710000	24.746587
0.720000	24.746587
0.730000	24.746587
0.740000	24.746587
0.750000	24.746587
0.760000	24.746587
0.770000	24.746587
0.780000	24.746587
0.790000	24.746587
0.800000	24.746587
0.810000	24.746587
0.820000	24.746587
0.830000	24.746587
0.840000	24.746587
0.850000	24.746587
0.860000	24.746587
0.870000	24.746587
0.880000	24.746587
0.890000	24.746587
0.900000	24.746587
0.910000	24.746587
0.920000	24.746587
0.930000	24.746587
0.940000	24.746587
0.950000	24.746587
0.960000	24.746587
0.970000	24.746587
0.980000	24.746587
0.990000	24.746587
1.000000	24.757192
1.010000	24.757192
1.020000	24.757192
1.030000	24.757192
1.040000	24.757192
1.050000	24.757192
1.060000	24.757192
1.070000	24.757192
1.080000	24.757192
1.090000	24.757192
1.100000	24.757192
1.110000	24.757192
1.120000	24.757192
1.130000	24.757192
1.140000	24.757192
1.150000	24.757192
1.160000	24.757192
1.170000	24.757192
1.180000	24.757192
1.190000	24.757192
1.200000	24.757192
1.210000	24.757192
1.220000	24.757192
1.230000	24.757192
1.240000	24.757192
1.250000	24.757192
1.260000	24.757192
1.270000	24.757192
1.280000	24.757192
1.290000	24.757192
1.300000	24.757192
1.310000	24.757192
1.320000	24.757192
1.330000	24.757192
1.340000	24.757192
1.350000	24.757192
1.360000	24.757192
1.370000	24.757192
1.380000	24.757192
1.390000	24.757192
1.400000	24.757192
1.410000	24.757192
1.420000	24.757192
1.430000	24.757192
1.440000	24.757192
1.450000	24.757192
1.460000	24.757192
1.470000	24.757192
1.480000	24.757192
1.490000	24.757192
1.500000	24.777883
1.510000	24.777883
1.520000	24.777883
1.530000	24.777883
1.540000	24.777883
1.550000	24.777883
1.560000	24.777883
1.570000	24.777883
1.580000	24.777883
1.590000	24.777883
1.600000	24.777883
1.610000	24.777883
1.620000	24.777883
1.630000	24.777883
1.640000	24.777883
1.650000	24.777883
1.660000	24.777883
1.670000	24.777883
1.680000	24.777883
1.690000	24.777883
1.700000	24.777883
1.710000	24.777883
1.720000	24.777883
1.730000	24.777883
1.740000	24.777883
1.750000	24.777883
1.760000	24.777883
1.770000	24.777883
1.780000	24.777883
1.790000	24.777883
1.800000	24.777883
1.810000	24.777883
1.820000	24.777883
1.830000	24.777883
1.840000	24.777883
1.850000	24.777883
1.860000	24.777883
1.870000	24.777883
1.880000	24.777883
1.890000	24.777883
1.900000	24.777883
1.910000	24.777883
1.920000	24.777883
1.930000	24.777883
1.940000	24.777883
1.950000	24.777883
1.960000	24.777883
1.970000	24.777883
1.980000	24.777883
1.990000	24.777883
2.000000	24.806621
2.010000	24.806621
2.020000	24.806621
2.030000	24.806621
2.040000	24.806621
2.050000	24.806621
2.060000	24.806621
2.070000	24.806621
2.080000	24.806621
2.090000	24.806621
2.100000	24.806621
2.110000	24.806621
2.120000	24.806621
2.130000	24.806621
2.140000	24.806621
2.150000	24.806621
2.160000	24.806621
2.170000	24.806621
2.180000	24.806621
2.190000	24.806621
2.200000	24.806621
2.210000	24.806621
2.220000	24.806621
2.230000	24.806621
2.240000	24.806621
2.250000	24.806621
2.260000	24.806621
2.270000	24.806621
2.280000	24.806621
2.290000	24.806621
2.300000	24.806621
2.310000	24.806621
2.320000	24.806621
2.330000	24.806621
2.340000	24.806621
2.350000	24.806621
2.360000	24.806621
2.370000	24.806621
2.380000	24.806621
2.390000	24.806621
2.400000	24.806621
2.410000	24.806621
2.420000	24.806621
2.430000	24.806621
2.440000	24.806621
2.450000	24.806621
2.460000	24.806621
2.470000	24.806621
2.480000	24.806621
2.490000	24.806621
2.500000	24.842110
2.510000	24.842110
2.520000	24.842110
2.530000	24.842110
2.540000	24.842110
2.550000	24.842110
2.560000	24.842110
2.570000	24.842110
2.580000	24.842110
2.590000	24.842110
2.600000	24.842110
2.610000	24.842110
2.620000	24.842110
2.630000	24.842110
2.640000	24.842110
2.650000	24.842110
2.660000	24.842110
2.670000	24.842110
2.680000	24.842110
2.690000	24.842110
2.700000	24.842110
2.710000	24.842110
2.720000	24.842110
2.730000	24.842110
2.740000	24.842110
2.750000	24.842110
2.760000	24.842110
2.770000	24.842110
2.780000	24.842110
2.790000	24.842110
2.800000	24.842110
2.810000	24.842110
2.820000	24.842110
2.830000	24.842110
2.840000	24.842110
2.850000	24.842110
2.860000	24.842110
2.870000	24.842110
2.880000	24.842110
2.890000	24.842110
2.900000	24.842110
2.910000	24.842110
2.920000	24.842110
2.930000	24.842110
2.940000	24.842110
2.950000	24.842110
2.960000	24.842110
2.970000	24.842110
2.980000	24.842110
2.990000	24.842110
3.000000	24.881880
3.010000	24.881880
3.020000	24.881880
3.030000	24.881880
3.040000	24.881880
3.050000	24.881880
3.060000	24.881880
3.070000	24.881880
3.080000	24.881880
3.090000	24.881880
3.100000	24.881880
3.110000	24.881880
3.120000	24.881880
3.130000	24.881880
3.140000	24.881880
3.150000	24.881880
3.160000	24.881880
3.170000	24.881880
3.180000	24.881880
3.190000	24.881880
3.200000	24.881880
3.210000	24.881880
3.220000	24.881880
3.230000	24.881880
3.240000	24.881880
3.250000	24.881880
3.260000	24.881880
3.270000	24.881880
3.280000	24.881880
3.290000	24.881880
3.300000	24.881880
3.310000	24.881880
3.320000	24.881880
3.330000	24.881880
3.340000	24.881880
3.350000	24.881880
3.360000	24.881880
3.370000	24.881880
3.380000	24.881880
3.390000	24.881880
3.400000	24.881880
3.410000	24.881880
3.420000	24.881880
3.430000	24.881880
3.440000	24.881880
3.450000	24.881880
3.460000	24.881880
3.470000	24.881880
3.480000	24.881880
3.490000	24.881880
3.500000	24.923768
3.510000	24.923768
3.520000	24.923768
3.530000	24.923768
3.540000	24.923768
3.550000	24.923768
3.560000	24.923768
3.570000	24.923768
3.580000	24.923768
3.590000	24.923768
3.600000	24.923768
3.610000	24.923768
3.620000	24.923768
3.630000	24.923768
3.640000	24.923768
3.650000	24.923768
3.660000	24.923768
3.670000	24.923768
3.680000	24.923768
3.690000	24.923768
3.700000	24.923768
3.710000	24.923768
3.720000	24.923768
3.730000	24.923768
3.740000	24.923768
3.750000	24.923768
3.760000	24.923768
3.770000	24.923768
3.780000	24.923768
3.790000	24.923768
3.800000	24.923768
3.810000	24.923768
3.820000	24.923768
3.830000	24.923768
3.840000	24.923768
3.850000	24.923768
3.860000	24.923768
3.870000	24.923768
3.880000	24.923768
3.890000	24.923768
3.900000	24.923768
3.910000	24.923768
3.920000	24.923768
3.930000	24.923768
3.940000	24.923768
3.950000	24.923768
3.960000	24.923768
3.970000	24.923768
3.980000	24.923768
3.990000	24.923768
4.000000	24.960897
4.010000	24.960897
4.020000	24.960897
4.030000	24.960897
4.040000	24.960897
4.050000	24.960897
4.060000	24.960897
4.070000	24.960897
4.080000	24.960897
4.090000	24.960897
4.100000	24.960897
4.110000	24.960897
4.120000	24.960897
4.130000	24.960897
4.140000	24.960897
4.150000	24.960897
4.160000	24.960897
4.170000	24.960897
4.180000	24.960897
4.190000	24.960897
4.200000	24.960897
4.210000	24.960897
4.220000	24.960897
4.230000	24.960897
4.240000	24.960897
4.250000	24.960897
4.260000	24.960897
4.270000	24.960897
4.280000	24.960897
4.290000	24.960897
4.300000	24.960897
4.310000	24.960897
4.320000	24.960897
4.330000	24.960897
4.340000	24.960897
4.350000	24.960897
4.360000	24.960897
4.370000	24.960897
4.380000	24.960897
4.390000	24.960897
4.400000	24.960897
4.410000	24.960897
4.420000	24.960897
4.430000	24.960897
4.440000	24.960897
4.450000	24.960897
4.460000	24.960897
4.470000	24.960897
4.480000	24.960897
4.490000	24.960897
4.500000	24.990846
4.510000	24.990846
4.520000	24.990846
4.530000	24.990846
4.540000	24.990846
4.550000	24.990846
4.560000	24.990846
4.570000	24.990846
4.580000	24.990846
4.590000	24.990846
4.600000	24.990846
4.610000	24.990846
4.620000	24.990846
4.630000	24.990846
4.640000	24.990846
4.650000	24.990846
4.660000	24.990846
4.670000	24.990846
4.680000	24.990846
4.690000	24.990846
4.700000	24.990846
4.710000	24.990846
4.720000	24.990846
4.730000	24.990846
4.740000	24.990846
4.750000	24.990846
4.760000	24.990846
4.770000	24.990846
4.780000	24.990846
4.790000	24.990846
4.800000	24.990846
4.810000	24.990846
4.820000	24.990846
4.830000	24.990846
4.840000	24.990846
4.850000	24.990846
4.860000	24.990846
4.870000	24.990846
4.880000	24.990846
4.890000	24.990846
4.900000	24.990846
4.910000	24.990846
4.920000	24.990846
4.930000	24.990846
4.940000	24.990846
4.950000	24.990846
4.960000	24.990846
4.970000	24.990846
4.980000	24.990846
4.990000	24.990846
5.000000	25.013342
5.010000	25.013342
5.020000	25.013342
5.030000	25.013342
5.040000	25.013342
5.050000	25.013342
5.060000	25.013342
5.070000	25.013342
5.080000	25.013342
5.090000	25.013342
5.100000	25.013342
5.110000	25.013342
5.120000	25.013342
5.130000	25.013342
5.140000	25.013342
5.150000	25.013342
5.160000	25.013342
5.170000	25.013342
5.180000	25.013342
5.190000	25.013342
5.200000	25.013342
5.210000	25.013342
5.220000	25.013342
5.230000	25.013342
5.240000	25.013342
5.250000	25.013342
5.260000	25.013342
5.270000	25.013342
5.280000	25.013342
5.290000	25.013342
5.300000	25.013342
5.310000	25.013342
5.320000	25.013342
5.330000	25.013342
5.340000	25.013342
5.350000	25.013342
5.360000	25.013342
5.370000	25.013342
5.380000	25.013342
5.390000	25.013342
5.400000	25.013342
5.410000	25.013342
5.420000	25.013342
5.430000	25.013342
5.440000	25.013342
5.450000	25.013342
5.460000	25.013342
5.470000	25.013342
5.480000	25.013342
5.490000	25.013342
5.500000	25.029872
5.510000	25.029872
5.520000	25.029872
5.530000	25.029872
5.540000	25.029872
5.550000	25.029872
5.560000	25.029872
5.570000	25.029872
5.580000	25.029872
5.590000	25.029872
5.600000	25.029872
5.610000	25.029872
5.620000	25.029872
5.630000	25.029872
5.640000	25.029872
5.650000	25.029872
5.660000	25.029872
5.670000	25.029872
5.680000	25.029872
5.690000	25.029872
5.700000	25.029872
5.710000	25.029872
5.720000	25.029872
5.730000	25.029872
5.740000	25.029872
5.750000	25.029872
5.760000	25.029872
5.770000	25.029872
5.780000	25.029872
5.790000	25.029872
5.800000	25.029872
5.810000	25.029872
5.820000	25.029872
5.830000	25.029872
5.840000	25.029872
5.850000	25.029872
5.860000	25.029872
5.870000	25.029872
5.880000	25.029872
5.890000	25.029872
5.900000	25.029872
5.910000	25.029872
5.920000	25.029872
5.930000	25.029872
5.940000	25.029872
5.950000	25.029872
5.960000	25.029872
5.970000	25.029872
5.980000	25.029872
5.990000	25.029872
6.000000	25.041767
6.010000	25.041767
6.020000	25.041767
6.030000	25.041767
6.040000	25.041767
6.050000	25.041767
6.060000	25.041767
6.070000	25.041767
6.080000	25.041767
6.090000	25.041767
6.100000	25.041767
6.110000	25.041767
6.120000	25.041767
6.130000	25.041767
6.140000	25.041767
6.150000	25.041767
6.160000	25.041767
6.170000	25.041767
6.180000	25.041767
6.190000	25.041767
6.200000	25.041767
6.210000	25.041767
6.220000	25.041767
6.230000	25.041767
6.240000	25.041767
6.250000	25.041767
6.260000	25.041767
6.270000	25.041767
6.280000	25.041767
6.290000	25.041767
6.300000	25.041767
6.310000	25.041767
6.320000	25.041767
6.330000	25.041767
6.340000	25.041767
6.350000	25.041767
6.360000	25.041767
6.370000	25.041767
6.380000	25.041767
6.390000	25.041767
6.400000	25.041767
6.410000	25.041767
6.420000	25.041767
6.430000	25.041767
6.440000	25.041767
6.450000	25.041767
6.460000	25.041767
6.470000	25.041767
6.480000	25.041767
6.490000	25.041767
6.500000	25.050170
6.510000	25.050170
6.520000	25.050170
6.530000	25.050170
6.540000	25.050170
6.550000	25.050170
6.560000	25.050170
6.570000	25.050170
6.580000	25.050170
6.590000	25.050170
6.600000	25.050170
6.610000	25.050170
6.620000	25.050170
6.630000	25.050170
6.640000	25.050170
6.650000	25.050170
6.660000	25.050170
6.670000	25.050170
6.680000	25.050170
6.690000	25.050170
6.700000	25.050170
6.710000	25.050170
6.720000	25.050170
6.730000	25.050170
6.740000	25.050170
6.750000	25.050170
6.760000	25.050170
6.770000	25.050170
6.780000	25.050170
6.790000	25.050170
6.800000	25.050170
6.810000	25.050170
6.820000	25.050170
6.830000	25.050170
6.840000	25.050170
6.850000	25.050170
6.860000	25.050170
6.870000	25.050170
6.880000	25.050170
6.890000	25.050170
6.900000	25.050170
6.910000	25.050170
6.920000	25.050170
6.930000	25.050170
6.940000	25.050170
6.950000	25.050170
6.960000	25.050170
6.970000	25.050170
6.980000	25.050170
6.990000	25.050170
7.000000	25.055771
7.010000	25.055771
7.020000	25.055771
7.030000	25.055771
7.040000	25.055771
7.050000	25.055771
7.060000	25.055771
7.070000	25.055771
7.080000	25.055771
7.090000	25.055771
7.100000	25.055771
7.110000	25.055771
7.120000	25.055771
7.130000	25.055771
7.140000	25.055771
7.150000	25.055771
7.160000	25.055771
7.170000	25.055771
7.180000	25.055771
7.190000	25.055771
7.200000	25.055771
7.210000	25.055771
7.220000	25.055771
7.230000	25.055771
7.240000	25.055771
7.250000	25.055771
7.260000	25.055771
7.270000	25.055771
7.280000	25.055771
7.290000	25.055771
7.300000	25.055771
7.310000	25.055771
7.320000	25.055771
7.330000	25.055771
7.340000	25.055771
7.350000	25.055771
7.360000	25.055771
7.370000	25.055771
7.380000	25.055771
7.390000	25.055771
7.400000	25.055771
7.410000	25.055771
7.420000	25.055771
7.430000	25.055771
7.440000	25.055771
7.450000	25.055771
7.460000	25.055771
7.470000	25.055771
7.480000	25.055771
7.490000	25.055771
7.500000	25.059373
7.510000	25.059373
7.520000	25.059373
7.530000	25.059373
7.540000	25.059373
7.550000	25.059373
7.560000	25.059373
7.570000	25.059373
7.580000	25.059373
7.590000	25.059373
7.600000	25.059373
7.610000	25.059373
7.620000	25.059373
7.630000	25.059373
7.640000	25.059373
7.650000	25.059373
7.660000	25.059373
7.670000	25.059373
7.680000	25.059373
7.690000	25.059373
7.700000	25.059373
7.710000	25.059373
7.720000	25.059373
7.730000	25.059373
7.740000	25.059373
7.750000	25.059373
7.760000	25.059373
7.770000	25.059373
7.780000	25.059373
7.790000	25.059373
7.800000	25.059373
7.810000	25.059373
7.820000	25.059373
7.830000	25.059373
7.840000	25.059373
7.850000	25.059373
7.860000	25.059373
7.870000	25.059373
7.880000	25.059373
7.890000	25.059373
7.900000	25.059373
7.910000	25.059373
7.920000	25.059373
7.930000	25.059373
7.940000	25.059373
7.950000	25.059373
7.960000	25.059373
7.970000	25.059373
7.980000	25.059373
7.990000	25.059373
8.000000	25.061010
8.010000	25.061010
8.020000	25.061010
8.030000	25.061010
8.040000	25.061010
8.050000	25.061010
8.060000	25.061010
8.070000	25.061010
8.080000	25.061010
8.090000	25.061010
8.100000	25.061010
8.110000	25.061010
8.120000	25.061010
8.130000	25.061010
8.140000	25.061010
8.150000	25.061010
8.160000	25.061010
8.170000	25.061010
8.180000	25.061010
8.190000	25.061010
8.200000	25.061010
8.210000	25.061010
8.220000	25.061010
8.230000	25.061010
8.240000	25.061010
8.250000	25.061010
8.260000	25.061010
8.270000	25.061010
8.280000	25.061010
8.290000	25.061010
8.300000	25.061010
8.310000	25.061010
8.320000	25.061010
8.330000	25.061010
8.340000	25.061010
8.350000	25.061010
8.360000	25.061010
8.370000	25.061010
8.380000	25.061010
8.390000	25.061010
8.400000	25.061010
8.410000	25.061010
8.420000	25.061010
8.430000	25.061010
8.440000	25.061010
8.450000	25.061010
8.460000	25.061010
8.470000	25.061010
8.480000	25.061010
8.490000	25.061010
8.500000	25.061001
8.510000	25.061001
8.520000	25.061001
8.530000	25.061001
8.540000	25.061001
8.550000	25.061001
8.560000	25.061001
8.570000	25.061001
8.580000	25.061001
8.590000	25.061001
8.600000	25.061001
8.610000	25.061001
8.620000	25.061001
8.630000	25.061001
8.640000	25.061001
8.650000	25.061001
8.660000	25.061001
8.670000	25.061001
8.680000	25.061001
8.690000	25.061001
8.700000	25.061001
8.710000	25.061001
8.720000	25.061001
8.730000	25.061001
8.740000	25.061001
8.750000	25.061001
8.760000	25.061001
8.770000	25.061001
8.780000	25.061001
8.790000	25.061001
8.800000	25.061001
8.810000	25.061001
8.820000	25.061001
8.830000	25.061001
8.840000	25.061001
8.850000	25.061001
8.860000	25.061001
8.870000	25.061001
8.880000	25.061001
8.890000	25.061001
8.900000	25.061001
8.910000	25.061001
8.920000	25.061001
8.930000	25.061001
8.940000	25.061001
8.950000	25.061001
8.960000	25.061001
8.970000	25.061001
8.980000	25.061001
8.990000	25.061001
9.000000	25.060200
9.010000	25.060200
9.020000	25.060200
9.030000	25.060200
9.040000	25.060200
9.050000	25.060200
9.060000	25.060200
9.070000	25.060200
9.080000	25.060200
9.090000	25.060200
9.100000	25.060200
9.110000	25.060200
9.120000	25.060200
9.130000	25.060200
9.140000	25.060200
9.150000	25.060200
9.160000	25.060200
9.170000	25.060200
9.180000	25.060200
9.190000	25.060200
9.200000	25.060200
9.210000	25.060200
9.220000	25.060200
9.230000	25.060200
9.240000	25.060200
9.250000	25.060200
9.260000	25.060200
9.270000	25.060200
9.280000	25.060200
9.290000	25.060200
9.300000	25.060200
9.310000	25.060200
9.320000	25.060200
9.330000	25.060200
9.340000	25.060200
9.350000	25.060200
9.360000	25.060200
9.370000	25.060200
9.380000	25.060200
9.390000	25.060200
9.400000	25.060200
9.410000	25.060200
9.420000	25.060200
9.430000	25.060200
9.440000	25.060200
9.450000	25.060200
9.460000	25.060200
9.470000	25.060200
9.480000	25.060200
9.490000	25.060200
9.500000	25.058287
9.510000	25.058287
9.520000	25.058287
9.530000	25.058287
9.540000	25.058287
9.550000	25.058287
9.560000	25.058287
9.570000	25.058287
9.580000	25.058287
9.590000	25.058287
9.600000	25.058287
9.610000	25.058287
9.620000	25.058287
9.630000	25.058287
9.640000	25.058287
9.650000	25.058287
9.660000	25.058287
9.670000	25.058287
9.680000	25.058287
9.690000	25.058287
9.700000	25.058287
9.710000	25.058287
9.720000	25.058287
9.730000	25.058287
9.740000	25.058287
9.750000	25.058287
9.760000	25.058287
9.770000	25.058287
9.780000	25.058287
9.790000	25.058287
9.800000	25.058287
9.810000	25.058287
9.820000	25.058287
9.830000	25.058287
9.840000	25.058287
9.850000	25.058287
9.860000	25.058287
9.870000	25.058287
9.880000	25.058287
9.890000	25.058287
9.900000	25.058287
9.910000	25.058287
9.920000	25.058287
9.930000	25.058287
9.940000	25.058287
9.950000	25.058287
9.960000	25.058287
9.970000	25.058287
9.980000	25.058287
9.990000	25.058287
10.000000	25.056176
10.010000	25.056176
10.020000	25.056176
10.030000	25.056176
10.040000	25.056176
10.050000	25.056176
10.060000	25.056176
10.070000	25.056176
10.080000	25.056176
10.090000	25.056176
10.100000	25.056176
10.110000	25.056176
10.120000	25.056176
10.130000	25.056176
10.140000	25.056176
10.150000	25.056176
10.160000	25.056176
10.170000	25.056176
10.180000	25.056176
10.190000	25.056176
10.200000	25.056176
10.210000	25.056176
10.220000	25.056176
10.230000	25.056176
10.240000	25.056176
10.250000	25.056176
10.260000	25.056176
10.270000	25.056176
10.280000	25.056176
10.290000	25.056176
10.300000	25.056176
10.310000	25.056176
10.320000	25.056176
10.330000	25.056176
10.340000	25.056176
10.350000	25.056176
10.360000	25.056176
10.370000	25.056176
10.380000	25.056176
10.390000	25.056176
10.400000	25.056176
10.410000	25.056176
10.420000	25.056176
10.430000	25.056176
10.440000	25.056176
10.450000	25.056176
10.460000	25.056176
10.470000	25.056176
10.480000	25.056176
10.490000	25.056176
10.500000	25.052643
10.510000	25.052643
10.520000	25.052643
10.530000	25.052643
10.540000	25.052643
10.550000	25.052643
10.560000	25.052643
10.570000	25.052643
10.580000	25.052643
10.590000	25.052643
10.600000	25.052643
10.610000	25.052643
10.620000	25.052643
10.630000	25.052643
10.640000	25.052643
10.650000	25.052643
10.660000	25.052643
10.670000	25.052643
10.680000	25.052643
10.690000	25.052643
10.700000	25.052643
10.710000	25.052643
10.720000	25.052643
10.730000	25.052643
10.740000	25.052643
10.750000	25.052643
10.760000	25.052643
10.770000	25.052643
10.780000	25.052643
10.790000	25.052643
10.800000	25.052643
10.810000	25.052643
10.820000	25.052643
10.830000	25.052643
10.840000	25.052643
10.850000	25.052643
10.860000	25.052643
10.870000	25.052643
10.880000	25.052643
10.890000	25.052643
10.900000	25.052643
10.910000	25.052643
10.920000	25.052643
10.930000	25.052643
10.940000	25.052643
10.950000	25.052643
10.960000	25.052643
10.970000	25.052643
10.980000	25.052643
10.990000	25.052643
11.000000	25.049334
11.010000	25.049334
11.020000	25.049334
11.030000	25.049334
11.040000	25.049334
11.050000	25.049334
11.060000	25.049334
11.070000	25.049334
11.080000	25.049334
11.090000	25.049334
11.100000	25.049334
11.110000	25.049334
11.120000	25.049334
11.130000	25.049334
11.140000	25.049334
11.150000	25.049334
11.160000	25.049334
11.170000	25.049334
11.180000	25.049334
11.190000	25.049334
11.200000	25.049334
11.210000	25.049334
11.220000	25.049334
11.230000	25.049334
11.240000	25.049334
11.250000	25.049334
11.260000	25.049334
11.270000	25.049334
11.280000	25.049334
11.290000	25.049334
11.300000	25.049334
11.310000	25.049334
11.320000	25.049334
11.330000	25.049334
11.340000	25.049334
11.350000	25.049334
11.360000	25.049334
11.370000	25.049334
11.380000	25.049334
11.390000	25.049334
11.400000	25.049334
11.410000	25.049334
11.420000	25.049334
11.430000	25.049334
11.440000	25.049334
11.450000	25.049334
11.460000	25.049334
11.470000	25.049334
11.480000	25.049334
11.490000	25.049334
11.500000	25.045232
11.510000	25.045232
11.520000	25.045232
11.530000	25.045232
11.540000	25.045232
11.550000	25.045232
11.560000	25.045232
11.570000	25.045232
11.580000	25.045232
11.590000	25.045232
11.600000	25.045232
11.610000	25.045232
11.620000	25.045232
11.630000	25.045232
11.640000	25.045232
11.650000	25.045232
11.660000	25.045232
11.670000	25.045232
11.680000	25.045232
11.690000	25.045232
11.700000	25.045232
11.710000	25.045232
11.720000	25.045232
11.730000	25.045232
11.740000	25.045232
11.750000	25.045232
11.760000	25.045232
11.770000	25.045232
11.780000	25.045232
11.790000	25.045232
11.800000	25.045232
11.810000	25.045232
11.820000	25.045232
11.830000	25.045232
11.840000	25.045232
11.850000	25.045232
11.860000	25.045232
11.870000	25.045232
11.880000	25.045232
11.890000	25.045232
11.900000	25.045232
11.910000	25.045232
11.920000	25.045232
11.930000	25.045232
11.940000	25.045232
11.950000	25.045232
11.960000	25.045232
11.970000	25.045232
11.980000	25.045232
11.990000	25.045232
12.000000	25.040397
12.010000	25.040397
12.020000	25.040397
12.030000	25.040397
12.040000	25.040397
12.050000	25.040397
12.060000	25.040397
12.070000	25.040397
12.080000	25.040397
12.090000	25.040397
12.100000	25.040397
12.110000	25.040397
12.120000	25.040397
12.130000	25.040397
12.140000	25.040397
12.150000	25.040397
12.160000	25.040397
12.170000	25.040397
12.180000	25.040397
12.190000	25.040397
12.200000	25.040397
12.210000	25.040397
12.220000	25.040397
12.230000	25.040397
12.240000	25.040397
12.250000	25.040397
12.260000	25.040397
12.270000	25.040397
12.280000	25.040397
12.290000	25.040397
12.300000	25.040397
12.310000	25.040397
12.320000	25.040397
12.330000	25.040397
12.340000	25.040397
12.350000	25.040397
12.360000	25.040397
12.370000	25.040397
12.380000	25.040397
12.390000	25.040397
12.400000	25.040397
12.410000	25.040397
12.420000	25.040397
12.430000	25.040397
12.440000	25.040397
12.450000	25.040397
12.460000	25.040397
12.470000	25.040397
12.480000	25.040397
12.490000	25.040397
12.500000	25.035915
12.510000	25.035915
12.520000	25.035915
12.530000	25.035915
12.540000	25.035915
12.550000	25.035915
12.560000	25.035915
12.570000	25.035915
12.580000	25.035915
12.590000	25.035915
12.600000	25.035915
12.610000	25.035915
12.620000	25.035915
12.630000	25.035915
12.640000	25.035915
12.650000	25.035915
12.660000	25.035915
12.670000	25.035915
12.680000	25.035915
12.690000	25.035915
12.700000	25.035915
12.710000	25.035915
12.720000	25.035915
12.730000	25.035915
12.740000	25.035915
12.750000	25.035915
12.760000	25.035915
12.770000	25.035915
12.780000	25.035915
12.790000	25.035915
12.800000	25.035915
12.810000	25.035915
12.820000	25.035915
12.830000	25.035915
12.840000	25.035915
12.850000	25.035915
12.860000	25.035915
12.870000	25.035915
12.880000	25.035915
12.890000	25.035915
12.900000	25.035915
12.910000	25.035915
12.920000	25.035915
12.930000	25.035915
12.940000	25.035915
12.950000	25.035915
12.960000	25.035915
12.970000	25.035915
12.980000	25.035915
12.990000	25.035915
13.000000	25.031087
13.010000	25.031087
13.020000	25.031087
13.030000	25.031087
13.040000	25.031087
13.050000	25.031087
13.060000	25.031087
13.070000	25.031087
13.080000	25.031087
13.090000	25.031087
13.100000	25.031087
13.110000	25.031087
13.120000	25.031087
13.130000	25.031087
13.140000	25.031087
13.150000	25.031087
13.160000	25.031087
13.170000	25.031087
13.180000	25.031087
13.190000	25.031087
13.200000	25.031087
13.210000	25.031087
13.220000	25.031087
13.230000	25.031087
13.240000	25.031087
13.250000	25.031087
13.260000	25.031087
13.270000	25.031087
13.280000	25.031087
13.290000	25.031087
13.300000	25.031087
13.310000	25.031087
13.320000	25.031087
13.330000	25.031087
13.340000	25.031087
13.350000	25.031087
13.360000	25.031087
13.370000	25.031087
13.380000	25.031087
13.390000	25.031087
13.400000	25.031087
13.410000	25.031087
13.420000	25.031087
13.430000	25.031087
13.440000	25.031087
13.450000	25.031087
13.460000	25.031087
13.470000	25.031087
13.480000	25.031087
13.490000	25.031087
13.500000	25.025949
13.510000	25.025949
13.520000	25.025949
13.530000	25.025949
13.540000	25.025949
13.550000	25.025949
13.560000	25.025949
13.570000	25.025949
13.580000	25.025949
13.590000	25.025949
13.600000	25.025949
13.610000	25.025949
13.620000	25.025949
13.630000	25.025949
13.640000	25.025949
13.650000	25.025949
13.660000	25.025949
13.670000	25.025949
13.680000	25.025949
13.690000	25.025949
13.700000	25.025949
13.710000	25.025949
13.720000	25.025949
13.730000	25.025949
13.740000	25.025949
13.750000	25.025949
13.760000	25.025949
13.770000	25.025949
13.780000	25.025949
13.790000	25.025949
13.800000	25.025949
13.810000	25.025949
13.820000	25.025949
13.830000	25.025949
13.840000	25.025949
13.850000	25.025949
13.860000	25.025949
13.870000	25.025949
13.880000	25.025949
13.890000	25.025949
13.900000	25.025949
13.910000	25.025949
13.920000	25.025949
13.930000	25.025949
13.940000	25.025949
13.950000	25.025949
13.960000	25.025949
13.970000	25.025949
13.980000	25.025949
13.990000	25.025949
14.000000	25.020698
14.010000	25.020698
14.020000	25.020698
14.030000	25.020698
14.040000	25.020698
14.050000	25.020698
14.060000	25.020698
14.070000	25.020698
14.080000	25.020698
14.090000	25.020698
14.100000	25.020698
14.110000	25.020698
14.120000	25.020698
14.130000	25.020698
14.140000	25.020698
14.150000	25.020698
14.160000	25.020698
14.170000	25.020698
14.180000	25.020698
14.190000	25.020698
14.200000	25.020698
14.210000	25.020698
14.220000	25.020698
14.230000	25.020698
14.240000	25.020698
14.250000	25.020698
14.260000	25.020698
14.270000	25.020698
14.280000	25.020698
14.290000	25.020698
14.300000	25.020698
14.310000	25.020698
14.320000	25.020698
14.330000	25.020698
14.340000	25.020698
14.350000	25.020698
14.360000	25.020698
14.370000	25.020698
14.380000	25.020698
14.390000	25.020698
14.400000	25.020698
14.410000	25.020698
14.420000	25.020698
14.430000	25.020698
14.440000	25.020698
14.450000	25.020698
14.460000	25.020698
14.470000	25.020698
14.480000	25.020698
14.490000	25.020698
14.500000	25.015636
14.510000	25.015636
14.520000	25.015636
14.530000	25.015636
14.540000	25.015636
14.550000	25.015636
14.560000	25.015636
14.570000	25.015636
14.580000	25.015636
14.590000	25.015636
14.600000	25.015636
14.610000	25.015636
14.620000	25.015636
14.630000	25.015636
14.640000	25.015636
14.650000	25.015636
14.660000	25.015636
14.670000	25.015636
14.680000	25.015636
14.690000	25.015636
14.700000	25.015636
14.710000	25.015636
14.720000	25.015636
14.730000	25.015636
14.740000	25.015636
14.750000	25.015636
14.760000	25.015636
14.770000	25.015636
14.780000	25.015636
14.790000	25.015636
14.800000	25.015636
14.810000	25.015636
14.820000	25.015636
14.830000	25.015636
14.840000	25.015636
14.850000	25.015636
14.860000	25.015636
14.870000	25.015636
14.880000	25.015636
14.890000	25.015636
14.900000	25.015636
14.910000	25.015636
14.920000	25.015636
14.930000	25.015636
14.940000	25.015636
14.950000	25.015636
14.960000	25.015636
14.970000	25.015636
14.980000	25.015636
14.990000	25.015636
15.000000	25.010583
15.010000	25.010583
15.020000	25.010583
15.030000	25.010583
15.040000	25.010583
15.050000	25.010583
15.060000	25.010583
15.070000	25.010583
15.080000	25.010583
15.090000	25.010583
15.100000	25.010583
15.110000	25.010583
15.120000	25.010583
15.130000	25.010583
15.140000	25.010583
15.150000	25.010583
15.160000	25.010583
15.170000	25.010583
15.180000	25.010583
15.190000	25.010583
15.200000	25.010583
15.210000	25.010583
15.220000	25.010583
15.230000	25.010583
15.240000	25.010583
15.250000	25.010583
15.260000	25.010583
15.270000	25.010583
15.280000	25.010583
15.290000	25.010583
15.300000	25.010583
15.310000	25.010583
15.320000	25.010583
15.330000	25.010583
15.340000	25.010583
15.350000	25.010583
15.360000	25.010583
15.370000	25.010583
15.380000	25.010583
15.390000	25.010583
15.400000	25.010583
15.410000	25.010583
15.420000	25.010583
15.430000	25.010583
15.440000	25.010583
15.450000	25.010583
15.460000	25.010583
15.470000	25.010583
15.480000	25.010583
15.490000	25.010583
15.500000	25.004769
15.510000	25.004769
15.520000	25.004769
15.530000	25.004769
15.540000	25.004769
15.550000	25.004769
15.560000	25.004769
15.570000	25.004769
15.580000	25.004769
15.590000	25.004769
15.600000	25.004769
15.610000	25.004769
15.620000	25.004769
15.630000	25.004769
15.640000	25.004769
15.650000	25.004769
15.660000	25.004769
15.670000	25.004769
15.680000	25.004769
15.690000	25.004769
15.700000	25.004769
15.710000	25.004769
15.720000	25.004769
15.730000	25.004769
15.740000	25.004769
15.750000	25.004769
15.760000	25.004769
15.770000	25.004769
15.780000	25.004769
15.790000	25.004769
15.800000	25.004769
15.810000	25.004769
15.820000	25.004769
15.830000	25.004769
15.840000	25.004769
15.850000	25.004769
15.860000	25.004769
15.870000	25.004769
15.880000	25.004769
15.890000	25.004769
15.900000	25.004769
15.910000	25.004769
15.920000	25.004769
15.930000	25.004769
15.940000	25.004769
15.950000	25.004769
15.960000	25.004769
15.970000	25.004769
15.980000	25.004769
15.990000	25.004769
16.000000	24.999378
16.010000	24.999378
16.020000	24.999378
16.030000	24.999378
16.040000	24.999378
16.050000	24.999378
16.060000	24.999378
16.070000	24.999378
16.080000	24.999378
16.090000	24.999378
16.100000	24.999378
16.110000	24.999378
16.120000	24.999378
16.130000	24.999378
16.140000	24.999378
16.150000	24.999378
16.160000	24.999378
16.170000	24.999378
16.180000	24.999378
16.190000	24.999378
16.200000	24.999378
16.210000	24.999378
16.220000	24.999378
16.230000	24.999378
16.240000	24.999378
16.250000	24.999378
16.260000	24.999378
16.270000	24.999378
16.280000	24.999378
16.290000	24.999378
16.300000	24.999378
16.310000	24.999378
16.320000	24.999378
16.330000	24.999378
16.340000	24.999378
16.350000	24.999378
16.360000	24.999378
16.370000	24.999378
16.380000	24.999378
16.390000	24.999378
16.400000	24.999378
16.410000	24.999378
16.420000	24.999378
16.430000	24.999378
16.440000	24.999378
16.450000	24.999378
16.460000	24.999378
16.470000	24.999378
16.480000	24.999378
16.490000	24.999378
16.500000	24.993779
16.510000	24.993779
16.520000	24.993779
16.530000	24.993779
16.540000	24.993779
16.550000	24.993779
16.560000	24.993779
16.570000	24.993779
16.580000	24.993779
16.590000	24.993779
16.600000	24.993779
16.610000	24.993779
16.620000	24.993779
16.630000	24.993779
16.640000	24.993779
16.650000	24.993779
16.660000	24.993779
16.670000	24.993779
16.680000	24.993779
16.690000	24.993779
16.700000	24.993779
16.710000	24.993779
16.720000	24.993779
16.730000	24.993779
16.740000	24.993779
16.750000	24.993779
16.760000	24.993779
16.770000	24.993779
16.780000	24.993779
16.790000	24.993779
16.800000	24.993779
16.810000	24.993779
16.820000	24.993779
16.830000	24.993779
16.840000	24.993779
16.850000	24.993779
16.860000	24.993779
16.870000	24.993779
16.880000	24.993779
16.890000	24.993779
16.900000	24.993779
16.910000	24.993779
16.920000	24.993779
16.930000	24.993779
16.940000	24.993779
16.950000	24.993779
16.960000	24.993779
16.970000	24.993779
16.980000	24.993779
16.990000	24.993779
17.000000	24.988585
17.010000	24.988585
17.020000	24.988585
17.030000	24.988585
17.040000	24.988585
17.050000	24.988585
17.060000	24.988585
17.070000	24.988585
17.080000	24.988585
17.090000	24.988585
17.100000	24.988585
17.110000	24.988585
17.120000	24.988585
17.130000	24.988585
17.140000	24.988585
17.150000	24.988585
17.160000	24.988585
17.170000	24.988585
17.180000	24.988585
17.190000	24.988585
17.200000	24.988585
17.210000	24.988585
17.220000	24.988585
17.230000	24.988585
17.240000	24.988585
17.250000	24.988585
17.260000	24.988585
17.270000	24.988585
17.280000	24.988585
17.290000	24.988585
17.300000	24.988585
17.310000	24.988585
17.320000	24.988585
17.330000	24.988585
17.340000	24.988585
17.350000	24.988585
17.360000	24.988585
17.370000	24.988585
17.380000	24.988585
17.390000	24.988585
17.400000	24.988585
17.410000	24.988585
17.420000	24.988585
17.430000	24.988585
17.440000	24.988585
17.450000	24.988585
17.460000	24.988585
17.470000	24.988585
17.480000	24.988585
17.490000	24.988585
17.500000	24.982657
17.510000	24.982657
17.520000	24.982657
17.530000	24.982657
17.540000	24.982657
17.550000	24.982657
17.560000	24.982657
17.570000	24.982657
17.580000	24.982657
17.590000	24.982657
17.600000	24.982657
17.610000	24.982657
17.620000	24.982657
17.630000	24.982657
17.640000	24.982657
17.650000	24.982657
17.660000	24.982657
17.670000	24.982657
17.680000	24.982657
17.690000	24.982657
17.700000	24.982657
17.710000	24.982657
17.720000	24.982657
17.730000	24.982657
17.740000	24.982657
17.750000	24.982657
17.760000	24.982657
17.770000	24.982657
17.780000	24.982657
17.790000	24.982657
17.800000	24.982657
17.810000	24.982657
17.820000	24.982657
17.830000	24.982657
17.840000	24.982657
17.850000	24.982657
17.860000	24.982657
17.870000	24.982657
17.880000	24.982657
17.890000	24.982657
17.900000	24.982657
17.910000	24.982657
17.920000	24.982657
17.930000	24.982657
17.940000	24.982657
17.950000	24.982657
17.960000	24.982657
17.970000	24.982657
17.980000	24.982657
17.990000	24.982657
