LabVIEW Measurement	
Writer_Version	2
Reader_Version	2
Separator	Tab
Decimal_Separator	.
Multi_Headings	No
X_Columns	One
Time_Pref	Absolute
Operator	biomech-dyno
Date	2023/05/23
Time	16:26:31.1792034999998606061
***End_of_Header***	
	
Channels	1	
Samples	10	
Date	2023/05/23	
Time	18:44:35.3124221999997916263	
X_Dimension	Time	
X0	0.0000000000000000E+0	
Delta_X	0.010000	
***End_of_Header***		
X_Value	Untitled	Comment
0.000000	25.152446
0.010000	25.152446
0.020000	25.152446
0.030000	25.152446
0.040000	25.152446
0.050000	25.152446
0.060000	25.152446
0.070000	25.152446
0.080000	25.152446
0.090000	25.152446
0.100000	25.152446
0.110000	25.152446
0.120000	25.152446
0.130000	25.152446
0.140000	25.152446
0.150000	25.152446
0.160000	25.152446
0.170000	25.152446
0.180000	25.152446
0.190000	25.152446
0.200000	25.152446
0.210000	25.152446
0.220000	25.152446
0.230000	25.152446
0.240000	25.152446
0.250000	25.152446
0.260000	25.152446
0.270000	25.152446
0.280000	25.152446
0.290000	25.152446
0.300000	25.152446
0.310000	25.152446
0.320000	25.152446
0.330000	25.152446
0.340000	25.152446
0.350000	25.152446
0.360000	25.152446
0.370000	25.152446
0.380000	25.152446
0.390000	25.152446
0.400000	25.152446
0.410000	25.152446
0.420000	25.152446
0.430000	25.152446
0.440000	25.152446
0.450000	25.152446
0.460000	25.152446
0.470000	25.152446
0.480000	25.152446
0.490000	25.152446
0.500000	25.208746
0.510000	25.208746
0.520000	25.208746
0.530000	25.208746
0.540000	25.208746
0.550000	25.208746
0.560000	25.208746
0.570000	25.208746
0.580000	25.208746
0.590000	25.208746
0.600000	25.208746
0.610000	25.208746
0.620000	25.208746
0.630000	25.208746
0.640000	25.208746
0.650000	25.208746
0.660000	25.208746
0.670000	25.208746
0.680000	25.208746
0.690000	25.208746
0.700000	25.208746
0.710000	25.208746
0.720000	25.208746
0.730000	25.208746
0.740000	25.208746
0.750000	25.208746
0.760000	25.208746
0.770000	25.208746
0.780000	25.208746
0.790000	25.208746
0.800000	25.208746
0.810000	25.208746
0.820000	25.208746
0.830000	25.208746
0.840000	25.208746
0.850000	25.208746
0.860000	25.208746
0.870000	25.208746
0.880000	25.208746
0.890000	25.208746
0.900000	25.208746
0.910000	25.208746
0.920000	25.208746
0.930000	25.208746
0.940000	25.208746
0.950000	25.208746
0.960000	25.208746
0.970000	25.208746
0.980000	25.208746
0.990000	25.208746
1.000000	25.794632
1.010000	25.794632
1.020000	25.794632
1.030000	25.794632
1.040000	25.794632
1.050000	25.794632
1.060000	25.794632
1.070000	25.794632
1.080000	25.794632
1.090000	25.794632
1.100000	25.794632
1.110000	25.794632
1.120000	25.794632
1.130000	25.794632
1.140000	25.794632
1.150000	25.794632
1.160000	25.794632
1.170000	25.794632
1.180000	25.794632
1.190000	25.794632
1.200000	25.794632
1.210000	25.794632
1.220000	25.794632
1.230000	25.794632
1.240000	25.794632
1.250000	25.794632
1.260000	25.794632
1.270000	25.794632
1.280000	25.794632
1.290000	25.794632
1.300000	25.794632
1.310000	25.794632
1.320000	25.794632
1.330000	25.794632
1.340000	25.794632
1.350000	25.794632
1.360000	25.794632
1.370000	25.794632
1.380000	25.794632
1.390000	25.794632
1.400000	25.794632
1.410000	25.794632
1.420000	25.794632
1.430000	25.794632
1.440000	25.794632
1.450000	25.794632
1.460000	25.794632
1.470000	25.794632
1.480000	25.794632
1.490000	25.794632
1.500000	27.170293
1.510000	27.170293
1.520000	27.170293
1.530000	27.170293
1.540000	27.170293
1.550000	27.170293
1.560000	27.170293
1.570000	27.170293
1.580000	27.170293
1.590000	27.170293
1.600000	27.170293
1.610000	27.170293
1.620000	27.170293
1.630000	27.170293
1.640000	27.170293
1.650000	27.170293
1.660000	27.170293
1.670000	27.170293
1.680000	27.170293
1.690000	27.170293
1.700000	27.170293
1.710000	27.170293
1.720000	27.170293
1.730000	27.170293
1.740000	27.170293
1.750000	27.170293
1.760000	27.170293
1.770000	27.170293
1.780000	27.170293
1.790000	27.170293
1.800000	27.170293
1.810000	27.170293
1.820000	27.170293
1.830000	27.170293
1.840000	27.170293
1.850000	27.170293
1.860000	27.170293
1.870000	27.170293
1.880000	27.170293
1.890000	27.170293
1.900000	27.170293
1.910000	27.170293
1.920000	27.170293
1.930000	27.170293
1.940000	27.170293
1.950000	27.170293
1.960000	27.170293
1.970000	27.170293
1.980000	27.170293
1.990000	27.170293
2.000000	29.215373
2.010000	29.215373
2.020000	29.215373
2.030000	29.215373
2.040000	29.215373
2.050000	29.215373
2.060000	29.215373
2.070000	29.215373
2.080000	29.215373
2.090000	29.215373
2.100000	29.215373
2.110000	29.215373
2.120000	29.215373
2.130000	29.215373
2.140000	29.215373
2.150000	29.215373
2.160000	29.215373
2.170000	29.215373
2.180000	29.215373
2.190000	29.215373
2.200000	29.215373
2.210000	29.215373
2.220000	29.215373
2.230000	29.215373
2.240000	29.215373
2.250000	29.215373
2.260000	29.215373
2.270000	29.215373
2.280000	29.215373
2.290000	29.215373
2.300000	29.215373
2.310000	29.215373
2.320000	29.215373
2.330000	29.215373
2.340000	29.215373
2.350000	29.215373
2.360000	29.215373
2.370000	29.215373
2.380000	29.215373
2.390000	29.215373
2.400000	29.215373
2.410000	29.215373
2.420000	29.215373
2.430000	29.215373
2.440000	29.215373
2.450000	29.215373
2.460000	29.215373
2.470000	29.215373
2.480000	29.215373
2.490000	29.215373
2.500000	31.753958
2.510000	31.753958
2.520000	31.753958
2.530000	31.753958
2.540000	31.753958
2.550000	31.753958
2.560000	31.753958
2.570000	31.753958
2.580000	31.753958
2.590000	31.753958
2.600000	31.753958
2.610000	31.753958
2.620000	31.753958
2.630000	31.753958
2.640000	31.753958
2.650000	31.753958
2.660000	31.753958
2.670000	31.753958
2.680000	31.753958
2.690000	31.753958
2.700000	31.753958
2.710000	31.753958
2.720000	31.753958
2.730000	31.753958
2.740000	31.753958
2.750000	31.753958
2.760000	31.753958
2.770000	31.753958
2.780000	31.753958
2.790000	31.753958
2.800000	31.753958
2.810000	31.753958
2.820000	31.753958
2.830000	31.753958
2.840000	31.753958
2.850000	31.753958
2.860000	31.753958
2.870000	31.753958
2.880000	31.753958
2.890000	31.753958
2.900000	31.753958
2.910000	31.753958
2.920000	31.753958
2.930000	31.753958
2.940000	31.753958
2.950000	31.753958
2.960000	31.753958
2.970000	31.753958
2.980000	31.753958
2.990000	31.753958
3.000000	34.685696
3.010000	34.685696
3.020000	34.685696
3.030000	34.685696
3.040000	34.685696
3.050000	34.685696
3.060000	34.685696
3.070000	34.685696
3.080000	34.685696
3.090000	34.685696
3.100000	34.685696
3.110000	34.685696
3.120000	34.685696
3.130000	34.685696
3.140000	34.685696
3.150000	34.685696
3.160000	34.685696
3.170000	34.685696
3.180000	34.685696
3.190000	34.685696
3.200000	34.685696
3.210000	34.685696
3.220000	34.685696
3.230000	34.685696
3.240000	34.685696
3.250000	34.685696
3.260000	34.685696
3.270000	34.685696
3.280000	34.685696
3.290000	34.685696
3.300000	34.685696
3.310000	34.685696
3.320000	34.685696
3.330000	34.685696
3.340000	34.685696
3.350000	34.685696
3.360000	34.685696
3.370000	34.685696
3.380000	34.685696
3.390000	34.685696
3.400000	34.685696
3.410000	34.685696
3.420000	34.685696
3.430000	34.685696
3.440000	34.685696
3.450000	34.685696
3.460000	34.685696
3.470000	34.685696
3.480000	34.685696
3.490000	34.685696
3.500000	37.746577
3.510000	37.746577
3.520000	37.746577
3.530000	37.746577
3.540000	37.746577
3.550000	37.746577
3.560000	37.746577
3.570000	37.746577
3.580000	37.746577
3.590000	37.746577
3.600000	37.746577
3.610000	37.746577
3.620000	37.746577
3.630000	37.746577
3.640000	37.746577
3.650000	37.746577
3.660000	37.746577
3.670000	37.746577
3.680000	37.746577
3.690000	37.746577
3.700000	37.746577
3.710000	37.746577
3.720000	37.746577
3.730000	37.746577
3.740000	37.746577
3.750000	37.746577
3.760000	37.746577
3.770000	37.746577
3.780000	37.746577
3.790000	37.746577
3.800000	37.746577
3.810000	37.746577
3.820000	37.746577
3.830000	37.746577
3.840000	37.746577
3.850000	37.746577
3.860000	37.746577
3.870000	37.746577
3.880000	37.746577
3.890000	37.746577
3.900000	37.746577
3.910000	37.746577
3.920000	37.746577
3.930000	37.746577
3.940000	37.746577
3.950000	37.746577
3.960000	37.746577
3.970000	37.746577
3.980000	37.746577
3.990000	37.746577
4.000000	40.314149
4.010000	40.314149
4.020000	40.314149
4.030000	40.314149
4.040000	40.314149
4.050000	40.314149
4.060000	40.314149
4.070000	40.314149
4.080000	40.314149
4.090000	40.314149
4.100000	40.314149
4.110000	40.314149
4.120000	40.314149
4.130000	40.314149
4.140000	40.314149
4.150000	40.314149
4.160000	40.314149
4.170000	40.314149
4.180000	40.314149
4.190000	40.314149
4.200000	40.314149
4.210000	40.314149
4.220000	40.314149
4.230000	40.314149
4.240000	40.314149
4.250000	40.314149
4.260000	40.314149
4.270000	40.314149
4.280000	40.314149
4.290000	40.314149
4.300000	40.314149
4.310000	40.314149
4.320000	40.314149
4.330000	40.314149
4.340000	40.314149
4.350000	40.314149
4.360000	40.314149
4.370000	40.314149
4.380000	40.314149
4.390000	40.314149
4.400000	40.314149
4.410000	40.314149
4.420000	40.314149
4.430000	40.314149
4.440000	40.314149
4.450000	40.314149
4.460000	40.314149
4.470000	40.314149
4.480000	40.314149
4.490000	40.314149
4.500000	42.264839
4.510000	42.264839
4.520000	42.264839
4.530000	42.264839
4.540000	42.264839
4.550000	42.264839
4.560000	42.264839
4.570000	42.264839
4.580000	42.264839
4.590000	42.264839
4.600000	42.264839
4.610000	42.264839
4.620000	42.264839
4.630000	42.264839
4.640000	42.264839
4.650000	42.264839
4.660000	42.264839
4.670000	42.264839
4.680000	42.264839
4.690000	42.264839
4.700000	42.264839
4.710000	42.264839
4.720000	42.264839
4.730000	42.264839
4.740000	42.264839
4.750000	42.264839
4.760000	42.264839
4.770000	42.264839
4.780000	42.264839
4.790000	42.264839
4.800000	42.264839
4.810000	42.264839
4.820000	42.264839
4.830000	42.264839
4.840000	42.264839
4.850000	42.264839
4.860000	42.264839
4.870000	42.264839
4.880000	42.264839
4.890000	42.264839
4.900000	42.264839
4.910000	42.264839
4.920000	42.264839
4.930000	42.264839
4.940000	42.264839
4.950000	42.264839
4.960000	42.264839
4.970000	42.264839
4.980000	42.264839
4.990000	42.264839
5.000000	43.677906
5.010000	43.677906
5.020000	43.677906
5.030000	43.677906
5.040000	43.677906
5.050000	43.677906
5.060000	43.677906
5.070000	43.677906
5.080000	43.677906
5.090000	43.677906
5.100000	43.677906
5.110000	43.677906
5.120000	43.677906
5.130000	43.677906
5.140000	43.677906
5.150000	43.677906
5.160000	43.677906
5.170000	43.677906
5.180000	43.677906
5.190000	43.677906
5.200000	43.677906
5.210000	43.677906
5.220000	43.677906
5.230000	43.677906
5.240000	43.677906
5.250000	43.677906
5.260000	43.677906
5.270000	43.677906
5.280000	43.677906
5.290000	43.677906
5.300000	43.677906
5.310000	43.677906
5.320000	43.677906
5.330000	43.677906
5.340000	43.677906
5.350000	43.677906
5.360000	43.677906
5.370000	43.677906
5.380000	43.677906
5.390000	43.677906
5.400000	43.677906
5.410000	43.677906
5.420000	43.677906
5.430000	43.677906
5.440000	43.677906
5.450000	43.677906
5.460000	43.677906
5.470000	43.677906
5.480000	43.677906
5.490000	43.677906
5.500000	44.656092
5.510000	44.656092
5.520000	44.656092
5.530000	44.656092
5.540000	44.656092
5.550000	44.656092
5.560000	44.656092
5.570000	44.656092
5.580000	44.656092
5.590000	44.656092
5.600000	44.656092
5.610000	44.656092
5.620000	44.656092
5.630000	44.656092
5.640000	44.656092
5.650000	44.656092
5.660000	44.656092
5.670000	44.656092
5.680000	44.656092
5.690000	44.656092
5.700000	44.656092
5.710000	44.656092
5.720000	44.656092
5.730000	44.656092
5.740000	44.656092
5.750000	44.656092
5.760000	44.656092
5.770000	44.656092
5.780000	44.656092
5.790000	44.656092
5.800000	44.656092
5.810000	44.656092
5.820000	44.656092
5.830000	44.656092
5.840000	44.656092
5.850000	44.656092
5.860000	44.656092
5.870000	44.656092
5.880000	44.656092
5.890000	44.656092
5.900000	44.656092
5.910000	44.656092
5.920000	44.656092
5.930000	44.656092
5.940000	44.656092
5.950000	44.656092
5.960000	44.656092
5.970000	44.656092
5.980000	44.656092
5.990000	44.656092
6.000000	45.302645
6.010000	45.302645
6.020000	45.302645
6.030000	45.302645
6.040000	45.302645
6.050000	45.302645
6.060000	45.302645
6.070000	45.302645
6.080000	45.302645
6.090000	45.302645
6.100000	45.302645
6.110000	45.302645
6.120000	45.302645
6.130000	45.302645
6.140000	45.302645
6.150000	45.302645
6.160000	45.302645
6.170000	45.302645
6.180000	45.302645
6.190000	45.302645
6.200000	45.302645
6.210000	45.302645
6.220000	45.302645
6.230000	45.302645
6.240000	45.302645
6.250000	45.302645
6.260000	45.302645
6.270000	45.302645
6.280000	45.302645
6.290000	45.302645
6.300000	45.302645
6.310000	45.302645
6.320000	45.302645
6.330000	45.302645
6.340000	45.302645
6.350000	45.302645
6.360000	45.302645
6.370000	45.302645
6.380000	45.302645
6.390000	45.302645
6.400000	45.302645
6.410000	45.302645
6.420000	45.302645
6.430000	45.302645
6.440000	45.302645
6.450000	45.302645
6.460000	45.302645
6.470000	45.302645
6.480000	45.302645
6.490000	45.302645
6.500000	45.701578
6.510000	45.701578
6.520000	45.701578
6.530000	45.701578
6.540000	45.701578
6.550000	45.701578
6.560000	45.701578
6.570000	45.701578
6.580000	45.701578
6.590000	45.701578
6.600000	45.701578
6.610000	45.701578
6.620000	45.701578
6.630000	45.701578
6.640000	45.701578
6.650000	45.701578
6.660000	45.701578
6.670000	45.701578
6.680000	45.701578
6.690000	45.701578
6.700000	45.701578
6.710000	45.701578
6.720000	45.701578
6.730000	45.701578
6.740000	45.701578
6.750000	45.701578
6.760000	45.701578
6.770000	45.701578
6.780000	45.701578
6.790000	45.701578
6.800000	45.701578
6.810000	45.701578
6.820000	45.701578
6.830000	45.701578
6.840000	45.701578
6.850000	45.701578
6.860000	45.701578
6.870000	45.701578
6.880000	45.701578
6.890000	45.701578
6.900000	45.701578
6.910000	45.701578
6.920000	45.701578
6.930000	45.701578
6.940000	45.701578
6.950000	45.701578
6.960000	45.701578
6.970000	45.701578
6.980000	45.701578
6.990000	45.701578
7.000000	45.910040
7.010000	45.910040
7.020000	45.910040
7.030000	45.910040
7.040000	45.910040
7.050000	45.910040
7.060000	45.910040
7.070000	45.910040
7.080000	45.910040
7.090000	45.910040
7.100000	45.910040
7.110000	45.910040
7.120000	45.910040
7.130000	45.910040
7.140000	45.910040
7.150000	45.910040
7.160000	45.910040
7.170000	45.910040
7.180000	45.910040
7.190000	45.910040
7.200000	45.910040
7.210000	45.910040
7.220000	45.910040
7.230000	45.910040
7.240000	45.910040
7.250000	45.910040
7.260000	45.910040
7.270000	45.910040
7.280000	45.910040
7.290000	45.910040
7.300000	45.910040
7.310000	45.910040
7.320000	45.910040
7.330000	45.910040
7.340000	45.910040
7.350000	45.910040
7.360000	45.910040
7.370000	45.910040
7.380000	45.910040
7.390000	45.910040
7.400000	45.910040
7.410000	45.910040
7.420000	45.910040
7.430000	45.910040
7.440000	45.910040
7.450000	45.910040
7.460000	45.910040
7.470000	45.910040
7.480000	45.910040
7.490000	45.910040
7.500000	45.963865
7.510000	45.963865
7.520000	45.963865
7.530000	45.963865
7.540000	45.963865
7.550000	45.963865
7.560000	45.963865
7.570000	45.963865
7.580000	45.963865
7.590000	45.963865
7.600000	45.963865
7.610000	45.963865
7.620000	45.963865
7.630000	45.963865
7.640000	45.963865
7.650000	45.963865
7.660000	45.963865
7.670000	45.963865
7.680000	45.963865
7.690000	45.963865
7.700000	45.963865
7.710000	45.963865
7.720000	45.963865
7.730000	45.963865
7.740000	45.963865
7.750000	45.963865
7.760000	45.963865
7.770000	45.963865
7.780000	45.963865
7.790000	45.963865
7.800000	45.963865
7.810000	45.963865
7.820000	45.963865
7.830000	45.963865
7.840000	45.963865
7.850000	45.963865
7.860000	45.963865
7.870000	45.963865
7.880000	45.963865
7.890000	45.963865
7.900000	45.963865
7.910000	45.963865
7.920000	45.963865
7.930000	45.963865
7.940000	45.963865
7.950000	45.963865
7.960000	45.963865
7.970000	45.963865
7.980000	45.963865
7.990000	45.963865
8.000000	45.899424
8.010000	45.899424
8.020000	45.899424
8.030000	45.899424
8.040000	45.899424
8.050000	45.899424
8.060000	45.899424
8.070000	45.899424
8.080000	45.899424
8.090000	45.899424
8.100000	45.899424
8.110000	45.899424
8.120000	45.899424
8.130000	45.899424
8.140000	45.899424
8.150000	45.899424
8.160000	45.899424
8.170000	45.899424
8.180000	45.899424
8.190000	45.899424
8.200000	45.899424
8.210000	45.899424
8.220000	45.899424
8.230000	45.899424
8.240000	45.899424
8.250000	45.899424
8.260000	45.899424
8.270000	45.899424
8.280000	45.899424
8.290000	45.899424
8.300000	45.899424
8.310000	45.899424
8.320000	45.899424
8.330000	45.899424
8.340000	45.899424
8.350000	45.899424
8.360000	45.899424
8.370000	45.899424
8.380000	45.899424
8.390000	45.899424
8.400000	45.899424
8.410000	45.899424
8.420000	45.899424
8.430000	45.899424
8.440000	45.899424
8.450000	45.899424
8.460000	45.899424
8.470000	45.899424
8.480000	45.899424
8.490000	45.899424
8.500000	45.747542
8.510000	45.747542
8.520000	45.747542
8.530000	45.747542
8.540000	45.747542
8.550000	45.747542
8.560000	45.747542
8.570000	45.747542
8.580000	45.747542
8.590000	45.747542
8.600000	45.747542
8.610000	45.747542
8.620000	45.747542
8.630000	45.747542
8.640000	45.747542
8.650000	45.747542
8.660000	45.747542
8.670000	45.747542
8.680000	45.747542
8.690000	45.747542
8.700000	45.747542
8.710000	45.747542
8.720000	45.747542
8.730000	45.747542
8.740000	45.747542
8.750000	45.747542
8.760000	45.747542
8.770000	45.747542
8.780000	45.747542
8.790000	45.747542
8.800000	45.747542
8.810000	45.747542
8.820000	45.747542
8.830000	45.747542
8.840000	45.747542
8.850000	45.747542
8.860000	45.747542
8.870000	45.747542
8.880000	45.747542
8.890000	45.747542
8.900000	45.747542
8.910000	45.747542
8.920000	45.747542
8.930000	45.747542
8.940000	45.747542
8.950000	45.747542
8.960000	45.747542
8.970000	45.747542
8.980000	45.747542
8.990000	45.747542
9.000000	45.536266
9.010000	45.536266
9.020000	45.536266
9.030000	45.536266
9.040000	45.536266
9.050000	45.536266
9.060000	45.536266
9.070000	45.536266
9.080000	45.536266
9.090000	45.536266
9.100000	45.536266
9.110000	45.536266
9.120000	45.536266
9.130000	45.536266
9.140000	45.536266
9.150000	45.536266
9.160000	45.536266
9.170000	45.536266
9.180000	45.536266
9.190000	45.536266
9.200000	45.536266
9.210000	45.536266
9.220000	45.536266
9.230000	45.536266
9.240000	45.536266
9.250000	45.536266
9.260000	45.536266
9.270000	45.536266
9.280000	45.536266
9.290000	45.536266
9.300000	45.536266
9.310000	45.536266
9.320000	45.536266
9.330000	45.536266
9.340000	45.536266
9.350000	45.536266
9.360000	45.536266
9.370000	45.536266
9.380000	45.536266
9.390000	45.536266
9.400000	45.536266
9.410000	45.536266
9.420000	45.536266
9.430000	45.536266
9.440000	45.536266
9.450000	45.536266
9.460000	45.536266
9.470000	45.536266
9.480000	45.536266
9.490000	45.536266
9.500000	45.270412
9.510000	45.270412
9.520000	45.270412
9.530000	45.270412
9.540000	45.270412
9.550000	45.270412
9.560000	45.270412
9.570000	45.270412
9.580000	45.270412
9.590000	45.270412
9.600000	45.270412
9.610000	45.270412
9.620000	45.270412
9.630000	45.270412
9.640000	45.270412
9.650000	45.270412
9.660000	45.270412
9.670000	45.270412
9.680000	45.270412
9.690000	45.270412
9.700000	45.270412
9.710000	45.270412
9.720000	45.270412
9.730000	45.270412
9.740000	45.270412
9.750000	45.270412
9.760000	45.270412
9.770000	45.270412
9.780000	45.270412
9.790000	45.270412
9.800000	45.270412
9.810000	45.270412
9.820000	45.270412
9.830000	45.270412
9.840000	45.270412
9.850000	45.270412
9.860000	45.270412
9.870000	45.270412
9.880000	45.270412
9.890000	45.270412
9.900000	45.270412
9.910000	45.270412
9.920000	45.270412
9.930000	45.270412
9.940000	45.270412
9.950000	45.270412
9.960000	45.270412
9.970000	45.270412
9.980000	45.270412
9.990000	45.270412
10.000000	44.969006
10.010000	44.969006
10.020000	44.969006
10.030000	44.969006
10.040000	44.969006
10.050000	44.969006
10.060000	44.969006
10.070000	44.969006
10.080000	44.969006
10.090000	44.969006
10.100000	44.969006
10.110000	44.969006
10.120000	44.969006
10.130000	44.969006
10.140000	44.969006
10.150000	44.969006
10.160000	44.969006
10.170000	44.969006
10.180000	44.969006
10.190000	44.969006
10.200000	44.969006
10.210000	44.969006
10.220000	44.969006
10.230000	44.969006
10.240000	44.969006
10.250000	44.969006
10.260000	44.969006
10.270000	44.969006
10.280000	44.969006
10.290000	44.969006
10.300000	44.969006
10.310000	44.969006
10.320000	44.969006
10.330000	44.969006
10.340000	44.969006
10.350000	44.969006
10.360000	44.969006
10.370000	44.969006
10.380000	44.969006
10.390000	44.969006
10.400000	44.969006
10.410000	44.969006
10.420000	44.969006
10.430000	44.969006
10.440000	44.969006
10.450000	44.969006
10.460000	44.969006
10.470000	44.969006
10.480000	44.969006
10.490000	44.969006
10.500000	44.641477
10.510000	44.641477
10.520000	44.641477
10.530000	44.641477
10.540000	44.641477
10.550000	44.641477
10.560000	44.641477
10.570000	44.641477
10.580000	44.641477
10.590000	44.641477
10.600000	44.641477
10.610000	44.641477
10.620000	44.641477
10.630000	44.641477
10.640000	44.641477
10.650000	44.641477
10.660000	44.641477
10.670000	44.641477
10.680000	44.641477
10.690000	44.641477
10.700000	44.641477
10.710000	44.641477
10.720000	44.641477
10.730000	44.641477
10.740000	44.641477
10.750000	44.641477
10.760000	44.641477
10.770000	44.641477
10.780000	44.641477
10.790000	44.641477
10.800000	44.641477
10.810000	44.641477
10.820000	44.641477
10.830000	44.641477
10.840000	44.641477
10.850000	44.641477
10.860000	44.641477
10.870000	44.641477
10.880000	44.641477
10.890000	44.641477
10.900000	44.641477
10.910000	44.641477
10.920000	44.641477
10.930000	44.641477
10.940000	44.641477
10.950000	44.641477
10.960000	44.641477
10.970000	44.641477
10.980000	44.641477
10.990000	44.641477
11.000000	44.296299
11.010000	44.296299
11.020000	44.296299
11.030000	44.296299
11.040000	44.296299
11.050000	44.296299
11.060000	44.296299
11.070000	44.296299
11.080000	44.296299
11.090000	44.296299
11.100000	44.296299
11.110000	44.296299
11.120000	44.296299
11.130000	44.296299
11.140000	44.296299
11.150000	44.296299
11.160000	44.296299
11.170000	44.296299
11.180000	44.296299
11.190000	44.296299
11.200000	44.296299
11.210000	44.296299
11.220000	44.296299
11.230000	44.296299
11.240000	44.296299
11.250000	44.296299
11.260000	44.296299
11.270000	44.296299
11.280000	44.296299
11.290000	44.296299
11.300000	44.296299
11.310000	44.296299
11.320000	44.296299
11.330000	44.296299
11.340000	44.296299
11.350000	44.296299
11.360000	44.296299
11.370000	44.296299
11.380000	44.296299
11.390000	44.296299
11.400000	44.296299
11.410000	44.296299
11.420000	44.296299
11.430000	44.296299
11.440000	44.296299
11.450000	44.296299
11.460000	44.296299
11.470000	44.296299
11.480000	44.296299
11.490000	44.296299
11.500000	43.938107
11.510000	43.938107
11.520000	43.938107
11.530000	43.938107
11.540000	43.938107
11.550000	43.938107
11.560000	43.938107
11.570000	43.938107
11.580000	43.938107
11.590000	43.938107
11.600000	43.938107
11.610000	43.938107
11.620000	43.938107
11.630000	43.938107
11.640000	43.938107
11.650000	43.938107
11.660000	43.938107
11.670000	43.938107
11.680000	43.938107
11.690000	43.938107
11.700000	43.938107
11.710000	43.938107
11.720000	43.938107
11.730000	43.938107
11.740000	43.938107
11.750000	43.938107
11.760000	43.938107
11.770000	43.938107
11.780000	43.938107
11.790000	43.938107
11.800000	43.938107
11.810000	43.938107
11.820000	43.938107
11.830000	43.938107
11.840000	43.938107
11.850000	43.938107
11.860000	43.938107
11.870000	43.938107
11.880000	43.938107
11.890000	43.938107
11.900000	43.938107
11.910000	43.938107
11.920000	43.938107
11.930000	43.938107
11.940000	43.938107
11.950000	43.938107
11.960000	43.938107
11.970000	43.938107
11.980000	43.938107
11.990000	43.938107
12.000000	43.572601
12.010000	43.572601
12.020000	43.572601
12.030000	43.572601
12.040000	43.572601
12.050000	43.572601
12.060000	43.572601
12.070000	43.572601
12.080000	43.572601
12.090000	43.572601
12.100000	43.572601
12.110000	43.572601
12.120000	43.572601
12.130000	43.572601
12.140000	43.572601
12.150000	43.572601
12.160000	43.572601
12.170000	43.572601
12.180000	43.572601
12.190000	43.572601
12.200000	43.572601
12.210000	43.572601
12.220000	43.572601
12.230000	43.572601
12.240000	43.572601
12.250000	43.572601
12.260000	43.572601
12.270000	43.572601
12.280000	43.572601
12.290000	43.572601
12.300000	43.572601
12.310000	43.572601
12.320000	43.572601
12.330000	43.572601
12.340000	43.572601
12.350000	43.572601
12.360000	43.572601
12.370000	43.572601
12.380000	43.572601
12.390000	43.572601
12.400000	43.572601
12.410000	43.572601
12.420000	43.572601
12.430000	43.572601
12.440000	43.572601
12.450000	43.572601
12.460000	43.572601
12.470000	43.572601
12.480000	43.572601
12.490000	43.572601
12.500000	43.194800
12.510000	43.194800
12.520000	43.194800
12.530000	43.194800
12.540000	43.194800
12.550000	43.194800
12.560000	43.194800
12.570000	43.194800
12.580000	43.194800
12.590000	43.194800
12.600000	43.194800
12.610000	43.194800
12.620000	43.194800
12.630000	43.194800
12.640000	43.194800
12.650000	43.194800
12.660000	43.194800
12.670000	43.194800
12.680000	43.194800
12.690000	43.194800
12.700000	43.194800
12.710000	43.194800
12.720000	43.194800
12.730000	43.194800
12.740000	43.194800
12.750000	43.194800
12.760000	43.194800
12.770000	43.194800
12.780000	43.194800
12.790000	43.194800
12.800000	43.194800
12.810000	43.194800
12.820000	43.194800
12.830000	43.194800
12.840000	43.194800
12.850000	43.194800
12.860000	43.194800
12.870000	43.194800
12.880000	43.194800
12.890000	43.194800
12.900000	43.194800
12.910000	43.194800
12.920000	43.194800
12.930000	43.194800
12.940000	43.194800
12.950000	43.194800
12.960000	43.194800
12.970000	43.194800
12.980000	43.194800
12.990000	43.194800
13.000000	42.830125
13.010000	42.830125
13.020000	42.830125
13.030000	42.830125
13.040000	42.830125
13.050000	42.830125
13.060000	42.830125
13.070000	42.830125
13.080000	42.830125
13.090000	42.830125
13.100000	42.830125
13.110000	42.830125
13.120000	42.830125
13.130000	42.830125
13.140000	42.830125
13.150000	42.830125
13.160000	42.830125
13.170000	42.830125
13.180000	42.830125
13.190000	42.830125
13.200000	42.830125
13.210000	42.830125
13.220000	42.830125
13.230000	42.830125
13.240000	42.830125
13.250000	42.830125
13.260000	42.830125
13.270000	42.830125
13.280000	42.830125
13.290000	42.830125
13.300000	42.830125
13.310000	42.830125
13.320000	42.830125
13.330000	42.830125
13.340000	42.830125
13.350000	42.830125
13.360000	42.830125
13.370000	42.830125
13.380000	42.830125
13.390000	42.830125
13.400000	42.830125
13.410000	42.830125
13.420000	42.830125
13.430000	42.830125
13.440000	42.830125
13.450000	42.830125
13.460000	42.830125
13.470000	42.830125
13.480000	42.830125
13.490000	42.830125
13.500000	42.470593
13.510000	42.470593
13.520000	42.470593
13.530000	42.470593
13.540000	42.470593
13.550000	42.470593
13.560000	42.470593
13.570000	42.470593
13.580000	42.470593
13.590000	42.470593
13.600000	42.470593
13.610000	42.470593
13.620000	42.470593
13.630000	42.470593
13.640000	42.470593
13.650000	42.470593
13.660000	42.470593
13.670000	42.470593
13.680000	42.470593
13.690000	42.470593
13.700000	42.470593
13.710000	42.470593
13.720000	42.470593
13.730000	42.470593
13.740000	42.470593
13.750000	42.470593
13.760000	42.470593
13.770000	42.470593
13.780000	42.470593
13.790000	42.470593
13.800000	42.470593
13.810000	42.470593
13.820000	42.470593
13.830000	42.470593
13.840000	42.470593
13.850000	42.470593
13.860000	42.470593
13.870000	42.470593
13.880000	42.470593
13.890000	42.470593
13.900000	42.470593
13.910000	42.470593
13.920000	42.470593
13.930000	42.470593
13.940000	42.470593
13.950000	42.470593
13.960000	42.470593
13.970000	42.470593
13.980000	42.470593
13.990000	42.470593
14.000000	42.115617
14.010000	42.115617
14.020000	42.115617
14.030000	42.115617
14.040000	42.115617
14.050000	42.115617
14.060000	42.115617
14.070000	42.115617
14.080000	42.115617
14.090000	42.115617
14.100000	42.115617
14.110000	42.115617
14.120000	42.115617
14.130000	42.115617
14.140000	42.115617
14.150000	42.115617
14.160000	42.115617
14.170000	42.115617
14.180000	42.115617
14.190000	42.115617
14.200000	42.115617
14.210000	42.115617
14.220000	42.115617
14.230000	42.115617
14.240000	42.115617
14.250000	42.115617
14.260000	42.115617
14.270000	42.115617
14.280000	42.115617
14.290000	42.115617
14.300000	42.115617
14.310000	42.115617
14.320000	42.115617
14.330000	42.115617
14.340000	42.115617
14.350000	42.115617
14.360000	42.115617
14.370000	42.115617
14.380000	42.115617
14.390000	42.115617
14.400000	42.115617
14.410000	42.115617
14.420000	42.115617
14.430000	42.115617
14.440000	42.115617
14.450000	42.115617
14.460000	42.115617
14.470000	42.115617
14.480000	42.115617
14.490000	42.115617
14.500000	41.763297
14.510000	41.763297
14.520000	41.763297
14.530000	41.763297
14.540000	41.763297
14.550000	41.763297
14.560000	41.763297
14.570000	41.763297
14.580000	41.763297
14.590000	41.763297
14.600000	41.763297
14.610000	41.763297
14.620000	41.763297
14.630000	41.763297
14.640000	41.763297
14.650000	41.763297
14.660000	41.763297
14.670000	41.763297
14.680000	41.763297
14.690000	41.763297
14.700000	41.763297
14.710000	41.763297
14.720000	41.763297
14.730000	41.763297
14.740000	41.763297
14.750000	41.763297
14.760000	41.763297
14.770000	41.763297
14.780000	41.763297
14.790000	41.763297
14.800000	41.763297
14.810000	41.763297
14.820000	41.763297
14.830000	41.763297
14.840000	41.763297
14.850000	41.763297
14.860000	41.763297
14.870000	41.763297
14.880000	41.763297
14.890000	41.763297
14.900000	41.763297
14.910000	41.763297
14.920000	41.763297
14.930000	41.763297
14.940000	41.763297
14.950000	41.763297
14.960000	41.763297
14.970000	41.763297
14.980000	41.763297
14.990000	41.763297
15.000000	41.420029
15.010000	41.420029
15.020000	41.420029
15.030000	41.420029
15.040000	41.420029
15.050000	41.420029
15.060000	41.420029
15.070000	41.420029
15.080000	41.420029
15.090000	41.420029
15.100000	41.420029
15.110000	41.420029
15.120000	41.420029
15.130000	41.420029
15.140000	41.420029
15.150000	41.420029
15.160000	41.420029
15.170000	41.420029
15.180000	41.420029
15.190000	41.420029
15.200000	41.420029
15.210000	41.420029
15.220000	41.420029
15.230000	41.420029
15.240000	41.420029
15.250000	41.420029
15.260000	41.420029
15.270000	41.420029
15.280000	41.420029
15.290000	41.420029
15.300000	41.420029
15.310000	41.420029
15.320000	41.420029
15.330000	41.420029
15.340000	41.420029
15.350000	41.420029
15.360000	41.420029
15.370000	41.420029
15.380000	41.420029
15.390000	41.420029
15.400000	41.420029
15.410000	41.420029
15.420000	41.420029
15.430000	41.420029
15.440000	41.420029
15.450000	41.420029
15.460000	41.420029
15.470000	41.420029
15.480000	41.420029
15.490000	41.420029
15.500000	41.084774
15.510000	41.084774
15.520000	41.084774
15.530000	41.084774
15.540000	41.084774
15.550000	41.084774
15.560000	41.084774
15.570000	41.084774
15.580000	41.084774
15.590000	41.084774
15.600000	41.084774
15.610000	41.084774
15.620000	41.084774
15.630000	41.084774
15.640000	41.084774
15.650000	41.084774
15.660000	41.084774
15.670000	41.084774
15.680000	41.084774
15.690000	41.084774
15.700000	41.084774
15.710000	41.084774
15.720000	41.084774
15.730000	41.084774
15.740000	41.084774
15.750000	41.084774
15.760000	41.084774
15.770000	41.084774
15.780000	41.084774
15.790000	41.084774
15.800000	41.084774
15.810000	41.084774
15.820000	41.084774
15.830000	41.084774
15.840000	41.084774
15.850000	41.084774
15.860000	41.084774
15.870000	41.084774
15.880000	41.084774
15.890000	41.084774
15.900000	41.084774
15.910000	41.084774
15.920000	41.084774
15.930000	41.084774
15.940000	41.084774
15.950000	41.084774
15.960000	41.084774
15.970000	41.084774
15.980000	41.084774
15.990000	41.084774
16.000000	40.755635
16.010000	40.755635
16.020000	40.755635
16.030000	40.755635
16.040000	40.755635
16.050000	40.755635
16.060000	40.755635
16.070000	40.755635
16.080000	40.755635
16.090000	40.755635
16.100000	40.755635
16.110000	40.755635
16.120000	40.755635
16.130000	40.755635
16.140000	40.755635
16.150000	40.755635
16.160000	40.755635
16.170000	40.755635
16.180000	40.755635
16.190000	40.755635
16.200000	40.755635
16.210000	40.755635
16.220000	40.755635
16.230000	40.755635
16.240000	40.755635
16.250000	40.755635
16.260000	40.755635
16.270000	40.755635
16.280000	40.755635
16.290000	40.755635
16.300000	40.755635
16.310000	40.755635
16.320000	40.755635
16.330000	40.755635
16.340000	40.755635
16.350000	40.755635
16.360000	40.755635
16.370000	40.755635
16.380000	40.755635
16.390000	40.755635
16.400000	40.755635
16.410000	40.755635
16.420000	40.755635
16.430000	40.755635
16.440000	40.755635
16.450000	40.755635
16.460000	40.755635
16.470000	40.755635
16.480000	40.755635
16.490000	40.755635
16.500000	40.436098
16.510000	40.436098
16.520000	40.436098
16.530000	40.436098
16.540000	40.436098
16.550000	40.436098
16.560000	40.436098
16.570000	40.436098
16.580000	40.436098
16.590000	40.436098
16.600000	40.436098
16.610000	40.436098
16.620000	40.436098
16.630000	40.436098
16.640000	40.436098
16.650000	40.436098
16.660000	40.436098
16.670000	40.436098
16.680000	40.436098
16.690000	40.436098
16.700000	40.436098
16.710000	40.436098
16.720000	40.436098
16.730000	40.436098
16.740000	40.436098
16.750000	40.436098
16.760000	40.436098
16.770000	40.436098
16.780000	40.436098
16.790000	40.436098
16.800000	40.436098
16.810000	40.436098
16.820000	40.436098
16.830000	40.436098
16.840000	40.436098
16.850000	40.436098
16.860000	40.436098
16.870000	40.436098
16.880000	40.436098
16.890000	40.436098
16.900000	40.436098
16.910000	40.436098
16.920000	40.436098
16.930000	40.436098
16.940000	40.436098
16.950000	40.436098
16.960000	40.436098
16.970000	40.436098
16.980000	40.436098
16.990000	40.436098
17.000000	40.125909
17.010000	40.125909
17.020000	40.125909
17.030000	40.125909
17.040000	40.125909
17.050000	40.125909
17.060000	40.125909
17.070000	40.125909
17.080000	40.125909
17.090000	40.125909
17.100000	40.125909
17.110000	40.125909
17.120000	40.125909
17.130000	40.125909
17.140000	40.125909
17.150000	40.125909
17.160000	40.125909
17.170000	40.125909
17.180000	40.125909
17.190000	40.125909
17.200000	40.125909
17.210000	40.125909
17.220000	40.125909
17.230000	40.125909
17.240000	40.125909
17.250000	40.125909
17.260000	40.125909
17.270000	40.125909
17.280000	40.125909
17.290000	40.125909
17.300000	40.125909
17.310000	40.125909
17.320000	40.125909
17.330000	40.125909
17.340000	40.125909
17.350000	40.125909
17.360000	40.125909
17.370000	40.125909
17.380000	40.125909
17.390000	40.125909
17.400000	40.125909
17.410000	40.125909
17.420000	40.125909
17.430000	40.125909
17.440000	40.125909
17.450000	40.125909
17.460000	40.125909
17.470000	40.125909
17.480000	40.125909
17.490000	40.125909
17.500000	39.824366
17.510000	39.824366
17.520000	39.824366
17.530000	39.824366
17.540000	39.824366
17.550000	39.824366
17.560000	39.824366
17.570000	39.824366
17.580000	39.824366
17.590000	39.824366
17.600000	39.824366
17.610000	39.824366
17.620000	39.824366
17.630000	39.824366
17.640000	39.824366
17.650000	39.824366
17.660000	39.824366
17.670000	39.824366
17.680000	39.824366
17.690000	39.824366
17.700000	39.824366
17.710000	39.824366
17.720000	39.824366
17.730000	39.824366
17.740000	39.824366
17.750000	39.824366
17.760000	39.824366
17.770000	39.824366
17.780000	39.824366
17.790000	39.824366
17.800000	39.824366
17.810000	39.824366
17.820000	39.824366
17.830000	39.824366
17.840000	39.824366
17.850000	39.824366
17.860000	39.824366
17.870000	39.824366
17.880000	39.824366
17.890000	39.824366
17.900000	39.824366
17.910000	39.824366
17.920000	39.824366
17.930000	39.824366
17.940000	39.824366
17.950000	39.824366
17.960000	39.824366
17.970000	39.824366
17.980000	39.824366
17.990000	39.824366
