LabVIEW Measurement	
Writer_Version	2
Reader_Version	2
Separator	Tab
Decimal_Separator	.
Multi_Headings	No
X_Columns	One
Time_Pref	Absolute
Operator	biomech-dyno
Date	2023/05/24
Time	15:19:49.9492761999999796612
***End_of_Header***	
	
Channels	1	
Samples	10	
Date	2023/05/24	
Time	15:22:06.0551477999999248415	
X_Dimension	Time	
X0	0.0000000000000000E+0	
Delta_X	0.010000	
***End_of_Header***		
X_Value	Untitled	Comment
0.000000	23.537515
0.010000	23.537515
0.020000	23.537515
0.030000	23.537515
0.040000	23.537515
0.050000	23.537515
0.060000	23.537515
0.070000	23.537515
0.080000	23.537515
0.090000	23.537515
0.100000	23.537515
0.110000	23.537515
0.120000	23.537515
0.130000	23.537515
0.140000	23.537515
0.150000	23.537515
0.160000	23.537515
0.170000	23.537515
0.180000	23.537515
0.190000	23.537515
0.200000	23.537515
0.210000	23.537515
0.220000	23.537515
0.230000	23.537515
0.240000	23.537515
0.250000	23.537515
0.260000	23.537515
0.270000	23.537515
0.280000	23.537515
0.290000	23.537515
0.300000	23.537515
0.310000	23.537515
0.320000	23.537515
0.330000	23.537515
0.340000	23.537515
0.350000	23.537515
0.360000	23.537515
0.370000	23.537515
0.380000	23.537515
0.390000	23.537515
0.400000	23.537515
0.410000	23.537515
0.420000	23.537515
0.430000	23.537515
0.440000	23.537515
0.450000	23.537515
0.460000	23.537515
0.470000	23.537515
0.480000	23.537515
0.490000	23.537515
0.500000	23.543798
0.510000	23.543798
0.520000	23.543798
0.530000	23.543798
0.540000	23.543798
0.550000	23.543798
0.560000	23.543798
0.570000	23.543798
0.580000	23.543798
0.590000	23.543798
0.600000	23.543798
0.610000	23.543798
0.620000	23.543798
0.630000	23.543798
0.640000	23.543798
0.650000	23.543798
0.660000	23.543798
0.670000	23.543798
0.680000	23.543798
0.690000	23.543798
0.700000	23.543798
0.710000	23.543798
0.720000	23.543798
0.730000	23.543798
0.740000	23.543798
0.750000	23.543798
0.760000	23.543798
0.770000	23.543798
0.780000	23.543798
0.790000	23.543798
0.800000	23.543798
0.810000	23.543798
0.820000	23.543798
0.830000	23.543798
0.840000	23.543798
0.850000	23.543798
0.860000	23.543798
0.870000	23.543798
0.880000	23.543798
0.890000	23.543798
0.900000	23.543798
0.910000	23.543798
0.920000	23.543798
0.930000	23.543798
0.940000	23.543798
0.950000	23.543798
0.960000	23.543798
0.970000	23.543798
0.980000	23.543798
0.990000	23.543798
1.000000	23.577563
1.010000	23.577563
1.020000	23.577563
1.030000	23.577563
1.040000	23.577563
1.050000	23.577563
1.060000	23.577563
1.070000	23.577563
1.080000	23.577563
1.090000	23.577563
1.100000	23.577563
1.110000	23.577563
1.120000	23.577563
1.130000	23.577563
1.140000	23.577563
1.150000	23.577563
1.160000	23.577563
1.170000	23.577563
1.180000	23.577563
1.190000	23.577563
1.200000	23.577563
1.210000	23.577563
1.220000	23.577563
1.230000	23.577563
1.240000	23.577563
1.250000	23.577563
1.260000	23.577563
1.270000	23.577563
1.280000	23.577563
1.290000	23.577563
1.300000	23.577563
1.310000	23.577563
1.320000	23.577563
1.330000	23.577563
1.340000	23.577563
1.350000	23.577563
1.360000	23.577563
1.370000	23.577563
1.380000	23.577563
1.390000	23.577563
1.400000	23.577563
1.410000	23.577563
1.420000	23.577563
1.430000	23.577563
1.440000	23.577563
1.450000	23.577563
1.460000	23.577563
1.470000	23.577563
1.480000	23.577563
1.490000	23.577563
1.500000	23.651055
1.510000	23.651055
1.520000	23.651055
1.530000	23.651055
1.540000	23.651055
1.550000	23.651055
1.560000	23.651055
1.570000	23.651055
1.580000	23.651055
1.590000	23.651055
1.600000	23.651055
1.610000	23.651055
1.620000	23.651055
1.630000	23.651055
1.640000	23.651055
1.650000	23.651055
1.660000	23.651055
1.670000	23.651055
1.680000	23.651055
1.690000	23.651055
1.700000	23.651055
1.710000	23.651055
1.720000	23.651055
1.730000	23.651055
1.740000	23.651055
1.750000	23.651055
1.760000	23.651055
1.770000	23.651055
1.780000	23.651055
1.790000	23.651055
1.800000	23.651055
1.810000	23.651055
1.820000	23.651055
1.830000	23.651055
1.840000	23.651055
1.850000	23.651055
1.860000	23.651055
1.870000	23.651055
1.880000	23.651055
1.890000	23.651055
1.900000	23.651055
1.910000	23.651055
1.920000	23.651055
1.930000	23.651055
1.940000	23.651055
1.950000	23.651055
1.960000	23.651055
1.970000	23.651055
1.980000	23.651055
1.990000	23.651055
2.000000	23.756806
2.010000	23.756806
2.020000	23.756806
2.030000	23.756806
2.040000	23.756806
2.050000	23.756806
2.060000	23.756806
2.070000	23.756806
2.080000	23.756806
2.090000	23.756806
2.100000	23.756806
2.110000	23.756806
2.120000	23.756806
2.130000	23.756806
2.140000	23.756806
2.150000	23.756806
2.160000	23.756806
2.170000	23.756806
2.180000	23.756806
2.190000	23.756806
2.200000	23.756806
2.210000	23.756806
2.220000	23.756806
2.230000	23.756806
2.240000	23.756806
2.250000	23.756806
2.260000	23.756806
2.270000	23.756806
2.280000	23.756806
2.290000	23.756806
2.300000	23.756806
2.310000	23.756806
2.320000	23.756806
2.330000	23.756806
2.340000	23.756806
2.350000	23.756806
2.360000	23.756806
2.370000	23.756806
2.380000	23.756806
2.390000	23.756806
2.400000	23.756806
2.410000	23.756806
2.420000	23.756806
2.430000	23.756806
2.440000	23.756806
2.450000	23.756806
2.460000	23.756806
2.470000	23.756806
2.480000	23.756806
2.490000	23.756806
2.500000	23.885893
2.510000	23.885893
2.520000	23.885893
2.530000	23.885893
2.540000	23.885893
2.550000	23.885893
2.560000	23.885893
2.570000	23.885893
2.580000	23.885893
2.590000	23.885893
2.600000	23.885893
2.610000	23.885893
2.620000	23.885893
2.630000	23.885893
2.640000	23.885893
2.650000	23.885893
2.660000	23.885893
2.670000	23.885893
2.680000	23.885893
2.690000	23.885893
2.700000	23.885893
2.710000	23.885893
2.720000	23.885893
2.730000	23.885893
2.740000	23.885893
2.750000	23.885893
2.760000	23.885893
2.770000	23.885893
2.780000	23.885893
2.790000	23.885893
2.800000	23.885893
2.810000	23.885893
2.820000	23.885893
2.830000	23.885893
2.840000	23.885893
2.850000	23.885893
2.860000	23.885893
2.870000	23.885893
2.880000	23.885893
2.890000	23.885893
2.900000	23.885893
2.910000	23.885893
2.920000	23.885893
2.930000	23.885893
2.940000	23.885893
2.950000	23.885893
2.960000	23.885893
2.970000	23.885893
2.980000	23.885893
2.990000	23.885893
3.000000	24.032138
3.010000	24.032138
3.020000	24.032138
3.030000	24.032138
3.040000	24.032138
3.050000	24.032138
3.060000	24.032138
3.070000	24.032138
3.080000	24.032138
3.090000	24.032138
3.100000	24.032138
3.110000	24.032138
3.120000	24.032138
3.130000	24.032138
3.140000	24.032138
3.150000	24.032138
3.160000	24.032138
3.170000	24.032138
3.180000	24.032138
3.190000	24.032138
3.200000	24.032138
3.210000	24.032138
3.220000	24.032138
3.230000	24.032138
3.240000	24.032138
3.250000	24.032138
3.260000	24.032138
3.270000	24.032138
3.280000	24.032138
3.290000	24.032138
3.300000	24.032138
3.310000	24.032138
3.320000	24.032138
3.330000	24.032138
3.340000	24.032138
3.350000	24.032138
3.360000	24.032138
3.370000	24.032138
3.380000	24.032138
3.390000	24.032138
3.400000	24.032138
3.410000	24.032138
3.420000	24.032138
3.430000	24.032138
3.440000	24.032138
3.450000	24.032138
3.460000	24.032138
3.470000	24.032138
3.480000	24.032138
3.490000	24.032138
3.500000	24.188886
3.510000	24.188886
3.520000	24.188886
3.530000	24.188886
3.540000	24.188886
3.550000	24.188886
3.560000	24.188886
3.570000	24.188886
3.580000	24.188886
3.590000	24.188886
3.600000	24.188886
3.610000	24.188886
3.620000	24.188886
3.630000	24.188886
3.640000	24.188886
3.650000	24.188886
3.660000	24.188886
3.670000	24.188886
3.680000	24.188886
3.690000	24.188886
3.700000	24.188886
3.710000	24.188886
3.720000	24.188886
3.730000	24.188886
3.740000	24.188886
3.750000	24.188886
3.760000	24.188886
3.770000	24.188886
3.780000	24.188886
3.790000	24.188886
3.800000	24.188886
3.810000	24.188886
3.820000	24.188886
3.830000	24.188886
3.840000	24.188886
3.850000	24.188886
3.860000	24.188886
3.870000	24.188886
3.880000	24.188886
3.890000	24.188886
3.900000	24.188886
3.910000	24.188886
3.920000	24.188886
3.930000	24.188886
3.940000	24.188886
3.950000	24.188886
3.960000	24.188886
3.970000	24.188886
3.980000	24.188886
3.990000	24.188886
4.000000	24.324448
4.010000	24.324448
4.020000	24.324448
4.030000	24.324448
4.040000	24.324448
4.050000	24.324448
4.060000	24.324448
4.070000	24.324448
4.080000	24.324448
4.090000	24.324448
4.100000	24.324448
4.110000	24.324448
4.120000	24.324448
4.130000	24.324448
4.140000	24.324448
4.150000	24.324448
4.160000	24.324448
4.170000	24.324448
4.180000	24.324448
4.190000	24.324448
4.200000	24.324448
4.210000	24.324448
4.220000	24.324448
4.230000	24.324448
4.240000	24.324448
4.250000	24.324448
4.260000	24.324448
4.270000	24.324448
4.280000	24.324448
4.290000	24.324448
4.300000	24.324448
4.310000	24.324448
4.320000	24.324448
4.330000	24.324448
4.340000	24.324448
4.350000	24.324448
4.360000	24.324448
4.370000	24.324448
4.380000	24.324448
4.390000	24.324448
4.400000	24.324448
4.410000	24.324448
4.420000	24.324448
4.430000	24.324448
4.440000	24.324448
4.450000	24.324448
4.460000	24.324448
4.470000	24.324448
4.480000	24.324448
4.490000	24.324448
4.500000	24.427626
4.510000	24.427626
4.520000	24.427626
4.530000	24.427626
4.540000	24.427626
4.550000	24.427626
4.560000	24.427626
4.570000	24.427626
4.580000	24.427626
4.590000	24.427626
4.600000	24.427626
4.610000	24.427626
4.620000	24.427626
4.630000	24.427626
4.640000	24.427626
4.650000	24.427626
4.660000	24.427626
4.670000	24.427626
4.680000	24.427626
4.690000	24.427626
4.700000	24.427626
4.710000	24.427626
4.720000	24.427626
4.730000	24.427626
4.740000	24.427626
4.750000	24.427626
4.760000	24.427626
4.770000	24.427626
4.780000	24.427626
4.790000	24.427626
4.800000	24.427626
4.810000	24.427626
4.820000	24.427626
4.830000	24.427626
4.840000	24.427626
4.850000	24.427626
4.860000	24.427626
4.870000	24.427626
4.880000	24.427626
4.890000	24.427626
4.900000	24.427626
4.910000	24.427626
4.920000	24.427626
4.930000	24.427626
4.940000	24.427626
4.950000	24.427626
4.960000	24.427626
4.970000	24.427626
4.980000	24.427626
4.990000	24.427626
5.000000	24.502980
5.010000	24.502980
5.020000	24.502980
5.030000	24.502980
5.040000	24.502980
5.050000	24.502980
5.060000	24.502980
5.070000	24.502980
5.080000	24.502980
5.090000	24.502980
5.100000	24.502980
5.110000	24.502980
5.120000	24.502980
5.130000	24.502980
5.140000	24.502980
5.150000	24.502980
5.160000	24.502980
5.170000	24.502980
5.180000	24.502980
5.190000	24.502980
5.200000	24.502980
5.210000	24.502980
5.220000	24.502980
5.230000	24.502980
5.240000	24.502980
5.250000	24.502980
5.260000	24.502980
5.270000	24.502980
5.280000	24.502980
5.290000	24.502980
5.300000	24.502980
5.310000	24.502980
5.320000	24.502980
5.330000	24.502980
5.340000	24.502980
5.350000	24.502980
5.360000	24.502980
5.370000	24.502980
5.380000	24.502980
5.390000	24.502980
5.400000	24.502980
5.410000	24.502980
5.420000	24.502980
5.430000	24.502980
5.440000	24.502980
5.450000	24.502980
5.460000	24.502980
5.470000	24.502980
5.480000	24.502980
5.490000	24.502980
5.500000	24.556427
5.510000	24.556427
5.520000	24.556427
5.530000	24.556427
5.540000	24.556427
5.550000	24.556427
5.560000	24.556427
5.570000	24.556427
5.580000	24.556427
5.590000	24.556427
5.600000	24.556427
5.610000	24.556427
5.620000	24.556427
5.630000	24.556427
5.640000	24.556427
5.650000	24.556427
5.660000	24.556427
5.670000	24.556427
5.680000	24.556427
5.690000	24.556427
5.700000	24.556427
5.710000	24.556427
5.720000	24.556427
5.730000	24.556427
5.740000	24.556427
5.750000	24.556427
5.760000	24.556427
5.770000	24.556427
5.780000	24.556427
5.790000	24.556427
5.800000	24.556427
5.810000	24.556427
5.820000	24.556427
5.830000	24.556427
5.840000	24.556427
5.850000	24.556427
5.860000	24.556427
5.870000	24.556427
5.880000	24.556427
5.890000	24.556427
5.900000	24.556427
5.910000	24.556427
5.920000	24.556427
5.930000	24.556427
5.940000	24.556427
5.950000	24.556427
5.960000	24.556427
5.970000	24.556427
5.980000	24.556427
5.990000	24.556427
6.000000	24.592494
6.010000	24.592494
6.020000	24.592494
6.030000	24.592494
6.040000	24.592494
6.050000	24.592494
6.060000	24.592494
6.070000	24.592494
6.080000	24.592494
6.090000	24.592494
6.100000	24.592494
6.110000	24.592494
6.120000	24.592494
6.130000	24.592494
6.140000	24.592494
6.150000	24.592494
6.160000	24.592494
6.170000	24.592494
6.180000	24.592494
6.190000	24.592494
6.200000	24.592494
6.210000	24.592494
6.220000	24.592494
6.230000	24.592494
6.240000	24.592494
6.250000	24.592494
6.260000	24.592494
6.270000	24.592494
6.280000	24.592494
6.290000	24.592494
6.300000	24.592494
6.310000	24.592494
6.320000	24.592494
6.330000	24.592494
6.340000	24.592494
6.350000	24.592494
6.360000	24.592494
6.370000	24.592494
6.380000	24.592494
6.390000	24.592494
6.400000	24.592494
6.410000	24.592494
6.420000	24.592494
6.430000	24.592494
6.440000	24.592494
6.450000	24.592494
6.460000	24.592494
6.470000	24.592494
6.480000	24.592494
6.490000	24.592494
6.500000	24.614918
6.510000	24.614918
6.520000	24.614918
6.530000	24.614918
6.540000	24.614918
6.550000	24.614918
6.560000	24.614918
6.570000	24.614918
6.580000	24.614918
6.590000	24.614918
6.600000	24.614918
6.610000	24.614918
6.620000	24.614918
6.630000	24.614918
6.640000	24.614918
6.650000	24.614918
6.660000	24.614918
6.670000	24.614918
6.680000	24.614918
6.690000	24.614918
6.700000	24.614918
6.710000	24.614918
6.720000	24.614918
6.730000	24.614918
6.740000	24.614918
6.750000	24.614918
6.760000	24.614918
6.770000	24.614918
6.780000	24.614918
6.790000	24.614918
6.800000	24.614918
6.810000	24.614918
6.820000	24.614918
6.830000	24.614918
6.840000	24.614918
6.850000	24.614918
6.860000	24.614918
6.870000	24.614918
6.880000	24.614918
6.890000	24.614918
6.900000	24.614918
6.910000	24.614918
6.920000	24.614918
6.930000	24.614918
6.940000	24.614918
6.950000	24.614918
6.960000	24.614918
6.970000	24.614918
6.980000	24.614918
6.990000	24.614918
7.000000	24.628239
7.010000	24.628239
7.020000	24.628239
7.030000	24.628239
7.040000	24.628239
7.050000	24.628239
7.060000	24.628239
7.070000	24.628239
7.080000	24.628239
7.090000	24.628239
7.100000	24.628239
7.110000	24.628239
7.120000	24.628239
7.130000	24.628239
7.140000	24.628239
7.150000	24.628239
7.160000	24.628239
7.170000	24.628239
7.180000	24.628239
7.190000	24.628239
7.200000	24.628239
7.210000	24.628239
7.220000	24.628239
7.230000	24.628239
7.240000	24.628239
7.250000	24.628239
7.260000	24.628239
7.270000	24.628239
7.280000	24.628239
7.290000	24.628239
7.300000	24.628239
7.310000	24.628239
7.320000	24.628239
7.330000	24.628239
7.340000	24.628239
7.350000	24.628239
7.360000	24.628239
7.370000	24.628239
7.380000	24.628239
7.390000	24.628239
7.400000	24.628239
7.410000	24.628239
7.420000	24.628239
7.430000	24.628239
7.440000	24.628239
7.450000	24.628239
7.460000	24.628239
7.470000	24.628239
7.480000	24.628239
7.490000	24.628239
7.500000	24.633524
7.510000	24.633524
7.520000	24.633524
7.530000	24.633524
7.540000	24.633524
7.550000	24.633524
7.560000	24.633524
7.570000	24.633524
7.580000	24.633524
7.590000	24.633524
7.600000	24.633524
7.610000	24.633524
7.620000	24.633524
7.630000	24.633524
7.640000	24.633524
7.650000	24.633524
7.660000	24.633524
7.670000	24.633524
7.680000	24.633524
7.690000	24.633524
7.700000	24.633524
7.710000	24.633524
7.720000	24.633524
7.730000	24.633524
7.740000	24.633524
7.750000	24.633524
7.760000	24.633524
7.770000	24.633524
7.780000	24.633524
7.790000	24.633524
7.800000	24.633524
7.810000	24.633524
7.820000	24.633524
7.830000	24.633524
7.840000	24.633524
7.850000	24.633524
7.860000	24.633524
7.870000	24.633524
7.880000	24.633524
7.890000	24.633524
7.900000	24.633524
7.910000	24.633524
7.920000	24.633524
7.930000	24.633524
7.940000	24.633524
7.950000	24.633524
7.960000	24.633524
7.970000	24.633524
7.980000	24.633524
7.990000	24.633524
8.000000	24.633220
8.010000	24.633220
8.020000	24.633220
8.030000	24.633220
8.040000	24.633220
8.050000	24.633220
8.060000	24.633220
8.070000	24.633220
8.080000	24.633220
8.090000	24.633220
8.100000	24.633220
8.110000	24.633220
8.120000	24.633220
8.130000	24.633220
8.140000	24.633220
8.150000	24.633220
8.160000	24.633220
8.170000	24.633220
8.180000	24.633220
8.190000	24.633220
8.200000	24.633220
8.210000	24.633220
8.220000	24.633220
8.230000	24.633220
8.240000	24.633220
8.250000	24.633220
8.260000	24.633220
8.270000	24.633220
8.280000	24.633220
8.290000	24.633220
8.300000	24.633220
8.310000	24.633220
8.320000	24.633220
8.330000	24.633220
8.340000	24.633220
8.350000	24.633220
8.360000	24.633220
8.370000	24.633220
8.380000	24.633220
8.390000	24.633220
8.400000	24.633220
8.410000	24.633220
8.420000	24.633220
8.430000	24.633220
8.440000	24.633220
8.450000	24.633220
8.460000	24.633220
8.470000	24.633220
8.480000	24.633220
8.490000	24.633220
8.500000	24.628117
8.510000	24.628117
8.520000	24.628117
8.530000	24.628117
8.540000	24.628117
8.550000	24.628117
8.560000	24.628117
8.570000	24.628117
8.580000	24.628117
8.590000	24.628117
8.600000	24.628117
8.610000	24.628117
8.620000	24.628117
8.630000	24.628117
8.640000	24.628117
8.650000	24.628117
8.660000	24.628117
8.670000	24.628117
8.680000	24.628117
8.690000	24.628117
8.700000	24.628117
8.710000	24.628117
8.720000	24.628117
8.730000	24.628117
8.740000	24.628117
8.750000	24.628117
8.760000	24.628117
8.770000	24.628117
8.780000	24.628117
8.790000	24.628117
8.800000	24.628117
8.810000	24.628117
8.820000	24.628117
8.830000	24.628117
8.840000	24.628117
8.850000	24.628117
8.860000	24.628117
8.870000	24.628117
8.880000	24.628117
8.890000	24.628117
8.900000	24.628117
8.910000	24.628117
8.920000	24.628117
8.930000	24.628117
8.940000	24.628117
8.950000	24.628117
8.960000	24.628117
8.970000	24.628117
8.980000	24.628117
8.990000	24.628117
9.000000	24.619640
9.010000	24.619640
9.020000	24.619640
9.030000	24.619640
9.040000	24.619640
9.050000	24.619640
9.060000	24.619640
9.070000	24.619640
9.080000	24.619640
9.090000	24.619640
9.100000	24.619640
9.110000	24.619640
9.120000	24.619640
9.130000	24.619640
9.140000	24.619640
9.150000	24.619640
9.160000	24.619640
9.170000	24.619640
9.180000	24.619640
9.190000	24.619640
9.200000	24.619640
9.210000	24.619640
9.220000	24.619640
9.230000	24.619640
9.240000	24.619640
9.250000	24.619640
9.260000	24.619640
9.270000	24.619640
9.280000	24.619640
9.290000	24.619640
9.300000	24.619640
9.310000	24.619640
9.320000	24.619640
9.330000	24.619640
9.340000	24.619640
9.350000	24.619640
9.360000	24.619640
9.370000	24.619640
9.380000	24.619640
9.390000	24.619640
9.400000	24.619640
9.410000	24.619640
9.420000	24.619640
9.430000	24.619640
9.440000	24.619640
9.450000	24.619640
9.460000	24.619640
9.470000	24.619640
9.480000	24.619640
9.490000	24.619640
9.500000	24.608909
9.510000	24.608909
9.520000	24.608909
9.530000	24.608909
9.540000	24.608909
9.550000	24.608909
9.560000	24.608909
9.570000	24.608909
9.580000	24.608909
9.590000	24.608909
9.600000	24.608909
9.610000	24.608909
9.620000	24.608909
9.630000	24.608909
9.640000	24.608909
9.650000	24.608909
9.660000	24.608909
9.670000	24.608909
9.680000	24.608909
9.690000	24.608909
9.700000	24.608909
9.710000	24.608909
9.720000	24.608909
9.730000	24.608909
9.740000	24.608909
9.750000	24.608909
9.760000	24.608909
9.770000	24.608909
9.780000	24.608909
9.790000	24.608909
9.800000	24.608909
9.810000	24.608909
9.820000	24.608909
9.830000	24.608909
9.840000	24.608909
9.850000	24.608909
9.860000	24.608909
9.870000	24.608909
9.880000	24.608909
9.890000	24.608909
9.900000	24.608909
9.910000	24.608909
9.920000	24.608909
9.930000	24.608909
9.940000	24.608909
9.950000	24.608909
9.960000	24.608909
9.970000	24.608909
9.980000	24.608909
9.990000	24.608909
10.000000	24.595922
10.010000	24.595922
10.020000	24.595922
10.030000	24.595922
10.040000	24.595922
10.050000	24.595922
10.060000	24.595922
10.070000	24.595922
10.080000	24.595922
10.090000	24.595922
10.100000	24.595922
10.110000	24.595922
10.120000	24.595922
10.130000	24.595922
10.140000	24.595922
10.150000	24.595922
10.160000	24.595922
10.170000	24.595922
10.180000	24.595922
10.190000	24.595922
10.200000	24.595922
10.210000	24.595922
10.220000	24.595922
10.230000	24.595922
10.240000	24.595922
10.250000	24.595922
10.260000	24.595922
10.270000	24.595922
10.280000	24.595922
10.290000	24.595922
10.300000	24.595922
10.310000	24.595922
10.320000	24.595922
10.330000	24.595922
10.340000	24.595922
10.350000	24.595922
10.360000	24.595922
10.370000	24.595922
10.380000	24.595922
10.390000	24.595922
10.400000	24.595922
10.410000	24.595922
10.420000	24.595922
10.430000	24.595922
10.440000	24.595922
10.450000	24.595922
10.460000	24.595922
10.470000	24.595922
10.480000	24.595922
10.490000	24.595922
10.500000	24.581540
10.510000	24.581540
10.520000	24.581540
10.530000	24.581540
10.540000	24.581540
10.550000	24.581540
10.560000	24.581540
10.570000	24.581540
10.580000	24.581540
10.590000	24.581540
10.600000	24.581540
10.610000	24.581540
10.620000	24.581540
10.630000	24.581540
10.640000	24.581540
10.650000	24.581540
10.660000	24.581540
10.670000	24.581540
10.680000	24.581540
10.690000	24.581540
10.700000	24.581540
10.710000	24.581540
10.720000	24.581540
10.730000	24.581540
10.740000	24.581540
10.750000	24.581540
10.760000	24.581540
10.770000	24.581540
10.780000	24.581540
10.790000	24.581540
10.800000	24.581540
10.810000	24.581540
10.820000	24.581540
10.830000	24.581540
10.840000	24.581540
10.850000	24.581540
10.860000	24.581540
10.870000	24.581540
10.880000	24.581540
10.890000	24.581540
10.900000	24.581540
10.910000	24.581540
10.920000	24.581540
10.930000	24.581540
10.940000	24.581540
10.950000	24.581540
10.960000	24.581540
10.970000	24.581540
10.980000	24.581540
10.990000	24.581540
11.000000	24.566456
11.010000	24.566456
11.020000	24.566456
11.030000	24.566456
11.040000	24.566456
11.050000	24.566456
11.060000	24.566456
11.070000	24.566456
11.080000	24.566456
11.090000	24.566456
11.100000	24.566456
11.110000	24.566456
11.120000	24.566456
11.130000	24.566456
11.140000	24.566456
11.150000	24.566456
11.160000	24.566456
11.170000	24.566456
11.180000	24.566456
11.190000	24.566456
11.200000	24.566456
11.210000	24.566456
11.220000	24.566456
11.230000	24.566456
11.240000	24.566456
11.250000	24.566456
11.260000	24.566456
11.270000	24.566456
11.280000	24.566456
11.290000	24.566456
11.300000	24.566456
11.310000	24.566456
11.320000	24.566456
11.330000	24.566456
11.340000	24.566456
11.350000	24.566456
11.360000	24.566456
11.370000	24.566456
11.380000	24.566456
11.390000	24.566456
11.400000	24.566456
11.410000	24.566456
11.420000	24.566456
11.430000	24.566456
11.440000	24.566456
11.450000	24.566456
11.460000	24.566456
11.470000	24.566456
11.480000	24.566456
11.490000	24.566456
11.500000	24.551098
11.510000	24.551098
11.520000	24.551098
11.530000	24.551098
11.540000	24.551098
11.550000	24.551098
11.560000	24.551098
11.570000	24.551098
11.580000	24.551098
11.590000	24.551098
11.600000	24.551098
11.610000	24.551098
11.620000	24.551098
11.630000	24.551098
11.640000	24.551098
11.650000	24.551098
11.660000	24.551098
11.670000	24.551098
11.680000	24.551098
11.690000	24.551098
11.700000	24.551098
11.710000	24.551098
11.720000	24.551098
11.730000	24.551098
11.740000	24.551098
11.750000	24.551098
11.760000	24.551098
11.770000	24.551098
11.780000	24.551098
11.790000	24.551098
11.800000	24.551098
11.810000	24.551098
11.820000	24.551098
11.830000	24.551098
11.840000	24.551098
11.850000	24.551098
11.860000	24.551098
11.870000	24.551098
11.880000	24.551098
11.890000	24.551098
11.900000	24.551098
11.910000	24.551098
11.920000	24.551098
11.930000	24.551098
11.940000	24.551098
11.950000	24.551098
11.960000	24.551098
11.970000	24.551098
11.980000	24.551098
11.990000	24.551098
12.000000	24.534289
12.010000	24.534289
12.020000	24.534289
12.030000	24.534289
12.040000	24.534289
12.050000	24.534289
12.060000	24.534289
12.070000	24.534289
12.080000	24.534289
12.090000	24.534289
12.100000	24.534289
12.110000	24.534289
12.120000	24.534289
12.130000	24.534289
12.140000	24.534289
12.150000	24.534289
12.160000	24.534289
12.170000	24.534289
12.180000	24.534289
12.190000	24.534289
12.200000	24.534289
12.210000	24.534289
12.220000	24.534289
12.230000	24.534289
12.240000	24.534289
12.250000	24.534289
12.260000	24.534289
12.270000	24.534289
12.280000	24.534289
12.290000	24.534289
12.300000	24.534289
12.310000	24.534289
12.320000	24.534289
12.330000	24.534289
12.340000	24.534289
12.350000	24.534289
12.360000	24.534289
12.370000	24.534289
12.380000	24.534289
12.390000	24.534289
12.400000	24.534289
12.410000	24.534289
12.420000	24.534289
12.430000	24.534289
12.440000	24.534289
12.450000	24.534289
12.460000	24.534289
12.470000	24.534289
12.480000	24.534289
12.490000	24.534289
12.500000	24.517474
12.510000	24.517474
12.520000	24.517474
12.530000	24.517474
12.540000	24.517474
12.550000	24.517474
12.560000	24.517474
12.570000	24.517474
12.580000	24.517474
12.590000	24.517474
12.600000	24.517474
12.610000	24.517474
12.620000	24.517474
12.630000	24.517474
12.640000	24.517474
12.650000	24.517474
12.660000	24.517474
12.670000	24.517474
12.680000	24.517474
12.690000	24.517474
12.700000	24.517474
12.710000	24.517474
12.720000	24.517474
12.730000	24.517474
12.740000	24.517474
12.750000	24.517474
12.760000	24.517474
12.770000	24.517474
12.780000	24.517474
12.790000	24.517474
12.800000	24.517474
12.810000	24.517474
12.820000	24.517474
12.830000	24.517474
12.840000	24.517474
12.850000	24.517474
12.860000	24.517474
12.870000	24.517474
12.880000	24.517474
12.890000	24.517474
12.900000	24.517474
12.910000	24.517474
12.920000	24.517474
12.930000	24.517474
12.940000	24.517474
12.950000	24.517474
12.960000	24.517474
12.970000	24.517474
12.980000	24.517474
12.990000	24.517474
13.000000	24.500261
13.010000	24.500261
13.020000	24.500261
13.030000	24.500261
13.040000	24.500261
13.050000	24.500261
13.060000	24.500261
13.070000	24.500261
13.080000	24.500261
13.090000	24.500261
13.100000	24.500261
13.110000	24.500261
13.120000	24.500261
13.130000	24.500261
13.140000	24.500261
13.150000	24.500261
13.160000	24.500261
13.170000	24.500261
13.180000	24.500261
13.190000	24.500261
13.200000	24.500261
13.210000	24.500261
13.220000	24.500261
13.230000	24.500261
13.240000	24.500261
13.250000	24.500261
13.260000	24.500261
13.270000	24.500261
13.280000	24.500261
13.290000	24.500261
13.300000	24.500261
13.310000	24.500261
13.320000	24.500261
13.330000	24.500261
13.340000	24.500261
13.350000	24.500261
13.360000	24.500261
13.370000	24.500261
13.380000	24.500261
13.390000	24.500261
13.400000	24.500261
13.410000	24.500261
13.420000	24.500261
13.430000	24.500261
13.440000	24.500261
13.450000	24.500261
13.460000	24.500261
13.470000	24.500261
13.480000	24.500261
13.490000	24.500261
13.500000	24.483966
13.510000	24.483966
13.520000	24.483966
13.530000	24.483966
13.540000	24.483966
13.550000	24.483966
13.560000	24.483966
13.570000	24.483966
13.580000	24.483966
13.590000	24.483966
13.600000	24.483966
13.610000	24.483966
13.620000	24.483966
13.630000	24.483966
13.640000	24.483966
13.650000	24.483966
13.660000	24.483966
13.670000	24.483966
13.680000	24.483966
13.690000	24.483966
13.700000	24.483966
13.710000	24.483966
13.720000	24.483966
13.730000	24.483966
13.740000	24.483966
13.750000	24.483966
13.760000	24.483966
13.770000	24.483966
13.780000	24.483966
13.790000	24.483966
13.800000	24.483966
13.810000	24.483966
13.820000	24.483966
13.830000	24.483966
13.840000	24.483966
13.850000	24.483966
13.860000	24.483966
13.870000	24.483966
13.880000	24.483966
13.890000	24.483966
13.900000	24.483966
13.910000	24.483966
13.920000	24.483966
13.930000	24.483966
13.940000	24.483966
13.950000	24.483966
13.960000	24.483966
13.970000	24.483966
13.980000	24.483966
13.990000	24.483966
14.000000	24.467098
14.010000	24.467098
14.020000	24.467098
14.030000	24.467098
14.040000	24.467098
14.050000	24.467098
14.060000	24.467098
14.070000	24.467098
14.080000	24.467098
14.090000	24.467098
14.100000	24.467098
14.110000	24.467098
14.120000	24.467098
14.130000	24.467098
14.140000	24.467098
14.150000	24.467098
14.160000	24.467098
14.170000	24.467098
14.180000	24.467098
14.190000	24.467098
14.200000	24.467098
14.210000	24.467098
14.220000	24.467098
14.230000	24.467098
14.240000	24.467098
14.250000	24.467098
14.260000	24.467098
14.270000	24.467098
14.280000	24.467098
14.290000	24.467098
14.300000	24.467098
14.310000	24.467098
14.320000	24.467098
14.330000	24.467098
14.340000	24.467098
14.350000	24.467098
14.360000	24.467098
14.370000	24.467098
14.380000	24.467098
14.390000	24.467098
14.400000	24.467098
14.410000	24.467098
14.420000	24.467098
14.430000	24.467098
14.440000	24.467098
14.450000	24.467098
14.460000	24.467098
14.470000	24.467098
14.480000	24.467098
14.490000	24.467098
14.500000	24.450049
14.510000	24.450049
14.520000	24.450049
14.530000	24.450049
14.540000	24.450049
14.550000	24.450049
14.560000	24.450049
14.570000	24.450049
14.580000	24.450049
14.590000	24.450049
14.600000	24.450049
14.610000	24.450049
14.620000	24.450049
14.630000	24.450049
14.640000	24.450049
14.650000	24.450049
14.660000	24.450049
14.670000	24.450049
14.680000	24.450049
14.690000	24.450049
14.700000	24.450049
14.710000	24.450049
14.720000	24.450049
14.730000	24.450049
14.740000	24.450049
14.750000	24.450049
14.760000	24.450049
14.770000	24.450049
14.780000	24.450049
14.790000	24.450049
14.800000	24.450049
14.810000	24.450049
14.820000	24.450049
14.830000	24.450049
14.840000	24.450049
14.850000	24.450049
14.860000	24.450049
14.870000	24.450049
14.880000	24.450049
14.890000	24.450049
14.900000	24.450049
14.910000	24.450049
14.920000	24.450049
14.930000	24.450049
14.940000	24.450049
14.950000	24.450049
14.960000	24.450049
14.970000	24.450049
14.980000	24.450049
14.990000	24.450049
15.000000	24.433649
15.010000	24.433649
15.020000	24.433649
15.030000	24.433649
15.040000	24.433649
15.050000	24.433649
15.060000	24.433649
15.070000	24.433649
15.080000	24.433649
15.090000	24.433649
15.100000	24.433649
15.110000	24.433649
15.120000	24.433649
15.130000	24.433649
15.140000	24.433649
15.150000	24.433649
15.160000	24.433649
15.170000	24.433649
15.180000	24.433649
15.190000	24.433649
15.200000	24.433649
15.210000	24.433649
15.220000	24.433649
15.230000	24.433649
15.240000	24.433649
15.250000	24.433649
15.260000	24.433649
15.270000	24.433649
15.280000	24.433649
15.290000	24.433649
15.300000	24.433649
15.310000	24.433649
15.320000	24.433649
15.330000	24.433649
15.340000	24.433649
15.350000	24.433649
15.360000	24.433649
15.370000	24.433649
15.380000	24.433649
15.390000	24.433649
15.400000	24.433649
15.410000	24.433649
15.420000	24.433649
15.430000	24.433649
15.440000	24.433649
15.450000	24.433649
15.460000	24.433649
15.470000	24.433649
15.480000	24.433649
15.490000	24.433649
15.500000	24.417419
15.510000	24.417419
15.520000	24.417419
15.530000	24.417419
15.540000	24.417419
15.550000	24.417419
15.560000	24.417419
15.570000	24.417419
15.580000	24.417419
15.590000	24.417419
15.600000	24.417419
15.610000	24.417419
15.620000	24.417419
15.630000	24.417419
15.640000	24.417419
15.650000	24.417419
15.660000	24.417419
15.670000	24.417419
15.680000	24.417419
15.690000	24.417419
15.700000	24.417419
15.710000	24.417419
15.720000	24.417419
15.730000	24.417419
15.740000	24.417419
15.750000	24.417419
15.760000	24.417419
15.770000	24.417419
15.780000	24.417419
15.790000	24.417419
15.800000	24.417419
15.810000	24.417419
15.820000	24.417419
15.830000	24.417419
15.840000	24.417419
15.850000	24.417419
15.860000	24.417419
15.870000	24.417419
15.880000	24.417419
15.890000	24.417419
15.900000	24.417419
15.910000	24.417419
15.920000	24.417419
15.930000	24.417419
15.940000	24.417419
15.950000	24.417419
15.960000	24.417419
15.970000	24.417419
15.980000	24.417419
15.990000	24.417419
16.000000	24.401680
16.010000	24.401680
16.020000	24.401680
16.030000	24.401680
16.040000	24.401680
16.050000	24.401680
16.060000	24.401680
16.070000	24.401680
16.080000	24.401680
16.090000	24.401680
16.100000	24.401680
16.110000	24.401680
16.120000	24.401680
16.130000	24.401680
16.140000	24.401680
16.150000	24.401680
16.160000	24.401680
16.170000	24.401680
16.180000	24.401680
16.190000	24.401680
16.200000	24.401680
16.210000	24.401680
16.220000	24.401680
16.230000	24.401680
16.240000	24.401680
16.250000	24.401680
16.260000	24.401680
16.270000	24.401680
16.280000	24.401680
16.290000	24.401680
16.300000	24.401680
16.310000	24.401680
16.320000	24.401680
16.330000	24.401680
16.340000	24.401680
16.350000	24.401680
16.360000	24.401680
16.370000	24.401680
16.380000	24.401680
16.390000	24.401680
16.400000	24.401680
16.410000	24.401680
16.420000	24.401680
16.430000	24.401680
16.440000	24.401680
16.450000	24.401680
16.460000	24.401680
16.470000	24.401680
16.480000	24.401680
16.490000	24.401680
16.500000	24.385910
16.510000	24.385910
16.520000	24.385910
16.530000	24.385910
16.540000	24.385910
16.550000	24.385910
16.560000	24.385910
16.570000	24.385910
16.580000	24.385910
16.590000	24.385910
16.600000	24.385910
16.610000	24.385910
16.620000	24.385910
16.630000	24.385910
16.640000	24.385910
16.650000	24.385910
16.660000	24.385910
16.670000	24.385910
16.680000	24.385910
16.690000	24.385910
16.700000	24.385910
16.710000	24.385910
16.720000	24.385910
16.730000	24.385910
16.740000	24.385910
16.750000	24.385910
16.760000	24.385910
16.770000	24.385910
16.780000	24.385910
16.790000	24.385910
16.800000	24.385910
16.810000	24.385910
16.820000	24.385910
16.830000	24.385910
16.840000	24.385910
16.850000	24.385910
16.860000	24.385910
16.870000	24.385910
16.880000	24.385910
16.890000	24.385910
16.900000	24.385910
16.910000	24.385910
16.920000	24.385910
16.930000	24.385910
16.940000	24.385910
16.950000	24.385910
16.960000	24.385910
16.970000	24.385910
16.980000	24.385910
16.990000	24.385910
17.000000	24.370843
17.010000	24.370843
17.020000	24.370843
17.030000	24.370843
17.040000	24.370843
17.050000	24.370843
17.060000	24.370843
17.070000	24.370843
17.080000	24.370843
17.090000	24.370843
17.100000	24.370843
17.110000	24.370843
17.120000	24.370843
17.130000	24.370843
17.140000	24.370843
17.150000	24.370843
17.160000	24.370843
17.170000	24.370843
17.180000	24.370843
17.190000	24.370843
17.200000	24.370843
17.210000	24.370843
17.220000	24.370843
17.230000	24.370843
17.240000	24.370843
17.250000	24.370843
17.260000	24.370843
17.270000	24.370843
17.280000	24.370843
17.290000	24.370843
17.300000	24.370843
17.310000	24.370843
17.320000	24.370843
17.330000	24.370843
17.340000	24.370843
17.350000	24.370843
17.360000	24.370843
17.370000	24.370843
17.380000	24.370843
17.390000	24.370843
17.400000	24.370843
17.410000	24.370843
17.420000	24.370843
17.430000	24.370843
17.440000	24.370843
17.450000	24.370843
17.460000	24.370843
17.470000	24.370843
17.480000	24.370843
17.490000	24.370843
17.500000	24.355762
17.510000	24.355762
17.520000	24.355762
17.530000	24.355762
17.540000	24.355762
17.550000	24.355762
17.560000	24.355762
17.570000	24.355762
17.580000	24.355762
17.590000	24.355762
17.600000	24.355762
17.610000	24.355762
17.620000	24.355762
17.630000	24.355762
17.640000	24.355762
17.650000	24.355762
17.660000	24.355762
17.670000	24.355762
17.680000	24.355762
17.690000	24.355762
17.700000	24.355762
17.710000	24.355762
17.720000	24.355762
17.730000	24.355762
17.740000	24.355762
17.750000	24.355762
17.760000	24.355762
17.770000	24.355762
17.780000	24.355762
17.790000	24.355762
17.800000	24.355762
17.810000	24.355762
17.820000	24.355762
17.830000	24.355762
17.840000	24.355762
17.850000	24.355762
17.860000	24.355762
17.870000	24.355762
17.880000	24.355762
17.890000	24.355762
17.900000	24.355762
17.910000	24.355762
17.920000	24.355762
17.930000	24.355762
17.940000	24.355762
17.950000	24.355762
17.960000	24.355762
17.970000	24.355762
17.980000	24.355762
17.990000	24.355762
