LabVIEW Measurement	
Writer_Version	2
Reader_Version	2
Separator	Tab
Decimal_Separator	.
Multi_Headings	No
X_Columns	One
Time_Pref	Absolute
Operator	biomech-dyno
Date	2023/05/24
Time	15:19:49.9492761999999796612
***End_of_Header***	
	
Channels	1	
Samples	10	
Date	2023/05/24	
Time	15:23:14.4592391999997156053	
X_Dimension	Time	
X0	0.0000000000000000E+0	
Delta_X	0.010000	
***End_of_Header***		
X_Value	Untitled	Comment
0.000000	24.419034
0.010000	24.419034
0.020000	24.419034
0.030000	24.419034
0.040000	24.419034
0.050000	24.419034
0.060000	24.419034
0.070000	24.419034
0.080000	24.419034
0.090000	24.419034
0.100000	24.419034
0.110000	24.419034
0.120000	24.419034
0.130000	24.419034
0.140000	24.419034
0.150000	24.419034
0.160000	24.419034
0.170000	24.419034
0.180000	24.419034
0.190000	24.419034
0.200000	24.419034
0.210000	24.419034
0.220000	24.419034
0.230000	24.419034
0.240000	24.419034
0.250000	24.419034
0.260000	24.419034
0.270000	24.419034
0.280000	24.419034
0.290000	24.419034
0.300000	24.419034
0.310000	24.419034
0.320000	24.419034
0.330000	24.419034
0.340000	24.419034
0.350000	24.419034
0.360000	24.419034
0.370000	24.419034
0.380000	24.419034
0.390000	24.419034
0.400000	24.419034
0.410000	24.419034
0.420000	24.419034
0.430000	24.419034
0.440000	24.419034
0.450000	24.419034
0.460000	24.419034
0.470000	24.419034
0.480000	24.419034
0.490000	24.419034
0.500000	24.425225
0.510000	24.425225
0.520000	24.425225
0.530000	24.425225
0.540000	24.425225
0.550000	24.425225
0.560000	24.425225
0.570000	24.425225
0.580000	24.425225
0.590000	24.425225
0.600000	24.425225
0.610000	24.425225
0.620000	24.425225
0.630000	24.425225
0.640000	24.425225
0.650000	24.425225
0.660000	24.425225
0.670000	24.425225
0.680000	24.425225
0.690000	24.425225
0.700000	24.425225
0.710000	24.425225
0.720000	24.425225
0.730000	24.425225
0.740000	24.425225
0.750000	24.425225
0.760000	24.425225
0.770000	24.425225
0.780000	24.425225
0.790000	24.425225
0.800000	24.425225
0.810000	24.425225
0.820000	24.425225
0.830000	24.425225
0.840000	24.425225
0.850000	24.425225
0.860000	24.425225
0.870000	24.425225
0.880000	24.425225
0.890000	24.425225
0.900000	24.425225
0.910000	24.425225
0.920000	24.425225
0.930000	24.425225
0.940000	24.425225
0.950000	24.425225
0.960000	24.425225
0.970000	24.425225
0.980000	24.425225
0.990000	24.425225
1.000000	24.538218
1.010000	24.538218
1.020000	24.538218
1.030000	24.538218
1.040000	24.538218
1.050000	24.538218
1.060000	24.538218
1.070000	24.538218
1.080000	24.538218
1.090000	24.538218
1.100000	24.538218
1.110000	24.538218
1.120000	24.538218
1.130000	24.538218
1.140000	24.538218
1.150000	24.538218
1.160000	24.538218
1.170000	24.538218
1.180000	24.538218
1.190000	24.538218
1.200000	24.538218
1.210000	24.538218
1.220000	24.538218
1.230000	24.538218
1.240000	24.538218
1.250000	24.538218
1.260000	24.538218
1.270000	24.538218
1.280000	24.538218
1.290000	24.538218
1.300000	24.538218
1.310000	24.538218
1.320000	24.538218
1.330000	24.538218
1.340000	24.538218
1.350000	24.538218
1.360000	24.538218
1.370000	24.538218
1.380000	24.538218
1.390000	24.538218
1.400000	24.538218
1.410000	24.538218
1.420000	24.538218
1.430000	24.538218
1.440000	24.538218
1.450000	24.538218
1.460000	24.538218
1.470000	24.538218
1.480000	24.538218
1.490000	24.538218
1.500000	24.805529
1.510000	24.805529
1.520000	24.805529
1.530000	24.805529
1.540000	24.805529
1.550000	24.805529
1.560000	24.805529
1.570000	24.805529
1.580000	24.805529
1.590000	24.805529
1.600000	24.805529
1.610000	24.805529
1.620000	24.805529
1.630000	24.805529
1.640000	24.805529
1.650000	24.805529
1.660000	24.805529
1.670000	24.805529
1.680000	24.805529
1.690000	24.805529
1.700000	24.805529
1.710000	24.805529
1.720000	24.805529
1.730000	24.805529
1.740000	24.805529
1.750000	24.805529
1.760000	24.805529
1.770000	24.805529
1.780000	24.805529
1.790000	24.805529
1.800000	24.805529
1.810000	24.805529
1.820000	24.805529
1.830000	24.805529
1.840000	24.805529
1.850000	24.805529
1.860000	24.805529
1.870000	24.805529
1.880000	24.805529
1.890000	24.805529
1.900000	24.805529
1.910000	24.805529
1.920000	24.805529
1.930000	24.805529
1.940000	24.805529
1.950000	24.805529
1.960000	24.805529
1.970000	24.805529
1.980000	24.805529
1.990000	24.805529
2.000000	25.202519
2.010000	25.202519
2.020000	25.202519
2.030000	25.202519
2.040000	25.202519
2.050000	25.202519
2.060000	25.202519
2.070000	25.202519
2.080000	25.202519
2.090000	25.202519
2.100000	25.202519
2.110000	25.202519
2.120000	25.202519
2.130000	25.202519
2.140000	25.202519
2.150000	25.202519
2.160000	25.202519
2.170000	25.202519
2.180000	25.202519
2.190000	25.202519
2.200000	25.202519
2.210000	25.202519
2.220000	25.202519
2.230000	25.202519
2.240000	25.202519
2.250000	25.202519
2.260000	25.202519
2.270000	25.202519
2.280000	25.202519
2.290000	25.202519
2.300000	25.202519
2.310000	25.202519
2.320000	25.202519
2.330000	25.202519
2.340000	25.202519
2.350000	25.202519
2.360000	25.202519
2.370000	25.202519
2.380000	25.202519
2.390000	25.202519
2.400000	25.202519
2.410000	25.202519
2.420000	25.202519
2.430000	25.202519
2.440000	25.202519
2.450000	25.202519
2.460000	25.202519
2.470000	25.202519
2.480000	25.202519
2.490000	25.202519
2.500000	25.691030
2.510000	25.691030
2.520000	25.691030
2.530000	25.691030
2.540000	25.691030
2.550000	25.691030
2.560000	25.691030
2.570000	25.691030
2.580000	25.691030
2.590000	25.691030
2.600000	25.691030
2.610000	25.691030
2.620000	25.691030
2.630000	25.691030
2.640000	25.691030
2.650000	25.691030
2.660000	25.691030
2.670000	25.691030
2.680000	25.691030
2.690000	25.691030
2.700000	25.691030
2.710000	25.691030
2.720000	25.691030
2.730000	25.691030
2.740000	25.691030
2.750000	25.691030
2.760000	25.691030
2.770000	25.691030
2.780000	25.691030
2.790000	25.691030
2.800000	25.691030
2.810000	25.691030
2.820000	25.691030
2.830000	25.691030
2.840000	25.691030
2.850000	25.691030
2.860000	25.691030
2.870000	25.691030
2.880000	25.691030
2.890000	25.691030
2.900000	25.691030
2.910000	25.691030
2.920000	25.691030
2.930000	25.691030
2.940000	25.691030
2.950000	25.691030
2.960000	25.691030
2.970000	25.691030
2.980000	25.691030
2.990000	25.691030
3.000000	26.249994
3.010000	26.249994
3.020000	26.249994
3.030000	26.249994
3.040000	26.249994
3.050000	26.249994
3.060000	26.249994
3.070000	26.249994
3.080000	26.249994
3.090000	26.249994
3.100000	26.249994
3.110000	26.249994
3.120000	26.249994
3.130000	26.249994
3.140000	26.249994
3.150000	26.249994
3.160000	26.249994
3.170000	26.249994
3.180000	26.249994
3.190000	26.249994
3.200000	26.249994
3.210000	26.249994
3.220000	26.249994
3.230000	26.249994
3.240000	26.249994
3.250000	26.249994
3.260000	26.249994
3.270000	26.249994
3.280000	26.249994
3.290000	26.249994
3.300000	26.249994
3.310000	26.249994
3.320000	26.249994
3.330000	26.249994
3.340000	26.249994
3.350000	26.249994
3.360000	26.249994
3.370000	26.249994
3.380000	26.249994
3.390000	26.249994
3.400000	26.249994
3.410000	26.249994
3.420000	26.249994
3.430000	26.249994
3.440000	26.249994
3.450000	26.249994
3.460000	26.249994
3.470000	26.249994
3.480000	26.249994
3.490000	26.249994
3.500000	26.831585
3.510000	26.831585
3.520000	26.831585
3.530000	26.831585
3.540000	26.831585
3.550000	26.831585
3.560000	26.831585
3.570000	26.831585
3.580000	26.831585
3.590000	26.831585
3.600000	26.831585
3.610000	26.831585
3.620000	26.831585
3.630000	26.831585
3.640000	26.831585
3.650000	26.831585
3.660000	26.831585
3.670000	26.831585
3.680000	26.831585
3.690000	26.831585
3.700000	26.831585
3.710000	26.831585
3.720000	26.831585
3.730000	26.831585
3.740000	26.831585
3.750000	26.831585
3.760000	26.831585
3.770000	26.831585
3.780000	26.831585
3.790000	26.831585
3.800000	26.831585
3.810000	26.831585
3.820000	26.831585
3.830000	26.831585
3.840000	26.831585
3.850000	26.831585
3.860000	26.831585
3.870000	26.831585
3.880000	26.831585
3.890000	26.831585
3.900000	26.831585
3.910000	26.831585
3.920000	26.831585
3.930000	26.831585
3.940000	26.831585
3.950000	26.831585
3.960000	26.831585
3.970000	26.831585
3.980000	26.831585
3.990000	26.831585
4.000000	27.305961
4.010000	27.305961
4.020000	27.305961
4.030000	27.305961
4.040000	27.305961
4.050000	27.305961
4.060000	27.305961
4.070000	27.305961
4.080000	27.305961
4.090000	27.305961
4.100000	27.305961
4.110000	27.305961
4.120000	27.305961
4.130000	27.305961
4.140000	27.305961
4.150000	27.305961
4.160000	27.305961
4.170000	27.305961
4.180000	27.305961
4.190000	27.305961
4.200000	27.305961
4.210000	27.305961
4.220000	27.305961
4.230000	27.305961
4.240000	27.305961
4.250000	27.305961
4.260000	27.305961
4.270000	27.305961
4.280000	27.305961
4.290000	27.305961
4.300000	27.305961
4.310000	27.305961
4.320000	27.305961
4.330000	27.305961
4.340000	27.305961
4.350000	27.305961
4.360000	27.305961
4.370000	27.305961
4.380000	27.305961
4.390000	27.305961
4.400000	27.305961
4.410000	27.305961
4.420000	27.305961
4.430000	27.305961
4.440000	27.305961
4.450000	27.305961
4.460000	27.305961
4.470000	27.305961
4.480000	27.305961
4.490000	27.305961
4.500000	27.661191
4.510000	27.661191
4.520000	27.661191
4.530000	27.661191
4.540000	27.661191
4.550000	27.661191
4.560000	27.661191
4.570000	27.661191
4.580000	27.661191
4.590000	27.661191
4.600000	27.661191
4.610000	27.661191
4.620000	27.661191
4.630000	27.661191
4.640000	27.661191
4.650000	27.661191
4.660000	27.661191
4.670000	27.661191
4.680000	27.661191
4.690000	27.661191
4.700000	27.661191
4.710000	27.661191
4.720000	27.661191
4.730000	27.661191
4.740000	27.661191
4.750000	27.661191
4.760000	27.661191
4.770000	27.661191
4.780000	27.661191
4.790000	27.661191
4.800000	27.661191
4.810000	27.661191
4.820000	27.661191
4.830000	27.661191
4.840000	27.661191
4.850000	27.661191
4.860000	27.661191
4.870000	27.661191
4.880000	27.661191
4.890000	27.661191
4.900000	27.661191
4.910000	27.661191
4.920000	27.661191
4.930000	27.661191
4.940000	27.661191
4.950000	27.661191
4.960000	27.661191
4.970000	27.661191
4.980000	27.661191
4.990000	27.661191
5.000000	27.918546
5.010000	27.918546
5.020000	27.918546
5.030000	27.918546
5.040000	27.918546
5.050000	27.918546
5.060000	27.918546
5.070000	27.918546
5.080000	27.918546
5.090000	27.918546
5.100000	27.918546
5.110000	27.918546
5.120000	27.918546
5.130000	27.918546
5.140000	27.918546
5.150000	27.918546
5.160000	27.918546
5.170000	27.918546
5.180000	27.918546
5.190000	27.918546
5.200000	27.918546
5.210000	27.918546
5.220000	27.918546
5.230000	27.918546
5.240000	27.918546
5.250000	27.918546
5.260000	27.918546
5.270000	27.918546
5.280000	27.918546
5.290000	27.918546
5.300000	27.918546
5.310000	27.918546
5.320000	27.918546
5.330000	27.918546
5.340000	27.918546
5.350000	27.918546
5.360000	27.918546
5.370000	27.918546
5.380000	27.918546
5.390000	27.918546
5.400000	27.918546
5.410000	27.918546
5.420000	27.918546
5.430000	27.918546
5.440000	27.918546
5.450000	27.918546
5.460000	27.918546
5.470000	27.918546
5.480000	27.918546
5.490000	27.918546
5.500000	28.093613
5.510000	28.093613
5.520000	28.093613
5.530000	28.093613
5.540000	28.093613
5.550000	28.093613
5.560000	28.093613
5.570000	28.093613
5.580000	28.093613
5.590000	28.093613
5.600000	28.093613
5.610000	28.093613
5.620000	28.093613
5.630000	28.093613
5.640000	28.093613
5.650000	28.093613
5.660000	28.093613
5.670000	28.093613
5.680000	28.093613
5.690000	28.093613
5.700000	28.093613
5.710000	28.093613
5.720000	28.093613
5.730000	28.093613
5.740000	28.093613
5.750000	28.093613
5.760000	28.093613
5.770000	28.093613
5.780000	28.093613
5.790000	28.093613
5.800000	28.093613
5.810000	28.093613
5.820000	28.093613
5.830000	28.093613
5.840000	28.093613
5.850000	28.093613
5.860000	28.093613
5.870000	28.093613
5.880000	28.093613
5.890000	28.093613
5.900000	28.093613
5.910000	28.093613
5.920000	28.093613
5.930000	28.093613
5.940000	28.093613
5.950000	28.093613
5.960000	28.093613
5.970000	28.093613
5.980000	28.093613
5.990000	28.093613
6.000000	28.205134
6.010000	28.205134
6.020000	28.205134
6.030000	28.205134
6.040000	28.205134
6.050000	28.205134
6.060000	28.205134
6.070000	28.205134
6.080000	28.205134
6.090000	28.205134
6.100000	28.205134
6.110000	28.205134
6.120000	28.205134
6.130000	28.205134
6.140000	28.205134
6.150000	28.205134
6.160000	28.205134
6.170000	28.205134
6.180000	28.205134
6.190000	28.205134
6.200000	28.205134
6.210000	28.205134
6.220000	28.205134
6.230000	28.205134
6.240000	28.205134
6.250000	28.205134
6.260000	28.205134
6.270000	28.205134
6.280000	28.205134
6.290000	28.205134
6.300000	28.205134
6.310000	28.205134
6.320000	28.205134
6.330000	28.205134
6.340000	28.205134
6.350000	28.205134
6.360000	28.205134
6.370000	28.205134
6.380000	28.205134
6.390000	28.205134
6.400000	28.205134
6.410000	28.205134
6.420000	28.205134
6.430000	28.205134
6.440000	28.205134
6.450000	28.205134
6.460000	28.205134
6.470000	28.205134
6.480000	28.205134
6.490000	28.205134
6.500000	28.269387
6.510000	28.269387
6.520000	28.269387
6.530000	28.269387
6.540000	28.269387
6.550000	28.269387
6.560000	28.269387
6.570000	28.269387
6.580000	28.269387
6.590000	28.269387
6.600000	28.269387
6.610000	28.269387
6.620000	28.269387
6.630000	28.269387
6.640000	28.269387
6.650000	28.269387
6.660000	28.269387
6.670000	28.269387
6.680000	28.269387
6.690000	28.269387
6.700000	28.269387
6.710000	28.269387
6.720000	28.269387
6.730000	28.269387
6.740000	28.269387
6.750000	28.269387
6.760000	28.269387
6.770000	28.269387
6.780000	28.269387
6.790000	28.269387
6.800000	28.269387
6.810000	28.269387
6.820000	28.269387
6.830000	28.269387
6.840000	28.269387
6.850000	28.269387
6.860000	28.269387
6.870000	28.269387
6.880000	28.269387
6.890000	28.269387
6.900000	28.269387
6.910000	28.269387
6.920000	28.269387
6.930000	28.269387
6.940000	28.269387
6.950000	28.269387
6.960000	28.269387
6.970000	28.269387
6.980000	28.269387
6.990000	28.269387
7.000000	28.300544
7.010000	28.300544
7.020000	28.300544
7.030000	28.300544
7.040000	28.300544
7.050000	28.300544
7.060000	28.300544
7.070000	28.300544
7.080000	28.300544
7.090000	28.300544
7.100000	28.300544
7.110000	28.300544
7.120000	28.300544
7.130000	28.300544
7.140000	28.300544
7.150000	28.300544
7.160000	28.300544
7.170000	28.300544
7.180000	28.300544
7.190000	28.300544
7.200000	28.300544
7.210000	28.300544
7.220000	28.300544
7.230000	28.300544
7.240000	28.300544
7.250000	28.300544
7.260000	28.300544
7.270000	28.300544
7.280000	28.300544
7.290000	28.300544
7.300000	28.300544
7.310000	28.300544
7.320000	28.300544
7.330000	28.300544
7.340000	28.300544
7.350000	28.300544
7.360000	28.300544
7.370000	28.300544
7.380000	28.300544
7.390000	28.300544
7.400000	28.300544
7.410000	28.300544
7.420000	28.300544
7.430000	28.300544
7.440000	28.300544
7.450000	28.300544
7.460000	28.300544
7.470000	28.300544
7.480000	28.300544
7.490000	28.300544
7.500000	28.303285
7.510000	28.303285
7.520000	28.303285
7.530000	28.303285
7.540000	28.303285
7.550000	28.303285
7.560000	28.303285
7.570000	28.303285
7.580000	28.303285
7.590000	28.303285
7.600000	28.303285
7.610000	28.303285
7.620000	28.303285
7.630000	28.303285
7.640000	28.303285
7.650000	28.303285
7.660000	28.303285
7.670000	28.303285
7.680000	28.303285
7.690000	28.303285
7.700000	28.303285
7.710000	28.303285
7.720000	28.303285
7.730000	28.303285
7.740000	28.303285
7.750000	28.303285
7.760000	28.303285
7.770000	28.303285
7.780000	28.303285
7.790000	28.303285
7.800000	28.303285
7.810000	28.303285
7.820000	28.303285
7.830000	28.303285
7.840000	28.303285
7.850000	28.303285
7.860000	28.303285
7.870000	28.303285
7.880000	28.303285
7.890000	28.303285
7.900000	28.303285
7.910000	28.303285
7.920000	28.303285
7.930000	28.303285
7.940000	28.303285
7.950000	28.303285
7.960000	28.303285
7.970000	28.303285
7.980000	28.303285
7.990000	28.303285
8.000000	28.284470
8.010000	28.284470
8.020000	28.284470
8.030000	28.284470
8.040000	28.284470
8.050000	28.284470
8.060000	28.284470
8.070000	28.284470
8.080000	28.284470
8.090000	28.284470
8.100000	28.284470
8.110000	28.284470
8.120000	28.284470
8.130000	28.284470
8.140000	28.284470
8.150000	28.284470
8.160000	28.284470
8.170000	28.284470
8.180000	28.284470
8.190000	28.284470
8.200000	28.284470
8.210000	28.284470
8.220000	28.284470
8.230000	28.284470
8.240000	28.284470
8.250000	28.284470
8.260000	28.284470
8.270000	28.284470
8.280000	28.284470
8.290000	28.284470
8.300000	28.284470
8.310000	28.284470
8.320000	28.284470
8.330000	28.284470
8.340000	28.284470
8.350000	28.284470
8.360000	28.284470
8.370000	28.284470
8.380000	28.284470
8.390000	28.284470
8.400000	28.284470
8.410000	28.284470
8.420000	28.284470
8.430000	28.284470
8.440000	28.284470
8.450000	28.284470
8.460000	28.284470
8.470000	28.284470
8.480000	28.284470
8.490000	28.284470
8.500000	28.248115
8.510000	28.248115
8.520000	28.248115
8.530000	28.248115
8.540000	28.248115
8.550000	28.248115
8.560000	28.248115
8.570000	28.248115
8.580000	28.248115
8.590000	28.248115
8.600000	28.248115
8.610000	28.248115
8.620000	28.248115
8.630000	28.248115
8.640000	28.248115
8.650000	28.248115
8.660000	28.248115
8.670000	28.248115
8.680000	28.248115
8.690000	28.248115
8.700000	28.248115
8.710000	28.248115
8.720000	28.248115
8.730000	28.248115
8.740000	28.248115
8.750000	28.248115
8.760000	28.248115
8.770000	28.248115
8.780000	28.248115
8.790000	28.248115
8.800000	28.248115
8.810000	28.248115
8.820000	28.248115
8.830000	28.248115
8.840000	28.248115
8.850000	28.248115
8.860000	28.248115
8.870000	28.248115
8.880000	28.248115
8.890000	28.248115
8.900000	28.248115
8.910000	28.248115
8.920000	28.248115
8.930000	28.248115
8.940000	28.248115
8.950000	28.248115
8.960000	28.248115
8.970000	28.248115
8.980000	28.248115
8.990000	28.248115
9.000000	28.201212
9.010000	28.201212
9.020000	28.201212
9.030000	28.201212
9.040000	28.201212
9.050000	28.201212
9.060000	28.201212
9.070000	28.201212
9.080000	28.201212
9.090000	28.201212
9.100000	28.201212
9.110000	28.201212
9.120000	28.201212
9.130000	28.201212
9.140000	28.201212
9.150000	28.201212
9.160000	28.201212
9.170000	28.201212
9.180000	28.201212
9.190000	28.201212
9.200000	28.201212
9.210000	28.201212
9.220000	28.201212
9.230000	28.201212
9.240000	28.201212
9.250000	28.201212
9.260000	28.201212
9.270000	28.201212
9.280000	28.201212
9.290000	28.201212
9.300000	28.201212
9.310000	28.201212
9.320000	28.201212
9.330000	28.201212
9.340000	28.201212
9.350000	28.201212
9.360000	28.201212
9.370000	28.201212
9.380000	28.201212
9.390000	28.201212
9.400000	28.201212
9.410000	28.201212
9.420000	28.201212
9.430000	28.201212
9.440000	28.201212
9.450000	28.201212
9.460000	28.201212
9.470000	28.201212
9.480000	28.201212
9.490000	28.201212
9.500000	28.146563
9.510000	28.146563
9.520000	28.146563
9.530000	28.146563
9.540000	28.146563
9.550000	28.146563
9.560000	28.146563
9.570000	28.146563
9.580000	28.146563
9.590000	28.146563
9.600000	28.146563
9.610000	28.146563
9.620000	28.146563
9.630000	28.146563
9.640000	28.146563
9.650000	28.146563
9.660000	28.146563
9.670000	28.146563
9.680000	28.146563
9.690000	28.146563
9.700000	28.146563
9.710000	28.146563
9.720000	28.146563
9.730000	28.146563
9.740000	28.146563
9.750000	28.146563
9.760000	28.146563
9.770000	28.146563
9.780000	28.146563
9.790000	28.146563
9.800000	28.146563
9.810000	28.146563
9.820000	28.146563
9.830000	28.146563
9.840000	28.146563
9.850000	28.146563
9.860000	28.146563
9.870000	28.146563
9.880000	28.146563
9.890000	28.146563
9.900000	28.146563
9.910000	28.146563
9.920000	28.146563
9.930000	28.146563
9.940000	28.146563
9.950000	28.146563
9.960000	28.146563
9.970000	28.146563
9.980000	28.146563
9.990000	28.146563
10.000000	28.085047
10.010000	28.085047
10.020000	28.085047
10.030000	28.085047
10.040000	28.085047
10.050000	28.085047
10.060000	28.085047
10.070000	28.085047
10.080000	28.085047
10.090000	28.085047
10.100000	28.085047
10.110000	28.085047
10.120000	28.085047
10.130000	28.085047
10.140000	28.085047
10.150000	28.085047
10.160000	28.085047
10.170000	28.085047
10.180000	28.085047
10.190000	28.085047
10.200000	28.085047
10.210000	28.085047
10.220000	28.085047
10.230000	28.085047
10.240000	28.085047
10.250000	28.085047
10.260000	28.085047
10.270000	28.085047
10.280000	28.085047
10.290000	28.085047
10.300000	28.085047
10.310000	28.085047
10.320000	28.085047
10.330000	28.085047
10.340000	28.085047
10.350000	28.085047
10.360000	28.085047
10.370000	28.085047
10.380000	28.085047
10.390000	28.085047
10.400000	28.085047
10.410000	28.085047
10.420000	28.085047
10.430000	28.085047
10.440000	28.085047
10.450000	28.085047
10.460000	28.085047
10.470000	28.085047
10.480000	28.085047
10.490000	28.085047
10.500000	28.018672
10.510000	28.018672
10.520000	28.018672
10.530000	28.018672
10.540000	28.018672
10.550000	28.018672
10.560000	28.018672
10.570000	28.018672
10.580000	28.018672
10.590000	28.018672
10.600000	28.018672
10.610000	28.018672
10.620000	28.018672
10.630000	28.018672
10.640000	28.018672
10.650000	28.018672
10.660000	28.018672
10.670000	28.018672
10.680000	28.018672
10.690000	28.018672
10.700000	28.018672
10.710000	28.018672
10.720000	28.018672
10.730000	28.018672
10.740000	28.018672
10.750000	28.018672
10.760000	28.018672
10.770000	28.018672
10.780000	28.018672
10.790000	28.018672
10.800000	28.018672
10.810000	28.018672
10.820000	28.018672
10.830000	28.018672
10.840000	28.018672
10.850000	28.018672
10.860000	28.018672
10.870000	28.018672
10.880000	28.018672
10.890000	28.018672
10.900000	28.018672
10.910000	28.018672
10.920000	28.018672
10.930000	28.018672
10.940000	28.018672
10.950000	28.018672
10.960000	28.018672
10.970000	28.018672
10.980000	28.018672
10.990000	28.018672
11.000000	27.949310
11.010000	27.949310
11.020000	27.949310
11.030000	27.949310
11.040000	27.949310
11.050000	27.949310
11.060000	27.949310
11.070000	27.949310
11.080000	27.949310
11.090000	27.949310
11.100000	27.949310
11.110000	27.949310
11.120000	27.949310
11.130000	27.949310
11.140000	27.949310
11.150000	27.949310
11.160000	27.949310
11.170000	27.949310
11.180000	27.949310
11.190000	27.949310
11.200000	27.949310
11.210000	27.949310
11.220000	27.949310
11.230000	27.949310
11.240000	27.949310
11.250000	27.949310
11.260000	27.949310
11.270000	27.949310
11.280000	27.949310
11.290000	27.949310
11.300000	27.949310
11.310000	27.949310
11.320000	27.949310
11.330000	27.949310
11.340000	27.949310
11.350000	27.949310
11.360000	27.949310
11.370000	27.949310
11.380000	27.949310
11.390000	27.949310
11.400000	27.949310
11.410000	27.949310
11.420000	27.949310
11.430000	27.949310
11.440000	27.949310
11.450000	27.949310
11.460000	27.949310
11.470000	27.949310
11.480000	27.949310
11.490000	27.949310
11.500000	27.878815
11.510000	27.878815
11.520000	27.878815
11.530000	27.878815
11.540000	27.878815
11.550000	27.878815
11.560000	27.878815
11.570000	27.878815
11.580000	27.878815
11.590000	27.878815
11.600000	27.878815
11.610000	27.878815
11.620000	27.878815
11.630000	27.878815
11.640000	27.878815
11.650000	27.878815
11.660000	27.878815
11.670000	27.878815
11.680000	27.878815
11.690000	27.878815
11.700000	27.878815
11.710000	27.878815
11.720000	27.878815
11.730000	27.878815
11.740000	27.878815
11.750000	27.878815
11.760000	27.878815
11.770000	27.878815
11.780000	27.878815
11.790000	27.878815
11.800000	27.878815
11.810000	27.878815
11.820000	27.878815
11.830000	27.878815
11.840000	27.878815
11.850000	27.878815
11.860000	27.878815
11.870000	27.878815
11.880000	27.878815
11.890000	27.878815
11.900000	27.878815
11.910000	27.878815
11.920000	27.878815
11.930000	27.878815
11.940000	27.878815
11.950000	27.878815
11.960000	27.878815
11.970000	27.878815
11.980000	27.878815
11.990000	27.878815
12.000000	27.806995
12.010000	27.806995
12.020000	27.806995
12.030000	27.806995
12.040000	27.806995
12.050000	27.806995
12.060000	27.806995
12.070000	27.806995
12.080000	27.806995
12.090000	27.806995
12.100000	27.806995
12.110000	27.806995
12.120000	27.806995
12.130000	27.806995
12.140000	27.806995
12.150000	27.806995
12.160000	27.806995
12.170000	27.806995
12.180000	27.806995
12.190000	27.806995
12.200000	27.806995
12.210000	27.806995
12.220000	27.806995
12.230000	27.806995
12.240000	27.806995
12.250000	27.806995
12.260000	27.806995
12.270000	27.806995
12.280000	27.806995
12.290000	27.806995
12.300000	27.806995
12.310000	27.806995
12.320000	27.806995
12.330000	27.806995
12.340000	27.806995
12.350000	27.806995
12.360000	27.806995
12.370000	27.806995
12.380000	27.806995
12.390000	27.806995
12.400000	27.806995
12.410000	27.806995
12.420000	27.806995
12.430000	27.806995
12.440000	27.806995
12.450000	27.806995
12.460000	27.806995
12.470000	27.806995
12.480000	27.806995
12.490000	27.806995
12.500000	27.734457
12.510000	27.734457
12.520000	27.734457
12.530000	27.734457
12.540000	27.734457
12.550000	27.734457
12.560000	27.734457
12.570000	27.734457
12.580000	27.734457
12.590000	27.734457
12.600000	27.734457
12.610000	27.734457
12.620000	27.734457
12.630000	27.734457
12.640000	27.734457
12.650000	27.734457
12.660000	27.734457
12.670000	27.734457
12.680000	27.734457
12.690000	27.734457
12.700000	27.734457
12.710000	27.734457
12.720000	27.734457
12.730000	27.734457
12.740000	27.734457
12.750000	27.734457
12.760000	27.734457
12.770000	27.734457
12.780000	27.734457
12.790000	27.734457
12.800000	27.734457
12.810000	27.734457
12.820000	27.734457
12.830000	27.734457
12.840000	27.734457
12.850000	27.734457
12.860000	27.734457
12.870000	27.734457
12.880000	27.734457
12.890000	27.734457
12.900000	27.734457
12.910000	27.734457
12.920000	27.734457
12.930000	27.734457
12.940000	27.734457
12.950000	27.734457
12.960000	27.734457
12.970000	27.734457
12.980000	27.734457
12.990000	27.734457
13.000000	27.662427
13.010000	27.662427
13.020000	27.662427
13.030000	27.662427
13.040000	27.662427
13.050000	27.662427
13.060000	27.662427
13.070000	27.662427
13.080000	27.662427
13.090000	27.662427
13.100000	27.662427
13.110000	27.662427
13.120000	27.662427
13.130000	27.662427
13.140000	27.662427
13.150000	27.662427
13.160000	27.662427
13.170000	27.662427
13.180000	27.662427
13.190000	27.662427
13.200000	27.662427
13.210000	27.662427
13.220000	27.662427
13.230000	27.662427
13.240000	27.662427
13.250000	27.662427
13.260000	27.662427
13.270000	27.662427
13.280000	27.662427
13.290000	27.662427
13.300000	27.662427
13.310000	27.662427
13.320000	27.662427
13.330000	27.662427
13.340000	27.662427
13.350000	27.662427
13.360000	27.662427
13.370000	27.662427
13.380000	27.662427
13.390000	27.662427
13.400000	27.662427
13.410000	27.662427
13.420000	27.662427
13.430000	27.662427
13.440000	27.662427
13.450000	27.662427
13.460000	27.662427
13.470000	27.662427
13.480000	27.662427
13.490000	27.662427
13.500000	27.591225
13.510000	27.591225
13.520000	27.591225
13.530000	27.591225
13.540000	27.591225
13.550000	27.591225
13.560000	27.591225
13.570000	27.591225
13.580000	27.591225
13.590000	27.591225
13.600000	27.591225
13.610000	27.591225
13.620000	27.591225
13.630000	27.591225
13.640000	27.591225
13.650000	27.591225
13.660000	27.591225
13.670000	27.591225
13.680000	27.591225
13.690000	27.591225
13.700000	27.591225
13.710000	27.591225
13.720000	27.591225
13.730000	27.591225
13.740000	27.591225
13.750000	27.591225
13.760000	27.591225
13.770000	27.591225
13.780000	27.591225
13.790000	27.591225
13.800000	27.591225
13.810000	27.591225
13.820000	27.591225
13.830000	27.591225
13.840000	27.591225
13.850000	27.591225
13.860000	27.591225
13.870000	27.591225
13.880000	27.591225
13.890000	27.591225
13.900000	27.591225
13.910000	27.591225
13.920000	27.591225
13.930000	27.591225
13.940000	27.591225
13.950000	27.591225
13.960000	27.591225
13.970000	27.591225
13.980000	27.591225
13.990000	27.591225
14.000000	27.520207
14.010000	27.520207
14.020000	27.520207
14.030000	27.520207
14.040000	27.520207
14.050000	27.520207
14.060000	27.520207
14.070000	27.520207
14.080000	27.520207
14.090000	27.520207
14.100000	27.520207
14.110000	27.520207
14.120000	27.520207
14.130000	27.520207
14.140000	27.520207
14.150000	27.520207
14.160000	27.520207
14.170000	27.520207
14.180000	27.520207
14.190000	27.520207
14.200000	27.520207
14.210000	27.520207
14.220000	27.520207
14.230000	27.520207
14.240000	27.520207
14.250000	27.520207
14.260000	27.520207
14.270000	27.520207
14.280000	27.520207
14.290000	27.520207
14.300000	27.520207
14.310000	27.520207
14.320000	27.520207
14.330000	27.520207
14.340000	27.520207
14.350000	27.520207
14.360000	27.520207
14.370000	27.520207
14.380000	27.520207
14.390000	27.520207
14.400000	27.520207
14.410000	27.520207
14.420000	27.520207
14.430000	27.520207
14.440000	27.520207
14.450000	27.520207
14.460000	27.520207
14.470000	27.520207
14.480000	27.520207
14.490000	27.520207
14.500000	27.450679
14.510000	27.450679
14.520000	27.450679
14.530000	27.450679
14.540000	27.450679
14.550000	27.450679
14.560000	27.450679
14.570000	27.450679
14.580000	27.450679
14.590000	27.450679
14.600000	27.450679
14.610000	27.450679
14.620000	27.450679
14.630000	27.450679
14.640000	27.450679
14.650000	27.450679
14.660000	27.450679
14.670000	27.450679
14.680000	27.450679
14.690000	27.450679
14.700000	27.450679
14.710000	27.450679
14.720000	27.450679
14.730000	27.450679
14.740000	27.450679
14.750000	27.450679
14.760000	27.450679
14.770000	27.450679
14.780000	27.450679
14.790000	27.450679
14.800000	27.450679
14.810000	27.450679
14.820000	27.450679
14.830000	27.450679
14.840000	27.450679
14.850000	27.450679
14.860000	27.450679
14.870000	27.450679
14.880000	27.450679
14.890000	27.450679
14.900000	27.450679
14.910000	27.450679
14.920000	27.450679
14.930000	27.450679
14.940000	27.450679
14.950000	27.450679
14.960000	27.450679
14.970000	27.450679
14.980000	27.450679
14.990000	27.450679
15.000000	27.382327
15.010000	27.382327
15.020000	27.382327
15.030000	27.382327
15.040000	27.382327
15.050000	27.382327
15.060000	27.382327
15.070000	27.382327
15.080000	27.382327
15.090000	27.382327
15.100000	27.382327
15.110000	27.382327
15.120000	27.382327
15.130000	27.382327
15.140000	27.382327
15.150000	27.382327
15.160000	27.382327
15.170000	27.382327
15.180000	27.382327
15.190000	27.382327
15.200000	27.382327
15.210000	27.382327
15.220000	27.382327
15.230000	27.382327
15.240000	27.382327
15.250000	27.382327
15.260000	27.382327
15.270000	27.382327
15.280000	27.382327
15.290000	27.382327
15.300000	27.382327
15.310000	27.382327
15.320000	27.382327
15.330000	27.382327
15.340000	27.382327
15.350000	27.382327
15.360000	27.382327
15.370000	27.382327
15.380000	27.382327
15.390000	27.382327
15.400000	27.382327
15.410000	27.382327
15.420000	27.382327
15.430000	27.382327
15.440000	27.382327
15.450000	27.382327
15.460000	27.382327
15.470000	27.382327
15.480000	27.382327
15.490000	27.382327
15.500000	27.315592
15.510000	27.315592
15.520000	27.315592
15.530000	27.315592
15.540000	27.315592
15.550000	27.315592
15.560000	27.315592
15.570000	27.315592
15.580000	27.315592
15.590000	27.315592
15.600000	27.315592
15.610000	27.315592
15.620000	27.315592
15.630000	27.315592
15.640000	27.315592
15.650000	27.315592
15.660000	27.315592
15.670000	27.315592
15.680000	27.315592
15.690000	27.315592
15.700000	27.315592
15.710000	27.315592
15.720000	27.315592
15.730000	27.315592
15.740000	27.315592
15.750000	27.315592
15.760000	27.315592
15.770000	27.315592
15.780000	27.315592
15.790000	27.315592
15.800000	27.315592
15.810000	27.315592
15.820000	27.315592
15.830000	27.315592
15.840000	27.315592
15.850000	27.315592
15.860000	27.315592
15.870000	27.315592
15.880000	27.315592
15.890000	27.315592
15.900000	27.315592
15.910000	27.315592
15.920000	27.315592
15.930000	27.315592
15.940000	27.315592
15.950000	27.315592
15.960000	27.315592
15.970000	27.315592
15.980000	27.315592
15.990000	27.315592
16.000000	27.249852
16.010000	27.249852
16.020000	27.249852
16.030000	27.249852
16.040000	27.249852
16.050000	27.249852
16.060000	27.249852
16.070000	27.249852
16.080000	27.249852
16.090000	27.249852
16.100000	27.249852
16.110000	27.249852
16.120000	27.249852
16.130000	27.249852
16.140000	27.249852
16.150000	27.249852
16.160000	27.249852
16.170000	27.249852
16.180000	27.249852
16.190000	27.249852
16.200000	27.249852
16.210000	27.249852
16.220000	27.249852
16.230000	27.249852
16.240000	27.249852
16.250000	27.249852
16.260000	27.249852
16.270000	27.249852
16.280000	27.249852
16.290000	27.249852
16.300000	27.249852
16.310000	27.249852
16.320000	27.249852
16.330000	27.249852
16.340000	27.249852
16.350000	27.249852
16.360000	27.249852
16.370000	27.249852
16.380000	27.249852
16.390000	27.249852
16.400000	27.249852
16.410000	27.249852
16.420000	27.249852
16.430000	27.249852
16.440000	27.249852
16.450000	27.249852
16.460000	27.249852
16.470000	27.249852
16.480000	27.249852
16.490000	27.249852
16.500000	27.184847
16.510000	27.184847
16.520000	27.184847
16.530000	27.184847
16.540000	27.184847
16.550000	27.184847
16.560000	27.184847
16.570000	27.184847
16.580000	27.184847
16.590000	27.184847
16.600000	27.184847
16.610000	27.184847
16.620000	27.184847
16.630000	27.184847
16.640000	27.184847
16.650000	27.184847
16.660000	27.184847
16.670000	27.184847
16.680000	27.184847
16.690000	27.184847
16.700000	27.184847
16.710000	27.184847
16.720000	27.184847
16.730000	27.184847
16.740000	27.184847
16.750000	27.184847
16.760000	27.184847
16.770000	27.184847
16.780000	27.184847
16.790000	27.184847
16.800000	27.184847
16.810000	27.184847
16.820000	27.184847
16.830000	27.184847
16.840000	27.184847
16.850000	27.184847
16.860000	27.184847
16.870000	27.184847
16.880000	27.184847
16.890000	27.184847
16.900000	27.184847
16.910000	27.184847
16.920000	27.184847
16.930000	27.184847
16.940000	27.184847
16.950000	27.184847
16.960000	27.184847
16.970000	27.184847
16.980000	27.184847
16.990000	27.184847
17.000000	27.122416
17.010000	27.122416
17.020000	27.122416
17.030000	27.122416
17.040000	27.122416
17.050000	27.122416
17.060000	27.122416
17.070000	27.122416
17.080000	27.122416
17.090000	27.122416
17.100000	27.122416
17.110000	27.122416
17.120000	27.122416
17.130000	27.122416
17.140000	27.122416
17.150000	27.122416
17.160000	27.122416
17.170000	27.122416
17.180000	27.122416
17.190000	27.122416
17.200000	27.122416
17.210000	27.122416
17.220000	27.122416
17.230000	27.122416
17.240000	27.122416
17.250000	27.122416
17.260000	27.122416
17.270000	27.122416
17.280000	27.122416
17.290000	27.122416
17.300000	27.122416
17.310000	27.122416
17.320000	27.122416
17.330000	27.122416
17.340000	27.122416
17.350000	27.122416
17.360000	27.122416
17.370000	27.122416
17.380000	27.122416
17.390000	27.122416
17.400000	27.122416
17.410000	27.122416
17.420000	27.122416
17.430000	27.122416
17.440000	27.122416
17.450000	27.122416
17.460000	27.122416
17.470000	27.122416
17.480000	27.122416
17.490000	27.122416
17.500000	27.061450
17.510000	27.061450
17.520000	27.061450
17.530000	27.061450
17.540000	27.061450
17.550000	27.061450
17.560000	27.061450
17.570000	27.061450
17.580000	27.061450
17.590000	27.061450
17.600000	27.061450
17.610000	27.061450
17.620000	27.061450
17.630000	27.061450
17.640000	27.061450
17.650000	27.061450
17.660000	27.061450
17.670000	27.061450
17.680000	27.061450
17.690000	27.061450
17.700000	27.061450
17.710000	27.061450
17.720000	27.061450
17.730000	27.061450
17.740000	27.061450
17.750000	27.061450
17.760000	27.061450
17.770000	27.061450
17.780000	27.061450
17.790000	27.061450
17.800000	27.061450
17.810000	27.061450
17.820000	27.061450
17.830000	27.061450
17.840000	27.061450
17.850000	27.061450
17.860000	27.061450
17.870000	27.061450
17.880000	27.061450
17.890000	27.061450
17.900000	27.061450
17.910000	27.061450
17.920000	27.061450
17.930000	27.061450
17.940000	27.061450
17.950000	27.061450
17.960000	27.061450
17.970000	27.061450
17.980000	27.061450
17.990000	27.061450
