LabVIEW Measurement	
Writer_Version	2
Reader_Version	2
Separator	Tab
Decimal_Separator	.
Multi_Headings	No
X_Columns	One
Time_Pref	Absolute
Operator	biomech-dyno
Date	2023/04/27
Time	17:41:55.9338632999999876419
***End_of_Header***	
	
Channels	1	
Samples	10	
Date	2023/04/27	
Time	17:43:54.5457538999996708085	
X_Dimension	Time	
X0	0.0000000000000000E+0	
Delta_X	0.010000	
***End_of_Header***		
X_Value	Untitled	Comment
0.000000	24.070739
0.010000	24.070739
0.020000	24.070739
0.030000	24.070739
0.040000	24.070739
0.050000	24.070739
0.060000	24.070739
0.070000	24.070739
0.080000	24.070739
0.090000	24.070739
0.100000	24.070739
0.110000	24.070739
0.120000	24.070739
0.130000	24.070739
0.140000	24.070739
0.150000	24.070739
0.160000	24.070739
0.170000	24.070739
0.180000	24.070739
0.190000	24.070739
0.200000	24.070739
0.210000	24.070739
0.220000	24.070739
0.230000	24.070739
0.240000	24.070739
0.250000	24.070739
0.260000	24.070739
0.270000	24.070739
0.280000	24.070739
0.290000	24.070739
0.300000	24.070739
0.310000	24.070739
0.320000	24.070739
0.330000	24.070739
0.340000	24.070739
0.350000	24.070739
0.360000	24.070739
0.370000	24.070739
0.380000	24.070739
0.390000	24.070739
0.400000	24.070739
0.410000	24.070739
0.420000	24.070739
0.430000	24.070739
0.440000	24.070739
0.450000	24.070739
0.460000	24.070739
0.470000	24.070739
0.480000	24.070739
0.490000	24.070739
0.500000	24.074389
0.510000	24.074389
0.520000	24.074389
0.530000	24.074389
0.540000	24.074389
0.550000	24.074389
0.560000	24.074389
0.570000	24.074389
0.580000	24.074389
0.590000	24.074389
0.600000	24.074389
0.610000	24.074389
0.620000	24.074389
0.630000	24.074389
0.640000	24.074389
0.650000	24.074389
0.660000	24.074389
0.670000	24.074389
0.680000	24.074389
0.690000	24.074389
0.700000	24.074389
0.710000	24.074389
0.720000	24.074389
0.730000	24.074389
0.740000	24.074389
0.750000	24.074389
0.760000	24.074389
0.770000	24.074389
0.780000	24.074389
0.790000	24.074389
0.800000	24.074389
0.810000	24.074389
0.820000	24.074389
0.830000	24.074389
0.840000	24.074389
0.850000	24.074389
0.860000	24.074389
0.870000	24.074389
0.880000	24.074389
0.890000	24.074389
0.900000	24.074389
0.910000	24.074389
0.920000	24.074389
0.930000	24.074389
0.940000	24.074389
0.950000	24.074389
0.960000	24.074389
0.970000	24.074389
0.980000	24.074389
0.990000	24.074389
1.000000	24.152078
1.010000	24.152078
1.020000	24.152078
1.030000	24.152078
1.040000	24.152078
1.050000	24.152078
1.060000	24.152078
1.070000	24.152078
1.080000	24.152078
1.090000	24.152078
1.100000	24.152078
1.110000	24.152078
1.120000	24.152078
1.130000	24.152078
1.140000	24.152078
1.150000	24.152078
1.160000	24.152078
1.170000	24.152078
1.180000	24.152078
1.190000	24.152078
1.200000	24.152078
1.210000	24.152078
1.220000	24.152078
1.230000	24.152078
1.240000	24.152078
1.250000	24.152078
1.260000	24.152078
1.270000	24.152078
1.280000	24.152078
1.290000	24.152078
1.300000	24.152078
1.310000	24.152078
1.320000	24.152078
1.330000	24.152078
1.340000	24.152078
1.350000	24.152078
1.360000	24.152078
1.370000	24.152078
1.380000	24.152078
1.390000	24.152078
1.400000	24.152078
1.410000	24.152078
1.420000	24.152078
1.430000	24.152078
1.440000	24.152078
1.450000	24.152078
1.460000	24.152078
1.470000	24.152078
1.480000	24.152078
1.490000	24.152078
1.500000	24.331054
1.510000	24.331054
1.520000	24.331054
1.530000	24.331054
1.540000	24.331054
1.550000	24.331054
1.560000	24.331054
1.570000	24.331054
1.580000	24.331054
1.590000	24.331054
1.600000	24.331054
1.610000	24.331054
1.620000	24.331054
1.630000	24.331054
1.640000	24.331054
1.650000	24.331054
1.660000	24.331054
1.670000	24.331054
1.680000	24.331054
1.690000	24.331054
1.700000	24.331054
1.710000	24.331054
1.720000	24.331054
1.730000	24.331054
1.740000	24.331054
1.750000	24.331054
1.760000	24.331054
1.770000	24.331054
1.780000	24.331054
1.790000	24.331054
1.800000	24.331054
1.810000	24.331054
1.820000	24.331054
1.830000	24.331054
1.840000	24.331054
1.850000	24.331054
1.860000	24.331054
1.870000	24.331054
1.880000	24.331054
1.890000	24.331054
1.900000	24.331054
1.910000	24.331054
1.920000	24.331054
1.930000	24.331054
1.940000	24.331054
1.950000	24.331054
1.960000	24.331054
1.970000	24.331054
1.980000	24.331054
1.990000	24.331054
2.000000	24.593599
2.010000	24.593599
2.020000	24.593599
2.030000	24.593599
2.040000	24.593599
2.050000	24.593599
2.060000	24.593599
2.070000	24.593599
2.080000	24.593599
2.090000	24.593599
2.100000	24.593599
2.110000	24.593599
2.120000	24.593599
2.130000	24.593599
2.140000	24.593599
2.150000	24.593599
2.160000	24.593599
2.170000	24.593599
2.180000	24.593599
2.190000	24.593599
2.200000	24.593599
2.210000	24.593599
2.220000	24.593599
2.230000	24.593599
2.240000	24.593599
2.250000	24.593599
2.260000	24.593599
2.270000	24.593599
2.280000	24.593599
2.290000	24.593599
2.300000	24.593599
2.310000	24.593599
2.320000	24.593599
2.330000	24.593599
2.340000	24.593599
2.350000	24.593599
2.360000	24.593599
2.370000	24.593599
2.380000	24.593599
2.390000	24.593599
2.400000	24.593599
2.410000	24.593599
2.420000	24.593599
2.430000	24.593599
2.440000	24.593599
2.450000	24.593599
2.460000	24.593599
2.470000	24.593599
2.480000	24.593599
2.490000	24.593599
2.500000	24.921029
2.510000	24.921029
2.520000	24.921029
2.530000	24.921029
2.540000	24.921029
2.550000	24.921029
2.560000	24.921029
2.570000	24.921029
2.580000	24.921029
2.590000	24.921029
2.600000	24.921029
2.610000	24.921029
2.620000	24.921029
2.630000	24.921029
2.640000	24.921029
2.650000	24.921029
2.660000	24.921029
2.670000	24.921029
2.680000	24.921029
2.690000	24.921029
2.700000	24.921029
2.710000	24.921029
2.720000	24.921029
2.730000	24.921029
2.740000	24.921029
2.750000	24.921029
2.760000	24.921029
2.770000	24.921029
2.780000	24.921029
2.790000	24.921029
2.800000	24.921029
2.810000	24.921029
2.820000	24.921029
2.830000	24.921029
2.840000	24.921029
2.850000	24.921029
2.860000	24.921029
2.870000	24.921029
2.880000	24.921029
2.890000	24.921029
2.900000	24.921029
2.910000	24.921029
2.920000	24.921029
2.930000	24.921029
2.940000	24.921029
2.950000	24.921029
2.960000	24.921029
2.970000	24.921029
2.980000	24.921029
2.990000	24.921029
3.000000	25.283424
3.010000	25.283424
3.020000	25.283424
3.030000	25.283424
3.040000	25.283424
3.050000	25.283424
3.060000	25.283424
3.070000	25.283424
3.080000	25.283424
3.090000	25.283424
3.100000	25.283424
3.110000	25.283424
3.120000	25.283424
3.130000	25.283424
3.140000	25.283424
3.150000	25.283424
3.160000	25.283424
3.170000	25.283424
3.180000	25.283424
3.190000	25.283424
3.200000	25.283424
3.210000	25.283424
3.220000	25.283424
3.230000	25.283424
3.240000	25.283424
3.250000	25.283424
3.260000	25.283424
3.270000	25.283424
3.280000	25.283424
3.290000	25.283424
3.300000	25.283424
3.310000	25.283424
3.320000	25.283424
3.330000	25.283424
3.340000	25.283424
3.350000	25.283424
3.360000	25.283424
3.370000	25.283424
3.380000	25.283424
3.390000	25.283424
3.400000	25.283424
3.410000	25.283424
3.420000	25.283424
3.430000	25.283424
3.440000	25.283424
3.450000	25.283424
3.460000	25.283424
3.470000	25.283424
3.480000	25.283424
3.490000	25.283424
3.500000	25.588591
3.510000	25.588591
3.520000	25.588591
3.530000	25.588591
3.540000	25.588591
3.550000	25.588591
3.560000	25.588591
3.570000	25.588591
3.580000	25.588591
3.590000	25.588591
3.600000	25.588591
3.610000	25.588591
3.620000	25.588591
3.630000	25.588591
3.640000	25.588591
3.650000	25.588591
3.660000	25.588591
3.670000	25.588591
3.680000	25.588591
3.690000	25.588591
3.700000	25.588591
3.710000	25.588591
3.720000	25.588591
3.730000	25.588591
3.740000	25.588591
3.750000	25.588591
3.760000	25.588591
3.770000	25.588591
3.780000	25.588591
3.790000	25.588591
3.800000	25.588591
3.810000	25.588591
3.820000	25.588591
3.830000	25.588591
3.840000	25.588591
3.850000	25.588591
3.860000	25.588591
3.870000	25.588591
3.880000	25.588591
3.890000	25.588591
3.900000	25.588591
3.910000	25.588591
3.920000	25.588591
3.930000	25.588591
3.940000	25.588591
3.950000	25.588591
3.960000	25.588591
3.970000	25.588591
3.980000	25.588591
3.990000	25.588591
4.000000	25.811646
4.010000	25.811646
4.020000	25.811646
4.030000	25.811646
4.040000	25.811646
4.050000	25.811646
4.060000	25.811646
4.070000	25.811646
4.080000	25.811646
4.090000	25.811646
4.100000	25.811646
4.110000	25.811646
4.120000	25.811646
4.130000	25.811646
4.140000	25.811646
4.150000	25.811646
4.160000	25.811646
4.170000	25.811646
4.180000	25.811646
4.190000	25.811646
4.200000	25.811646
4.210000	25.811646
4.220000	25.811646
4.230000	25.811646
4.240000	25.811646
4.250000	25.811646
4.260000	25.811646
4.270000	25.811646
4.280000	25.811646
4.290000	25.811646
4.300000	25.811646
4.310000	25.811646
4.320000	25.811646
4.330000	25.811646
4.340000	25.811646
4.350000	25.811646
4.360000	25.811646
4.370000	25.811646
4.380000	25.811646
4.390000	25.811646
4.400000	25.811646
4.410000	25.811646
4.420000	25.811646
4.430000	25.811646
4.440000	25.811646
4.450000	25.811646
4.460000	25.811646
4.470000	25.811646
4.480000	25.811646
4.490000	25.811646
4.500000	25.965653
4.510000	25.965653
4.520000	25.965653
4.530000	25.965653
4.540000	25.965653
4.550000	25.965653
4.560000	25.965653
4.570000	25.965653
4.580000	25.965653
4.590000	25.965653
4.600000	25.965653
4.610000	25.965653
4.620000	25.965653
4.630000	25.965653
4.640000	25.965653
4.650000	25.965653
4.660000	25.965653
4.670000	25.965653
4.680000	25.965653
4.690000	25.965653
4.700000	25.965653
4.710000	25.965653
4.720000	25.965653
4.730000	25.965653
4.740000	25.965653
4.750000	25.965653
4.760000	25.965653
4.770000	25.965653
4.780000	25.965653
4.790000	25.965653
4.800000	25.965653
4.810000	25.965653
4.820000	25.965653
4.830000	25.965653
4.840000	25.965653
4.850000	25.965653
4.860000	25.965653
4.870000	25.965653
4.880000	25.965653
4.890000	25.965653
4.900000	25.965653
4.910000	25.965653
4.920000	25.965653
4.930000	25.965653
4.940000	25.965653
4.950000	25.965653
4.960000	25.965653
4.970000	25.965653
4.980000	25.965653
4.990000	25.965653
5.000000	26.067656
5.010000	26.067656
5.020000	26.067656
5.030000	26.067656
5.040000	26.067656
5.050000	26.067656
5.060000	26.067656
5.070000	26.067656
5.080000	26.067656
5.090000	26.067656
5.100000	26.067656
5.110000	26.067656
5.120000	26.067656
5.130000	26.067656
5.140000	26.067656
5.150000	26.067656
5.160000	26.067656
5.170000	26.067656
5.180000	26.067656
5.190000	26.067656
5.200000	26.067656
5.210000	26.067656
5.220000	26.067656
5.230000	26.067656
5.240000	26.067656
5.250000	26.067656
5.260000	26.067656
5.270000	26.067656
5.280000	26.067656
5.290000	26.067656
5.300000	26.067656
5.310000	26.067656
5.320000	26.067656
5.330000	26.067656
5.340000	26.067656
5.350000	26.067656
5.360000	26.067656
5.370000	26.067656
5.380000	26.067656
5.390000	26.067656
5.400000	26.067656
5.410000	26.067656
5.420000	26.067656
5.430000	26.067656
5.440000	26.067656
5.450000	26.067656
5.460000	26.067656
5.470000	26.067656
5.480000	26.067656
5.490000	26.067656
5.500000	26.131555
5.510000	26.131555
5.520000	26.131555
5.530000	26.131555
5.540000	26.131555
5.550000	26.131555
5.560000	26.131555
5.570000	26.131555
5.580000	26.131555
5.590000	26.131555
5.600000	26.131555
5.610000	26.131555
5.620000	26.131555
5.630000	26.131555
5.640000	26.131555
5.650000	26.131555
5.660000	26.131555
5.670000	26.131555
5.680000	26.131555
5.690000	26.131555
5.700000	26.131555
5.710000	26.131555
5.720000	26.131555
5.730000	26.131555
5.740000	26.131555
5.750000	26.131555
5.760000	26.131555
5.770000	26.131555
5.780000	26.131555
5.790000	26.131555
5.800000	26.131555
5.810000	26.131555
5.820000	26.131555
5.830000	26.131555
5.840000	26.131555
5.850000	26.131555
5.860000	26.131555
5.870000	26.131555
5.880000	26.131555
5.890000	26.131555
5.900000	26.131555
5.910000	26.131555
5.920000	26.131555
5.930000	26.131555
5.940000	26.131555
5.950000	26.131555
5.960000	26.131555
5.970000	26.131555
5.980000	26.131555
5.990000	26.131555
6.000000	26.167227
6.010000	26.167227
6.020000	26.167227
6.030000	26.167227
6.040000	26.167227
6.050000	26.167227
6.060000	26.167227
6.070000	26.167227
6.080000	26.167227
6.090000	26.167227
6.100000	26.167227
6.110000	26.167227
6.120000	26.167227
6.130000	26.167227
6.140000	26.167227
6.150000	26.167227
6.160000	26.167227
6.170000	26.167227
6.180000	26.167227
6.190000	26.167227
6.200000	26.167227
6.210000	26.167227
6.220000	26.167227
6.230000	26.167227
6.240000	26.167227
6.250000	26.167227
6.260000	26.167227
6.270000	26.167227
6.280000	26.167227
6.290000	26.167227
6.300000	26.167227
6.310000	26.167227
6.320000	26.167227
6.330000	26.167227
6.340000	26.167227
6.350000	26.167227
6.360000	26.167227
6.370000	26.167227
6.380000	26.167227
6.390000	26.167227
6.400000	26.167227
6.410000	26.167227
6.420000	26.167227
6.430000	26.167227
6.440000	26.167227
6.450000	26.167227
6.460000	26.167227
6.470000	26.167227
6.480000	26.167227
6.490000	26.167227
6.500000	26.181269
6.510000	26.181269
6.520000	26.181269
6.530000	26.181269
6.540000	26.181269
6.550000	26.181269
6.560000	26.181269
6.570000	26.181269
6.580000	26.181269
6.590000	26.181269
6.600000	26.181269
6.610000	26.181269
6.620000	26.181269
6.630000	26.181269
6.640000	26.181269
6.650000	26.181269
6.660000	26.181269
6.670000	26.181269
6.680000	26.181269
6.690000	26.181269
6.700000	26.181269
6.710000	26.181269
6.720000	26.181269
6.730000	26.181269
6.740000	26.181269
6.750000	26.181269
6.760000	26.181269
6.770000	26.181269
6.780000	26.181269
6.790000	26.181269
6.800000	26.181269
6.810000	26.181269
6.820000	26.181269
6.830000	26.181269
6.840000	26.181269
6.850000	26.181269
6.860000	26.181269
6.870000	26.181269
6.880000	26.181269
6.890000	26.181269
6.900000	26.181269
6.910000	26.181269
6.920000	26.181269
6.930000	26.181269
6.940000	26.181269
6.950000	26.181269
6.960000	26.181269
6.970000	26.181269
6.980000	26.181269
6.990000	26.181269
7.000000	26.180115
7.010000	26.180115
7.020000	26.180115
7.030000	26.180115
7.040000	26.180115
7.050000	26.180115
7.060000	26.180115
7.070000	26.180115
7.080000	26.180115
7.090000	26.180115
7.100000	26.180115
7.110000	26.180115
7.120000	26.180115
7.130000	26.180115
7.140000	26.180115
7.150000	26.180115
7.160000	26.180115
7.170000	26.180115
7.180000	26.180115
7.190000	26.180115
7.200000	26.180115
7.210000	26.180115
7.220000	26.180115
7.230000	26.180115
7.240000	26.180115
7.250000	26.180115
7.260000	26.180115
7.270000	26.180115
7.280000	26.180115
7.290000	26.180115
7.300000	26.180115
7.310000	26.180115
7.320000	26.180115
7.330000	26.180115
7.340000	26.180115
7.350000	26.180115
7.360000	26.180115
7.370000	26.180115
7.380000	26.180115
7.390000	26.180115
7.400000	26.180115
7.410000	26.180115
7.420000	26.180115
7.430000	26.180115
7.440000	26.180115
7.450000	26.180115
7.460000	26.180115
7.470000	26.180115
7.480000	26.180115
7.490000	26.180115
7.500000	26.165939
7.510000	26.165939
7.520000	26.165939
7.530000	26.165939
7.540000	26.165939
7.550000	26.165939
7.560000	26.165939
7.570000	26.165939
7.580000	26.165939
7.590000	26.165939
7.600000	26.165939
7.610000	26.165939
7.620000	26.165939
7.630000	26.165939
7.640000	26.165939
7.650000	26.165939
7.660000	26.165939
7.670000	26.165939
7.680000	26.165939
7.690000	26.165939
7.700000	26.165939
7.710000	26.165939
7.720000	26.165939
7.730000	26.165939
7.740000	26.165939
7.750000	26.165939
7.760000	26.165939
7.770000	26.165939
7.780000	26.165939
7.790000	26.165939
7.800000	26.165939
7.810000	26.165939
7.820000	26.165939
7.830000	26.165939
7.840000	26.165939
7.850000	26.165939
7.860000	26.165939
7.870000	26.165939
7.880000	26.165939
7.890000	26.165939
7.900000	26.165939
7.910000	26.165939
7.920000	26.165939
7.930000	26.165939
7.940000	26.165939
7.950000	26.165939
7.960000	26.165939
7.970000	26.165939
7.980000	26.165939
7.990000	26.165939
8.000000	26.142943
8.010000	26.142943
8.020000	26.142943
8.030000	26.142943
8.040000	26.142943
8.050000	26.142943
8.060000	26.142943
8.070000	26.142943
8.080000	26.142943
8.090000	26.142943
8.100000	26.142943
8.110000	26.142943
8.120000	26.142943
8.130000	26.142943
8.140000	26.142943
8.150000	26.142943
8.160000	26.142943
8.170000	26.142943
8.180000	26.142943
8.190000	26.142943
8.200000	26.142943
8.210000	26.142943
8.220000	26.142943
8.230000	26.142943
8.240000	26.142943
8.250000	26.142943
8.260000	26.142943
8.270000	26.142943
8.280000	26.142943
8.290000	26.142943
8.300000	26.142943
8.310000	26.142943
8.320000	26.142943
8.330000	26.142943
8.340000	26.142943
8.350000	26.142943
8.360000	26.142943
8.370000	26.142943
8.380000	26.142943
8.390000	26.142943
8.400000	26.142943
8.410000	26.142943
8.420000	26.142943
8.430000	26.142943
8.440000	26.142943
8.450000	26.142943
8.460000	26.142943
8.470000	26.142943
8.480000	26.142943
8.490000	26.142943
8.500000	26.113705
8.510000	26.113705
8.520000	26.113705
8.530000	26.113705
8.540000	26.113705
8.550000	26.113705
8.560000	26.113705
8.570000	26.113705
8.580000	26.113705
8.590000	26.113705
8.600000	26.113705
8.610000	26.113705
8.620000	26.113705
8.630000	26.113705
8.640000	26.113705
8.650000	26.113705
8.660000	26.113705
8.670000	26.113705
8.680000	26.113705
8.690000	26.113705
8.700000	26.113705
8.710000	26.113705
8.720000	26.113705
8.730000	26.113705
8.740000	26.113705
8.750000	26.113705
8.760000	26.113705
8.770000	26.113705
8.780000	26.113705
8.790000	26.113705
8.800000	26.113705
8.810000	26.113705
8.820000	26.113705
8.830000	26.113705
8.840000	26.113705
8.850000	26.113705
8.860000	26.113705
8.870000	26.113705
8.880000	26.113705
8.890000	26.113705
8.900000	26.113705
8.910000	26.113705
8.920000	26.113705
8.930000	26.113705
8.940000	26.113705
8.950000	26.113705
8.960000	26.113705
8.970000	26.113705
8.980000	26.113705
8.990000	26.113705
9.000000	26.078814
9.010000	26.078814
9.020000	26.078814
9.030000	26.078814
9.040000	26.078814
9.050000	26.078814
9.060000	26.078814
9.070000	26.078814
9.080000	26.078814
9.090000	26.078814
9.100000	26.078814
9.110000	26.078814
9.120000	26.078814
9.130000	26.078814
9.140000	26.078814
9.150000	26.078814
9.160000	26.078814
9.170000	26.078814
9.180000	26.078814
9.190000	26.078814
9.200000	26.078814
9.210000	26.078814
9.220000	26.078814
9.230000	26.078814
9.240000	26.078814
9.250000	26.078814
9.260000	26.078814
9.270000	26.078814
9.280000	26.078814
9.290000	26.078814
9.300000	26.078814
9.310000	26.078814
9.320000	26.078814
9.330000	26.078814
9.340000	26.078814
9.350000	26.078814
9.360000	26.078814
9.370000	26.078814
9.380000	26.078814
9.390000	26.078814
9.400000	26.078814
9.410000	26.078814
9.420000	26.078814
9.430000	26.078814
9.440000	26.078814
9.450000	26.078814
9.460000	26.078814
9.470000	26.078814
9.480000	26.078814
9.490000	26.078814
9.500000	26.040427
9.510000	26.040427
9.520000	26.040427
9.530000	26.040427
9.540000	26.040427
9.550000	26.040427
9.560000	26.040427
9.570000	26.040427
9.580000	26.040427
9.590000	26.040427
9.600000	26.040427
9.610000	26.040427
9.620000	26.040427
9.630000	26.040427
9.640000	26.040427
9.650000	26.040427
9.660000	26.040427
9.670000	26.040427
9.680000	26.040427
9.690000	26.040427
9.700000	26.040427
9.710000	26.040427
9.720000	26.040427
9.730000	26.040427
9.740000	26.040427
9.750000	26.040427
9.760000	26.040427
9.770000	26.040427
9.780000	26.040427
9.790000	26.040427
9.800000	26.040427
9.810000	26.040427
9.820000	26.040427
9.830000	26.040427
9.840000	26.040427
9.850000	26.040427
9.860000	26.040427
9.870000	26.040427
9.880000	26.040427
9.890000	26.040427
9.900000	26.040427
9.910000	26.040427
9.920000	26.040427
9.930000	26.040427
9.940000	26.040427
9.950000	26.040427
9.960000	26.040427
9.970000	26.040427
9.980000	26.040427
9.990000	26.040427
10.000000	26.000227
10.010000	26.000227
10.020000	26.000227
10.030000	26.000227
10.040000	26.000227
10.050000	26.000227
10.060000	26.000227
10.070000	26.000227
10.080000	26.000227
10.090000	26.000227
10.100000	26.000227
10.110000	26.000227
10.120000	26.000227
10.130000	26.000227
10.140000	26.000227
10.150000	26.000227
10.160000	26.000227
10.170000	26.000227
10.180000	26.000227
10.190000	26.000227
10.200000	26.000227
10.210000	26.000227
10.220000	26.000227
10.230000	26.000227
10.240000	26.000227
10.250000	26.000227
10.260000	26.000227
10.270000	26.000227
10.280000	26.000227
10.290000	26.000227
10.300000	26.000227
10.310000	26.000227
10.320000	26.000227
10.330000	26.000227
10.340000	26.000227
10.350000	26.000227
10.360000	26.000227
10.370000	26.000227
10.380000	26.000227
10.390000	26.000227
10.400000	26.000227
10.410000	26.000227
10.420000	26.000227
10.430000	26.000227
10.440000	26.000227
10.450000	26.000227
10.460000	26.000227
10.470000	26.000227
10.480000	26.000227
10.490000	26.000227
10.500000	25.958573
10.510000	25.958573
10.520000	25.958573
10.530000	25.958573
10.540000	25.958573
10.550000	25.958573
10.560000	25.958573
10.570000	25.958573
10.580000	25.958573
10.590000	25.958573
10.600000	25.958573
10.610000	25.958573
10.620000	25.958573
10.630000	25.958573
10.640000	25.958573
10.650000	25.958573
10.660000	25.958573
10.670000	25.958573
10.680000	25.958573
10.690000	25.958573
10.700000	25.958573
10.710000	25.958573
10.720000	25.958573
10.730000	25.958573
10.740000	25.958573
10.750000	25.958573
10.760000	25.958573
10.770000	25.958573
10.780000	25.958573
10.790000	25.958573
10.800000	25.958573
10.810000	25.958573
10.820000	25.958573
10.830000	25.958573
10.840000	25.958573
10.850000	25.958573
10.860000	25.958573
10.870000	25.958573
10.880000	25.958573
10.890000	25.958573
10.900000	25.958573
10.910000	25.958573
10.920000	25.958573
10.930000	25.958573
10.940000	25.958573
10.950000	25.958573
10.960000	25.958573
10.970000	25.958573
10.980000	25.958573
10.990000	25.958573
11.000000	25.916860
11.010000	25.916860
11.020000	25.916860
11.030000	25.916860
11.040000	25.916860
11.050000	25.916860
11.060000	25.916860
11.070000	25.916860
11.080000	25.916860
11.090000	25.916860
11.100000	25.916860
11.110000	25.916860
11.120000	25.916860
11.130000	25.916860
11.140000	25.916860
11.150000	25.916860
11.160000	25.916860
11.170000	25.916860
11.180000	25.916860
11.190000	25.916860
11.200000	25.916860
11.210000	25.916860
11.220000	25.916860
11.230000	25.916860
11.240000	25.916860
11.250000	25.916860
11.260000	25.916860
11.270000	25.916860
11.280000	25.916860
11.290000	25.916860
11.300000	25.916860
11.310000	25.916860
11.320000	25.916860
11.330000	25.916860
11.340000	25.916860
11.350000	25.916860
11.360000	25.916860
11.370000	25.916860
11.380000	25.916860
11.390000	25.916860
11.400000	25.916860
11.410000	25.916860
11.420000	25.916860
11.430000	25.916860
11.440000	25.916860
11.450000	25.916860
11.460000	25.916860
11.470000	25.916860
11.480000	25.916860
11.490000	25.916860
11.500000	25.875162
11.510000	25.875162
11.520000	25.875162
11.530000	25.875162
11.540000	25.875162
11.550000	25.875162
11.560000	25.875162
11.570000	25.875162
11.580000	25.875162
11.590000	25.875162
11.600000	25.875162
11.610000	25.875162
11.620000	25.875162
11.630000	25.875162
11.640000	25.875162
11.650000	25.875162
11.660000	25.875162
11.670000	25.875162
11.680000	25.875162
11.690000	25.875162
11.700000	25.875162
11.710000	25.875162
11.720000	25.875162
11.730000	25.875162
11.740000	25.875162
11.750000	25.875162
11.760000	25.875162
11.770000	25.875162
11.780000	25.875162
11.790000	25.875162
11.800000	25.875162
11.810000	25.875162
11.820000	25.875162
11.830000	25.875162
11.840000	25.875162
11.850000	25.875162
11.860000	25.875162
11.870000	25.875162
11.880000	25.875162
11.890000	25.875162
11.900000	25.875162
11.910000	25.875162
11.920000	25.875162
11.930000	25.875162
11.940000	25.875162
11.950000	25.875162
11.960000	25.875162
11.970000	25.875162
11.980000	25.875162
11.990000	25.875162
12.000000	25.831699
12.010000	25.831699
12.020000	25.831699
12.030000	25.831699
12.040000	25.831699
12.050000	25.831699
12.060000	25.831699
12.070000	25.831699
12.080000	25.831699
12.090000	25.831699
12.100000	25.831699
12.110000	25.831699
12.120000	25.831699
12.130000	25.831699
12.140000	25.831699
12.150000	25.831699
12.160000	25.831699
12.170000	25.831699
12.180000	25.831699
12.190000	25.831699
12.200000	25.831699
12.210000	25.831699
12.220000	25.831699
12.230000	25.831699
12.240000	25.831699
12.250000	25.831699
12.260000	25.831699
12.270000	25.831699
12.280000	25.831699
12.290000	25.831699
12.300000	25.831699
12.310000	25.831699
12.320000	25.831699
12.330000	25.831699
12.340000	25.831699
12.350000	25.831699
12.360000	25.831699
12.370000	25.831699
12.380000	25.831699
12.390000	25.831699
12.400000	25.831699
12.410000	25.831699
12.420000	25.831699
12.430000	25.831699
12.440000	25.831699
12.450000	25.831699
12.460000	25.831699
12.470000	25.831699
12.480000	25.831699
12.490000	25.831699
12.500000	25.785958
12.510000	25.785958
12.520000	25.785958
12.530000	25.785958
12.540000	25.785958
12.550000	25.785958
12.560000	25.785958
12.570000	25.785958
12.580000	25.785958
12.590000	25.785958
12.600000	25.785958
12.610000	25.785958
12.620000	25.785958
12.630000	25.785958
12.640000	25.785958
12.650000	25.785958
12.660000	25.785958
12.670000	25.785958
12.680000	25.785958
12.690000	25.785958
12.700000	25.785958
12.710000	25.785958
12.720000	25.785958
12.730000	25.785958
12.740000	25.785958
12.750000	25.785958
12.760000	25.785958
12.770000	25.785958
12.780000	25.785958
12.790000	25.785958
12.800000	25.785958
12.810000	25.785958
12.820000	25.785958
12.830000	25.785958
12.840000	25.785958
12.850000	25.785958
12.860000	25.785958
12.870000	25.785958
12.880000	25.785958
12.890000	25.785958
12.900000	25.785958
12.910000	25.785958
12.920000	25.785958
12.930000	25.785958
12.940000	25.785958
12.950000	25.785958
12.960000	25.785958
12.970000	25.785958
12.980000	25.785958
12.990000	25.785958
13.000000	25.740250
13.010000	25.740250
13.020000	25.740250
13.030000	25.740250
13.040000	25.740250
13.050000	25.740250
13.060000	25.740250
13.070000	25.740250
13.080000	25.740250
13.090000	25.740250
13.100000	25.740250
13.110000	25.740250
13.120000	25.740250
13.130000	25.740250
13.140000	25.740250
13.150000	25.740250
13.160000	25.740250
13.170000	25.740250
13.180000	25.740250
13.190000	25.740250
13.200000	25.740250
13.210000	25.740250
13.220000	25.740250
13.230000	25.740250
13.240000	25.740250
13.250000	25.740250
13.260000	25.740250
13.270000	25.740250
13.280000	25.740250
13.290000	25.740250
13.300000	25.740250
13.310000	25.740250
13.320000	25.740250
13.330000	25.740250
13.340000	25.740250
13.350000	25.740250
13.360000	25.740250
13.370000	25.740250
13.380000	25.740250
13.390000	25.740250
13.400000	25.740250
13.410000	25.740250
13.420000	25.740250
13.430000	25.740250
13.440000	25.740250
13.450000	25.740250
13.460000	25.740250
13.470000	25.740250
13.480000	25.740250
13.490000	25.740250
13.500000	25.696167
13.510000	25.696167
13.520000	25.696167
13.530000	25.696167
13.540000	25.696167
13.550000	25.696167
13.560000	25.696167
13.570000	25.696167
13.580000	25.696167
13.590000	25.696167
13.600000	25.696167
13.610000	25.696167
13.620000	25.696167
13.630000	25.696167
13.640000	25.696167
13.650000	25.696167
13.660000	25.696167
13.670000	25.696167
13.680000	25.696167
13.690000	25.696167
13.700000	25.696167
13.710000	25.696167
13.720000	25.696167
13.730000	25.696167
13.740000	25.696167
13.750000	25.696167
13.760000	25.696167
13.770000	25.696167
13.780000	25.696167
13.790000	25.696167
13.800000	25.696167
13.810000	25.696167
13.820000	25.696167
13.830000	25.696167
13.840000	25.696167
13.850000	25.696167
13.860000	25.696167
13.870000	25.696167
13.880000	25.696167
13.890000	25.696167
13.900000	25.696167
13.910000	25.696167
13.920000	25.696167
13.930000	25.696167
13.940000	25.696167
13.950000	25.696167
13.960000	25.696167
13.970000	25.696167
13.980000	25.696167
13.990000	25.696167
14.000000	25.654036
14.010000	25.654036
14.020000	25.654036
14.030000	25.654036
14.040000	25.654036
14.050000	25.654036
14.060000	25.654036
14.070000	25.654036
14.080000	25.654036
14.090000	25.654036
14.100000	25.654036
14.110000	25.654036
14.120000	25.654036
14.130000	25.654036
14.140000	25.654036
14.150000	25.654036
14.160000	25.654036
14.170000	25.654036
14.180000	25.654036
14.190000	25.654036
14.200000	25.654036
14.210000	25.654036
14.220000	25.654036
14.230000	25.654036
14.240000	25.654036
14.250000	25.654036
14.260000	25.654036
14.270000	25.654036
14.280000	25.654036
14.290000	25.654036
14.300000	25.654036
14.310000	25.654036
14.320000	25.654036
14.330000	25.654036
14.340000	25.654036
14.350000	25.654036
14.360000	25.654036
14.370000	25.654036
14.380000	25.654036
14.390000	25.654036
14.400000	25.654036
14.410000	25.654036
14.420000	25.654036
14.430000	25.654036
14.440000	25.654036
14.450000	25.654036
14.460000	25.654036
14.470000	25.654036
14.480000	25.654036
14.490000	25.654036
14.500000	25.611086
14.510000	25.611086
14.520000	25.611086
14.530000	25.611086
14.540000	25.611086
14.550000	25.611086
14.560000	25.611086
14.570000	25.611086
14.580000	25.611086
14.590000	25.611086
14.600000	25.611086
14.610000	25.611086
14.620000	25.611086
14.630000	25.611086
14.640000	25.611086
14.650000	25.611086
14.660000	25.611086
14.670000	25.611086
14.680000	25.611086
14.690000	25.611086
14.700000	25.611086
14.710000	25.611086
14.720000	25.611086
14.730000	25.611086
14.740000	25.611086
14.750000	25.611086
14.760000	25.611086
14.770000	25.611086
14.780000	25.611086
14.790000	25.611086
14.800000	25.611086
14.810000	25.611086
14.820000	25.611086
14.830000	25.611086
14.840000	25.611086
14.850000	25.611086
14.860000	25.611086
14.870000	25.611086
14.880000	25.611086
14.890000	25.611086
14.900000	25.611086
14.910000	25.611086
14.920000	25.611086
14.930000	25.611086
14.940000	25.611086
14.950000	25.611086
14.960000	25.611086
14.970000	25.611086
14.980000	25.611086
14.990000	25.611086
15.000000	25.567092
15.010000	25.567092
15.020000	25.567092
15.030000	25.567092
15.040000	25.567092
15.050000	25.567092
15.060000	25.567092
15.070000	25.567092
15.080000	25.567092
15.090000	25.567092
15.100000	25.567092
15.110000	25.567092
15.120000	25.567092
15.130000	25.567092
15.140000	25.567092
15.150000	25.567092
15.160000	25.567092
15.170000	25.567092
15.180000	25.567092
15.190000	25.567092
15.200000	25.567092
15.210000	25.567092
15.220000	25.567092
15.230000	25.567092
15.240000	25.567092
15.250000	25.567092
15.260000	25.567092
15.270000	25.567092
15.280000	25.567092
15.290000	25.567092
15.300000	25.567092
15.310000	25.567092
15.320000	25.567092
15.330000	25.567092
15.340000	25.567092
15.350000	25.567092
15.360000	25.567092
15.370000	25.567092
15.380000	25.567092
15.390000	25.567092
15.400000	25.567092
15.410000	25.567092
15.420000	25.567092
15.430000	25.567092
15.440000	25.567092
15.450000	25.567092
15.460000	25.567092
15.470000	25.567092
15.480000	25.567092
15.490000	25.567092
15.500000	25.525909
15.510000	25.525909
15.520000	25.525909
15.530000	25.525909
15.540000	25.525909
15.550000	25.525909
15.560000	25.525909
15.570000	25.525909
15.580000	25.525909
15.590000	25.525909
15.600000	25.525909
15.610000	25.525909
15.620000	25.525909
15.630000	25.525909
15.640000	25.525909
15.650000	25.525909
15.660000	25.525909
15.670000	25.525909
15.680000	25.525909
15.690000	25.525909
15.700000	25.525909
15.710000	25.525909
15.720000	25.525909
15.730000	25.525909
15.740000	25.525909
15.750000	25.525909
15.760000	25.525909
15.770000	25.525909
15.780000	25.525909
15.790000	25.525909
15.800000	25.525909
15.810000	25.525909
15.820000	25.525909
15.830000	25.525909
15.840000	25.525909
15.850000	25.525909
15.860000	25.525909
15.870000	25.525909
15.880000	25.525909
15.890000	25.525909
15.900000	25.525909
15.910000	25.525909
15.920000	25.525909
15.930000	25.525909
15.940000	25.525909
15.950000	25.525909
15.960000	25.525909
15.970000	25.525909
15.980000	25.525909
15.990000	25.525909
16.000000	25.487424
16.010000	25.487424
16.020000	25.487424
16.030000	25.487424
16.040000	25.487424
16.050000	25.487424
16.060000	25.487424
16.070000	25.487424
16.080000	25.487424
16.090000	25.487424
16.100000	25.487424
16.110000	25.487424
16.120000	25.487424
16.130000	25.487424
16.140000	25.487424
16.150000	25.487424
16.160000	25.487424
16.170000	25.487424
16.180000	25.487424
16.190000	25.487424
16.200000	25.487424
16.210000	25.487424
16.220000	25.487424
16.230000	25.487424
16.240000	25.487424
16.250000	25.487424
16.260000	25.487424
16.270000	25.487424
16.280000	25.487424
16.290000	25.487424
16.300000	25.487424
16.310000	25.487424
16.320000	25.487424
16.330000	25.487424
16.340000	25.487424
16.350000	25.487424
16.360000	25.487424
16.370000	25.487424
16.380000	25.487424
16.390000	25.487424
16.400000	25.487424
16.410000	25.487424
16.420000	25.487424
16.430000	25.487424
16.440000	25.487424
16.450000	25.487424
16.460000	25.487424
16.470000	25.487424
16.480000	25.487424
16.490000	25.487424
16.500000	25.451576
16.510000	25.451576
16.520000	25.451576
16.530000	25.451576
16.540000	25.451576
16.550000	25.451576
16.560000	25.451576
16.570000	25.451576
16.580000	25.451576
16.590000	25.451576
16.600000	25.451576
16.610000	25.451576
16.620000	25.451576
16.630000	25.451576
16.640000	25.451576
16.650000	25.451576
16.660000	25.451576
16.670000	25.451576
16.680000	25.451576
16.690000	25.451576
16.700000	25.451576
16.710000	25.451576
16.720000	25.451576
16.730000	25.451576
16.740000	25.451576
16.750000	25.451576
16.760000	25.451576
16.770000	25.451576
16.780000	25.451576
16.790000	25.451576
16.800000	25.451576
16.810000	25.451576
16.820000	25.451576
16.830000	25.451576
16.840000	25.451576
16.850000	25.451576
16.860000	25.451576
16.870000	25.451576
16.880000	25.451576
16.890000	25.451576
16.900000	25.451576
16.910000	25.451576
16.920000	25.451576
16.930000	25.451576
16.940000	25.451576
16.950000	25.451576
16.960000	25.451576
16.970000	25.451576
16.980000	25.451576
16.990000	25.451576
17.000000	25.418413
17.010000	25.418413
17.020000	25.418413
17.030000	25.418413
17.040000	25.418413
17.050000	25.418413
17.060000	25.418413
17.070000	25.418413
17.080000	25.418413
17.090000	25.418413
17.100000	25.418413
17.110000	25.418413
17.120000	25.418413
17.130000	25.418413
17.140000	25.418413
17.150000	25.418413
17.160000	25.418413
17.170000	25.418413
17.180000	25.418413
17.190000	25.418413
17.200000	25.418413
17.210000	25.418413
17.220000	25.418413
17.230000	25.418413
17.240000	25.418413
17.250000	25.418413
17.260000	25.418413
17.270000	25.418413
17.280000	25.418413
17.290000	25.418413
17.300000	25.418413
17.310000	25.418413
17.320000	25.418413
17.330000	25.418413
17.340000	25.418413
17.350000	25.418413
17.360000	25.418413
17.370000	25.418413
17.380000	25.418413
17.390000	25.418413
17.400000	25.418413
17.410000	25.418413
17.420000	25.418413
17.430000	25.418413
17.440000	25.418413
17.450000	25.418413
17.460000	25.418413
17.470000	25.418413
17.480000	25.418413
17.490000	25.418413
