LabVIEW Measurement	
Writer_Version	2
Reader_Version	2
Separator	Tab
Decimal_Separator	.
Multi_Headings	No
X_Columns	One
Time_Pref	Absolute
Operator	biomech-dyno
Date	2023/05/01
Time	15:28:10.3296671999997826969
***End_of_Header***	
	
Channels	1	
Samples	10	
Date	2023/05/01	
Time	15:39:14.2818112999998074764	
X_Dimension	Time	
X0	0.0000000000000000E+0	
Delta_X	0.010000	
***End_of_Header***		
X_Value	Untitled	Comment
0.000000	24.167733
0.010000	24.167733
0.020000	24.167733
0.030000	24.167733
0.040000	24.167733
0.050000	24.167733
0.060000	24.167733
0.070000	24.167733
0.080000	24.167733
0.090000	24.167733
0.100000	24.167733
0.110000	24.167733
0.120000	24.167733
0.130000	24.167733
0.140000	24.167733
0.150000	24.167733
0.160000	24.167733
0.170000	24.167733
0.180000	24.167733
0.190000	24.167733
0.200000	24.167733
0.210000	24.167733
0.220000	24.167733
0.230000	24.167733
0.240000	24.167733
0.250000	24.167733
0.260000	24.167733
0.270000	24.167733
0.280000	24.167733
0.290000	24.167733
0.300000	24.167733
0.310000	24.167733
0.320000	24.167733
0.330000	24.167733
0.340000	24.167733
0.350000	24.167733
0.360000	24.167733
0.370000	24.167733
0.380000	24.167733
0.390000	24.167733
0.400000	24.167733
0.410000	24.167733
0.420000	24.167733
0.430000	24.167733
0.440000	24.167733
0.450000	24.167733
0.460000	24.167733
0.470000	24.167733
0.480000	24.167733
0.490000	24.167733
0.500000	24.170218
0.510000	24.170218
0.520000	24.170218
0.530000	24.170218
0.540000	24.170218
0.550000	24.170218
0.560000	24.170218
0.570000	24.170218
0.580000	24.170218
0.590000	24.170218
0.600000	24.170218
0.610000	24.170218
0.620000	24.170218
0.630000	24.170218
0.640000	24.170218
0.650000	24.170218
0.660000	24.170218
0.670000	24.170218
0.680000	24.170218
0.690000	24.170218
0.700000	24.170218
0.710000	24.170218
0.720000	24.170218
0.730000	24.170218
0.740000	24.170218
0.750000	24.170218
0.760000	24.170218
0.770000	24.170218
0.780000	24.170218
0.790000	24.170218
0.800000	24.170218
0.810000	24.170218
0.820000	24.170218
0.830000	24.170218
0.840000	24.170218
0.850000	24.170218
0.860000	24.170218
0.870000	24.170218
0.880000	24.170218
0.890000	24.170218
0.900000	24.170218
0.910000	24.170218
0.920000	24.170218
0.930000	24.170218
0.940000	24.170218
0.950000	24.170218
0.960000	24.170218
0.970000	24.170218
0.980000	24.170218
0.990000	24.170218
1.000000	24.173931
1.010000	24.173931
1.020000	24.173931
1.030000	24.173931
1.040000	24.173931
1.050000	24.173931
1.060000	24.173931
1.070000	24.173931
1.080000	24.173931
1.090000	24.173931
1.100000	24.173931
1.110000	24.173931
1.120000	24.173931
1.130000	24.173931
1.140000	24.173931
1.150000	24.173931
1.160000	24.173931
1.170000	24.173931
1.180000	24.173931
1.190000	24.173931
1.200000	24.173931
1.210000	24.173931
1.220000	24.173931
1.230000	24.173931
1.240000	24.173931
1.250000	24.173931
1.260000	24.173931
1.270000	24.173931
1.280000	24.173931
1.290000	24.173931
1.300000	24.173931
1.310000	24.173931
1.320000	24.173931
1.330000	24.173931
1.340000	24.173931
1.350000	24.173931
1.360000	24.173931
1.370000	24.173931
1.380000	24.173931
1.390000	24.173931
1.400000	24.173931
1.410000	24.173931
1.420000	24.173931
1.430000	24.173931
1.440000	24.173931
1.450000	24.173931
1.460000	24.173931
1.470000	24.173931
1.480000	24.173931
1.490000	24.173931
1.500000	24.180637
1.510000	24.180637
1.520000	24.180637
1.530000	24.180637
1.540000	24.180637
1.550000	24.180637
1.560000	24.180637
1.570000	24.180637
1.580000	24.180637
1.590000	24.180637
1.600000	24.180637
1.610000	24.180637
1.620000	24.180637
1.630000	24.180637
1.640000	24.180637
1.650000	24.180637
1.660000	24.180637
1.670000	24.180637
1.680000	24.180637
1.690000	24.180637
1.700000	24.180637
1.710000	24.180637
1.720000	24.180637
1.730000	24.180637
1.740000	24.180637
1.750000	24.180637
1.760000	24.180637
1.770000	24.180637
1.780000	24.180637
1.790000	24.180637
1.800000	24.180637
1.810000	24.180637
1.820000	24.180637
1.830000	24.180637
1.840000	24.180637
1.850000	24.180637
1.860000	24.180637
1.870000	24.180637
1.880000	24.180637
1.890000	24.180637
1.900000	24.180637
1.910000	24.180637
1.920000	24.180637
1.930000	24.180637
1.940000	24.180637
1.950000	24.180637
1.960000	24.180637
1.970000	24.180637
1.980000	24.180637
1.990000	24.180637
2.000000	24.189702
2.010000	24.189702
2.020000	24.189702
2.030000	24.189702
2.040000	24.189702
2.050000	24.189702
2.060000	24.189702
2.070000	24.189702
2.080000	24.189702
2.090000	24.189702
2.100000	24.189702
2.110000	24.189702
2.120000	24.189702
2.130000	24.189702
2.140000	24.189702
2.150000	24.189702
2.160000	24.189702
2.170000	24.189702
2.180000	24.189702
2.190000	24.189702
2.200000	24.189702
2.210000	24.189702
2.220000	24.189702
2.230000	24.189702
2.240000	24.189702
2.250000	24.189702
2.260000	24.189702
2.270000	24.189702
2.280000	24.189702
2.290000	24.189702
2.300000	24.189702
2.310000	24.189702
2.320000	24.189702
2.330000	24.189702
2.340000	24.189702
2.350000	24.189702
2.360000	24.189702
2.370000	24.189702
2.380000	24.189702
2.390000	24.189702
2.400000	24.189702
2.410000	24.189702
2.420000	24.189702
2.430000	24.189702
2.440000	24.189702
2.450000	24.189702
2.460000	24.189702
2.470000	24.189702
2.480000	24.189702
2.490000	24.189702
2.500000	24.200801
2.510000	24.200801
2.520000	24.200801
2.530000	24.200801
2.540000	24.200801
2.550000	24.200801
2.560000	24.200801
2.570000	24.200801
2.580000	24.200801
2.590000	24.200801
2.600000	24.200801
2.610000	24.200801
2.620000	24.200801
2.630000	24.200801
2.640000	24.200801
2.650000	24.200801
2.660000	24.200801
2.670000	24.200801
2.680000	24.200801
2.690000	24.200801
2.700000	24.200801
2.710000	24.200801
2.720000	24.200801
2.730000	24.200801
2.740000	24.200801
2.750000	24.200801
2.760000	24.200801
2.770000	24.200801
2.780000	24.200801
2.790000	24.200801
2.800000	24.200801
2.810000	24.200801
2.820000	24.200801
2.830000	24.200801
2.840000	24.200801
2.850000	24.200801
2.860000	24.200801
2.870000	24.200801
2.880000	24.200801
2.890000	24.200801
2.900000	24.200801
2.910000	24.200801
2.920000	24.200801
2.930000	24.200801
2.940000	24.200801
2.950000	24.200801
2.960000	24.200801
2.970000	24.200801
2.980000	24.200801
2.990000	24.200801
3.000000	24.213414
3.010000	24.213414
3.020000	24.213414
3.030000	24.213414
3.040000	24.213414
3.050000	24.213414
3.060000	24.213414
3.070000	24.213414
3.080000	24.213414
3.090000	24.213414
3.100000	24.213414
3.110000	24.213414
3.120000	24.213414
3.130000	24.213414
3.140000	24.213414
3.150000	24.213414
3.160000	24.213414
3.170000	24.213414
3.180000	24.213414
3.190000	24.213414
3.200000	24.213414
3.210000	24.213414
3.220000	24.213414
3.230000	24.213414
3.240000	24.213414
3.250000	24.213414
3.260000	24.213414
3.270000	24.213414
3.280000	24.213414
3.290000	24.213414
3.300000	24.213414
3.310000	24.213414
3.320000	24.213414
3.330000	24.213414
3.340000	24.213414
3.350000	24.213414
3.360000	24.213414
3.370000	24.213414
3.380000	24.213414
3.390000	24.213414
3.400000	24.213414
3.410000	24.213414
3.420000	24.213414
3.430000	24.213414
3.440000	24.213414
3.450000	24.213414
3.460000	24.213414
3.470000	24.213414
3.480000	24.213414
3.490000	24.213414
3.500000	24.225735
3.510000	24.225735
3.520000	24.225735
3.530000	24.225735
3.540000	24.225735
3.550000	24.225735
3.560000	24.225735
3.570000	24.225735
3.580000	24.225735
3.590000	24.225735
3.600000	24.225735
3.610000	24.225735
3.620000	24.225735
3.630000	24.225735
3.640000	24.225735
3.650000	24.225735
3.660000	24.225735
3.670000	24.225735
3.680000	24.225735
3.690000	24.225735
3.700000	24.225735
3.710000	24.225735
3.720000	24.225735
3.730000	24.225735
3.740000	24.225735
3.750000	24.225735
3.760000	24.225735
3.770000	24.225735
3.780000	24.225735
3.790000	24.225735
3.800000	24.225735
3.810000	24.225735
3.820000	24.225735
3.830000	24.225735
3.840000	24.225735
3.850000	24.225735
3.860000	24.225735
3.870000	24.225735
3.880000	24.225735
3.890000	24.225735
3.900000	24.225735
3.910000	24.225735
3.920000	24.225735
3.930000	24.225735
3.940000	24.225735
3.950000	24.225735
3.960000	24.225735
3.970000	24.225735
3.980000	24.225735
3.990000	24.225735
4.000000	24.236843
4.010000	24.236843
4.020000	24.236843
4.030000	24.236843
4.040000	24.236843
4.050000	24.236843
4.060000	24.236843
4.070000	24.236843
4.080000	24.236843
4.090000	24.236843
4.100000	24.236843
4.110000	24.236843
4.120000	24.236843
4.130000	24.236843
4.140000	24.236843
4.150000	24.236843
4.160000	24.236843
4.170000	24.236843
4.180000	24.236843
4.190000	24.236843
4.200000	24.236843
4.210000	24.236843
4.220000	24.236843
4.230000	24.236843
4.240000	24.236843
4.250000	24.236843
4.260000	24.236843
4.270000	24.236843
4.280000	24.236843
4.290000	24.236843
4.300000	24.236843
4.310000	24.236843
4.320000	24.236843
4.330000	24.236843
4.340000	24.236843
4.350000	24.236843
4.360000	24.236843
4.370000	24.236843
4.380000	24.236843
4.390000	24.236843
4.400000	24.236843
4.410000	24.236843
4.420000	24.236843
4.430000	24.236843
4.440000	24.236843
4.450000	24.236843
4.460000	24.236843
4.470000	24.236843
4.480000	24.236843
4.490000	24.236843
4.500000	24.246897
4.510000	24.246897
4.520000	24.246897
4.530000	24.246897
4.540000	24.246897
4.550000	24.246897
4.560000	24.246897
4.570000	24.246897
4.580000	24.246897
4.590000	24.246897
4.600000	24.246897
4.610000	24.246897
4.620000	24.246897
4.630000	24.246897
4.640000	24.246897
4.650000	24.246897
4.660000	24.246897
4.670000	24.246897
4.680000	24.246897
4.690000	24.246897
4.700000	24.246897
4.710000	24.246897
4.720000	24.246897
4.730000	24.246897
4.740000	24.246897
4.750000	24.246897
4.760000	24.246897
4.770000	24.246897
4.780000	24.246897
4.790000	24.246897
4.800000	24.246897
4.810000	24.246897
4.820000	24.246897
4.830000	24.246897
4.840000	24.246897
4.850000	24.246897
4.860000	24.246897
4.870000	24.246897
4.880000	24.246897
4.890000	24.246897
4.900000	24.246897
4.910000	24.246897
4.920000	24.246897
4.930000	24.246897
4.940000	24.246897
4.950000	24.246897
4.960000	24.246897
4.970000	24.246897
4.980000	24.246897
4.990000	24.246897
5.000000	24.255152
5.010000	24.255152
5.020000	24.255152
5.030000	24.255152
5.040000	24.255152
5.050000	24.255152
5.060000	24.255152
5.070000	24.255152
5.080000	24.255152
5.090000	24.255152
5.100000	24.255152
5.110000	24.255152
5.120000	24.255152
5.130000	24.255152
5.140000	24.255152
5.150000	24.255152
5.160000	24.255152
5.170000	24.255152
5.180000	24.255152
5.190000	24.255152
5.200000	24.255152
5.210000	24.255152
5.220000	24.255152
5.230000	24.255152
5.240000	24.255152
5.250000	24.255152
5.260000	24.255152
5.270000	24.255152
5.280000	24.255152
5.290000	24.255152
5.300000	24.255152
5.310000	24.255152
5.320000	24.255152
5.330000	24.255152
5.340000	24.255152
5.350000	24.255152
5.360000	24.255152
5.370000	24.255152
5.380000	24.255152
5.390000	24.255152
5.400000	24.255152
5.410000	24.255152
5.420000	24.255152
5.430000	24.255152
5.440000	24.255152
5.450000	24.255152
5.460000	24.255152
5.470000	24.255152
5.480000	24.255152
5.490000	24.255152
5.500000	24.261776
5.510000	24.261776
5.520000	24.261776
5.530000	24.261776
5.540000	24.261776
5.550000	24.261776
5.560000	24.261776
5.570000	24.261776
5.580000	24.261776
5.590000	24.261776
5.600000	24.261776
5.610000	24.261776
5.620000	24.261776
5.630000	24.261776
5.640000	24.261776
5.650000	24.261776
5.660000	24.261776
5.670000	24.261776
5.680000	24.261776
5.690000	24.261776
5.700000	24.261776
5.710000	24.261776
5.720000	24.261776
5.730000	24.261776
5.740000	24.261776
5.750000	24.261776
5.760000	24.261776
5.770000	24.261776
5.780000	24.261776
5.790000	24.261776
5.800000	24.261776
5.810000	24.261776
5.820000	24.261776
5.830000	24.261776
5.840000	24.261776
5.850000	24.261776
5.860000	24.261776
5.870000	24.261776
5.880000	24.261776
5.890000	24.261776
5.900000	24.261776
5.910000	24.261776
5.920000	24.261776
5.930000	24.261776
5.940000	24.261776
5.950000	24.261776
5.960000	24.261776
5.970000	24.261776
5.980000	24.261776
5.990000	24.261776
6.000000	24.267339
6.010000	24.267339
6.020000	24.267339
6.030000	24.267339
6.040000	24.267339
6.050000	24.267339
6.060000	24.267339
6.070000	24.267339
6.080000	24.267339
6.090000	24.267339
6.100000	24.267339
6.110000	24.267339
6.120000	24.267339
6.130000	24.267339
6.140000	24.267339
6.150000	24.267339
6.160000	24.267339
6.170000	24.267339
6.180000	24.267339
6.190000	24.267339
6.200000	24.267339
6.210000	24.267339
6.220000	24.267339
6.230000	24.267339
6.240000	24.267339
6.250000	24.267339
6.260000	24.267339
6.270000	24.267339
6.280000	24.267339
6.290000	24.267339
6.300000	24.267339
6.310000	24.267339
6.320000	24.267339
6.330000	24.267339
6.340000	24.267339
6.350000	24.267339
6.360000	24.267339
6.370000	24.267339
6.380000	24.267339
6.390000	24.267339
6.400000	24.267339
6.410000	24.267339
6.420000	24.267339
6.430000	24.267339
6.440000	24.267339
6.450000	24.267339
6.460000	24.267339
6.470000	24.267339
6.480000	24.267339
6.490000	24.267339
6.500000	24.272271
6.510000	24.272271
6.520000	24.272271
6.530000	24.272271
6.540000	24.272271
6.550000	24.272271
6.560000	24.272271
6.570000	24.272271
6.580000	24.272271
6.590000	24.272271
6.600000	24.272271
6.610000	24.272271
6.620000	24.272271
6.630000	24.272271
6.640000	24.272271
6.650000	24.272271
6.660000	24.272271
6.670000	24.272271
6.680000	24.272271
6.690000	24.272271
6.700000	24.272271
6.710000	24.272271
6.720000	24.272271
6.730000	24.272271
6.740000	24.272271
6.750000	24.272271
6.760000	24.272271
6.770000	24.272271
6.780000	24.272271
6.790000	24.272271
6.800000	24.272271
6.810000	24.272271
6.820000	24.272271
6.830000	24.272271
6.840000	24.272271
6.850000	24.272271
6.860000	24.272271
6.870000	24.272271
6.880000	24.272271
6.890000	24.272271
6.900000	24.272271
6.910000	24.272271
6.920000	24.272271
6.930000	24.272271
6.940000	24.272271
6.950000	24.272271
6.960000	24.272271
6.970000	24.272271
6.980000	24.272271
6.990000	24.272271
7.000000	24.276878
7.010000	24.276878
7.020000	24.276878
7.030000	24.276878
7.040000	24.276878
7.050000	24.276878
7.060000	24.276878
7.070000	24.276878
7.080000	24.276878
7.090000	24.276878
7.100000	24.276878
7.110000	24.276878
7.120000	24.276878
7.130000	24.276878
7.140000	24.276878
7.150000	24.276878
7.160000	24.276878
7.170000	24.276878
7.180000	24.276878
7.190000	24.276878
7.200000	24.276878
7.210000	24.276878
7.220000	24.276878
7.230000	24.276878
7.240000	24.276878
7.250000	24.276878
7.260000	24.276878
7.270000	24.276878
7.280000	24.276878
7.290000	24.276878
7.300000	24.276878
7.310000	24.276878
7.320000	24.276878
7.330000	24.276878
7.340000	24.276878
7.350000	24.276878
7.360000	24.276878
7.370000	24.276878
7.380000	24.276878
7.390000	24.276878
7.400000	24.276878
7.410000	24.276878
7.420000	24.276878
7.430000	24.276878
7.440000	24.276878
7.450000	24.276878
7.460000	24.276878
7.470000	24.276878
7.480000	24.276878
7.490000	24.276878
7.500000	24.280443
7.510000	24.280443
7.520000	24.280443
7.530000	24.280443
7.540000	24.280443
7.550000	24.280443
7.560000	24.280443
7.570000	24.280443
7.580000	24.280443
7.590000	24.280443
7.600000	24.280443
7.610000	24.280443
7.620000	24.280443
7.630000	24.280443
7.640000	24.280443
7.650000	24.280443
7.660000	24.280443
7.670000	24.280443
7.680000	24.280443
7.690000	24.280443
7.700000	24.280443
7.710000	24.280443
7.720000	24.280443
7.730000	24.280443
7.740000	24.280443
7.750000	24.280443
7.760000	24.280443
7.770000	24.280443
7.780000	24.280443
7.790000	24.280443
7.800000	24.280443
7.810000	24.280443
7.820000	24.280443
7.830000	24.280443
7.840000	24.280443
7.850000	24.280443
7.860000	24.280443
7.870000	24.280443
7.880000	24.280443
7.890000	24.280443
7.900000	24.280443
7.910000	24.280443
7.920000	24.280443
7.930000	24.280443
7.940000	24.280443
7.950000	24.280443
7.960000	24.280443
7.970000	24.280443
7.980000	24.280443
7.990000	24.280443
8.000000	24.283622
8.010000	24.283622
8.020000	24.283622
8.030000	24.283622
8.040000	24.283622
8.050000	24.283622
8.060000	24.283622
8.070000	24.283622
8.080000	24.283622
8.090000	24.283622
8.100000	24.283622
8.110000	24.283622
8.120000	24.283622
8.130000	24.283622
8.140000	24.283622
8.150000	24.283622
8.160000	24.283622
8.170000	24.283622
8.180000	24.283622
8.190000	24.283622
8.200000	24.283622
8.210000	24.283622
8.220000	24.283622
8.230000	24.283622
8.240000	24.283622
8.250000	24.283622
8.260000	24.283622
8.270000	24.283622
8.280000	24.283622
8.290000	24.283622
8.300000	24.283622
8.310000	24.283622
8.320000	24.283622
8.330000	24.283622
8.340000	24.283622
8.350000	24.283622
8.360000	24.283622
8.370000	24.283622
8.380000	24.283622
8.390000	24.283622
8.400000	24.283622
8.410000	24.283622
8.420000	24.283622
8.430000	24.283622
8.440000	24.283622
8.450000	24.283622
8.460000	24.283622
8.470000	24.283622
8.480000	24.283622
8.490000	24.283622
8.500000	24.286197
8.510000	24.286197
8.520000	24.286197
8.530000	24.286197
8.540000	24.286197
8.550000	24.286197
8.560000	24.286197
8.570000	24.286197
8.580000	24.286197
8.590000	24.286197
8.600000	24.286197
8.610000	24.286197
8.620000	24.286197
8.630000	24.286197
8.640000	24.286197
8.650000	24.286197
8.660000	24.286197
8.670000	24.286197
8.680000	24.286197
8.690000	24.286197
8.700000	24.286197
8.710000	24.286197
8.720000	24.286197
8.730000	24.286197
8.740000	24.286197
8.750000	24.286197
8.760000	24.286197
8.770000	24.286197
8.780000	24.286197
8.790000	24.286197
8.800000	24.286197
8.810000	24.286197
8.820000	24.286197
8.830000	24.286197
8.840000	24.286197
8.850000	24.286197
8.860000	24.286197
8.870000	24.286197
8.880000	24.286197
8.890000	24.286197
8.900000	24.286197
8.910000	24.286197
8.920000	24.286197
8.930000	24.286197
8.940000	24.286197
8.950000	24.286197
8.960000	24.286197
8.970000	24.286197
8.980000	24.286197
8.990000	24.286197
9.000000	24.288202
9.010000	24.288202
9.020000	24.288202
9.030000	24.288202
9.040000	24.288202
9.050000	24.288202
9.060000	24.288202
9.070000	24.288202
9.080000	24.288202
9.090000	24.288202
9.100000	24.288202
9.110000	24.288202
9.120000	24.288202
9.130000	24.288202
9.140000	24.288202
9.150000	24.288202
9.160000	24.288202
9.170000	24.288202
9.180000	24.288202
9.190000	24.288202
9.200000	24.288202
9.210000	24.288202
9.220000	24.288202
9.230000	24.288202
9.240000	24.288202
9.250000	24.288202
9.260000	24.288202
9.270000	24.288202
9.280000	24.288202
9.290000	24.288202
9.300000	24.288202
9.310000	24.288202
9.320000	24.288202
9.330000	24.288202
9.340000	24.288202
9.350000	24.288202
9.360000	24.288202
9.370000	24.288202
9.380000	24.288202
9.390000	24.288202
9.400000	24.288202
9.410000	24.288202
9.420000	24.288202
9.430000	24.288202
9.440000	24.288202
9.450000	24.288202
9.460000	24.288202
9.470000	24.288202
9.480000	24.288202
9.490000	24.288202
9.500000	24.289857
9.510000	24.289857
9.520000	24.289857
9.530000	24.289857
9.540000	24.289857
9.550000	24.289857
9.560000	24.289857
9.570000	24.289857
9.580000	24.289857
9.590000	24.289857
9.600000	24.289857
9.610000	24.289857
9.620000	24.289857
9.630000	24.289857
9.640000	24.289857
9.650000	24.289857
9.660000	24.289857
9.670000	24.289857
9.680000	24.289857
9.690000	24.289857
9.700000	24.289857
9.710000	24.289857
9.720000	24.289857
9.730000	24.289857
9.740000	24.289857
9.750000	24.289857
9.760000	24.289857
9.770000	24.289857
9.780000	24.289857
9.790000	24.289857
9.800000	24.289857
9.810000	24.289857
9.820000	24.289857
9.830000	24.289857
9.840000	24.289857
9.850000	24.289857
9.860000	24.289857
9.870000	24.289857
9.880000	24.289857
9.890000	24.289857
9.900000	24.289857
9.910000	24.289857
9.920000	24.289857
9.930000	24.289857
9.940000	24.289857
9.950000	24.289857
9.960000	24.289857
9.970000	24.289857
9.980000	24.289857
9.990000	24.289857
10.000000	24.290916
10.010000	24.290916
10.020000	24.290916
10.030000	24.290916
10.040000	24.290916
10.050000	24.290916
10.060000	24.290916
10.070000	24.290916
10.080000	24.290916
10.090000	24.290916
10.100000	24.290916
10.110000	24.290916
10.120000	24.290916
10.130000	24.290916
10.140000	24.290916
10.150000	24.290916
10.160000	24.290916
10.170000	24.290916
10.180000	24.290916
10.190000	24.290916
10.200000	24.290916
10.210000	24.290916
10.220000	24.290916
10.230000	24.290916
10.240000	24.290916
10.250000	24.290916
10.260000	24.290916
10.270000	24.290916
10.280000	24.290916
10.290000	24.290916
10.300000	24.290916
10.310000	24.290916
10.320000	24.290916
10.330000	24.290916
10.340000	24.290916
10.350000	24.290916
10.360000	24.290916
10.370000	24.290916
10.380000	24.290916
10.390000	24.290916
10.400000	24.290916
10.410000	24.290916
10.420000	24.290916
10.430000	24.290916
10.440000	24.290916
10.450000	24.290916
10.460000	24.290916
10.470000	24.290916
10.480000	24.290916
10.490000	24.290916
10.500000	24.291844
10.510000	24.291844
10.520000	24.291844
10.530000	24.291844
10.540000	24.291844
10.550000	24.291844
10.560000	24.291844
10.570000	24.291844
10.580000	24.291844
10.590000	24.291844
10.600000	24.291844
10.610000	24.291844
10.620000	24.291844
10.630000	24.291844
10.640000	24.291844
10.650000	24.291844
10.660000	24.291844
10.670000	24.291844
10.680000	24.291844
10.690000	24.291844
10.700000	24.291844
10.710000	24.291844
10.720000	24.291844
10.730000	24.291844
10.740000	24.291844
10.750000	24.291844
10.760000	24.291844
10.770000	24.291844
10.780000	24.291844
10.790000	24.291844
10.800000	24.291844
10.810000	24.291844
10.820000	24.291844
10.830000	24.291844
10.840000	24.291844
10.850000	24.291844
10.860000	24.291844
10.870000	24.291844
10.880000	24.291844
10.890000	24.291844
10.900000	24.291844
10.910000	24.291844
10.920000	24.291844
10.930000	24.291844
10.940000	24.291844
10.950000	24.291844
10.960000	24.291844
10.970000	24.291844
10.980000	24.291844
10.990000	24.291844
11.000000	24.292527
11.010000	24.292527
11.020000	24.292527
11.030000	24.292527
11.040000	24.292527
11.050000	24.292527
11.060000	24.292527
11.070000	24.292527
11.080000	24.292527
11.090000	24.292527
11.100000	24.292527
11.110000	24.292527
11.120000	24.292527
11.130000	24.292527
11.140000	24.292527
11.150000	24.292527
11.160000	24.292527
11.170000	24.292527
11.180000	24.292527
11.190000	24.292527
11.200000	24.292527
11.210000	24.292527
11.220000	24.292527
11.230000	24.292527
11.240000	24.292527
11.250000	24.292527
11.260000	24.292527
11.270000	24.292527
11.280000	24.292527
11.290000	24.292527
11.300000	24.292527
11.310000	24.292527
11.320000	24.292527
11.330000	24.292527
11.340000	24.292527
11.350000	24.292527
11.360000	24.292527
11.370000	24.292527
11.380000	24.292527
11.390000	24.292527
11.400000	24.292527
11.410000	24.292527
11.420000	24.292527
11.430000	24.292527
11.440000	24.292527
11.450000	24.292527
11.460000	24.292527
11.470000	24.292527
11.480000	24.292527
11.490000	24.292527
11.500000	24.292842
11.510000	24.292842
11.520000	24.292842
11.530000	24.292842
11.540000	24.292842
11.550000	24.292842
11.560000	24.292842
11.570000	24.292842
11.580000	24.292842
11.590000	24.292842
11.600000	24.292842
11.610000	24.292842
11.620000	24.292842
11.630000	24.292842
11.640000	24.292842
11.650000	24.292842
11.660000	24.292842
11.670000	24.292842
11.680000	24.292842
11.690000	24.292842
11.700000	24.292842
11.710000	24.292842
11.720000	24.292842
11.730000	24.292842
11.740000	24.292842
11.750000	24.292842
11.760000	24.292842
11.770000	24.292842
11.780000	24.292842
11.790000	24.292842
11.800000	24.292842
11.810000	24.292842
11.820000	24.292842
11.830000	24.292842
11.840000	24.292842
11.850000	24.292842
11.860000	24.292842
11.870000	24.292842
11.880000	24.292842
11.890000	24.292842
11.900000	24.292842
11.910000	24.292842
11.920000	24.292842
11.930000	24.292842
11.940000	24.292842
11.950000	24.292842
11.960000	24.292842
11.970000	24.292842
11.980000	24.292842
11.990000	24.292842
12.000000	24.292230
12.010000	24.292230
12.020000	24.292230
12.030000	24.292230
12.040000	24.292230
12.050000	24.292230
12.060000	24.292230
12.070000	24.292230
12.080000	24.292230
12.090000	24.292230
12.100000	24.292230
12.110000	24.292230
12.120000	24.292230
12.130000	24.292230
12.140000	24.292230
12.150000	24.292230
12.160000	24.292230
12.170000	24.292230
12.180000	24.292230
12.190000	24.292230
12.200000	24.292230
12.210000	24.292230
12.220000	24.292230
12.230000	24.292230
12.240000	24.292230
12.250000	24.292230
12.260000	24.292230
12.270000	24.292230
12.280000	24.292230
12.290000	24.292230
12.300000	24.292230
12.310000	24.292230
12.320000	24.292230
12.330000	24.292230
12.340000	24.292230
12.350000	24.292230
12.360000	24.292230
12.370000	24.292230
12.380000	24.292230
12.390000	24.292230
12.400000	24.292230
12.410000	24.292230
12.420000	24.292230
12.430000	24.292230
12.440000	24.292230
12.450000	24.292230
12.460000	24.292230
12.470000	24.292230
12.480000	24.292230
12.490000	24.292230
12.500000	24.291564
12.510000	24.291564
12.520000	24.291564
12.530000	24.291564
12.540000	24.291564
12.550000	24.291564
12.560000	24.291564
12.570000	24.291564
12.580000	24.291564
12.590000	24.291564
12.600000	24.291564
12.610000	24.291564
12.620000	24.291564
12.630000	24.291564
12.640000	24.291564
12.650000	24.291564
12.660000	24.291564
12.670000	24.291564
12.680000	24.291564
12.690000	24.291564
12.700000	24.291564
12.710000	24.291564
12.720000	24.291564
12.730000	24.291564
12.740000	24.291564
12.750000	24.291564
12.760000	24.291564
12.770000	24.291564
12.780000	24.291564
12.790000	24.291564
12.800000	24.291564
12.810000	24.291564
12.820000	24.291564
12.830000	24.291564
12.840000	24.291564
12.850000	24.291564
12.860000	24.291564
12.870000	24.291564
12.880000	24.291564
12.890000	24.291564
12.900000	24.291564
12.910000	24.291564
12.920000	24.291564
12.930000	24.291564
12.940000	24.291564
12.950000	24.291564
12.960000	24.291564
12.970000	24.291564
12.980000	24.291564
12.990000	24.291564
13.000000	24.291345
13.010000	24.291345
13.020000	24.291345
13.030000	24.291345
13.040000	24.291345
13.050000	24.291345
13.060000	24.291345
13.070000	24.291345
13.080000	24.291345
13.090000	24.291345
13.100000	24.291345
13.110000	24.291345
13.120000	24.291345
13.130000	24.291345
13.140000	24.291345
13.150000	24.291345
13.160000	24.291345
13.170000	24.291345
13.180000	24.291345
13.190000	24.291345
13.200000	24.291345
13.210000	24.291345
13.220000	24.291345
13.230000	24.291345
13.240000	24.291345
13.250000	24.291345
13.260000	24.291345
13.270000	24.291345
13.280000	24.291345
13.290000	24.291345
13.300000	24.291345
13.310000	24.291345
13.320000	24.291345
13.330000	24.291345
13.340000	24.291345
13.350000	24.291345
13.360000	24.291345
13.370000	24.291345
13.380000	24.291345
13.390000	24.291345
13.400000	24.291345
13.410000	24.291345
13.420000	24.291345
13.430000	24.291345
13.440000	24.291345
13.450000	24.291345
13.460000	24.291345
13.470000	24.291345
13.480000	24.291345
13.490000	24.291345
13.500000	24.291249
13.510000	24.291249
13.520000	24.291249
13.530000	24.291249
13.540000	24.291249
13.550000	24.291249
13.560000	24.291249
13.570000	24.291249
13.580000	24.291249
13.590000	24.291249
13.600000	24.291249
13.610000	24.291249
13.620000	24.291249
13.630000	24.291249
13.640000	24.291249
13.650000	24.291249
13.660000	24.291249
13.670000	24.291249
13.680000	24.291249
13.690000	24.291249
13.700000	24.291249
13.710000	24.291249
13.720000	24.291249
13.730000	24.291249
13.740000	24.291249
13.750000	24.291249
13.760000	24.291249
13.770000	24.291249
13.780000	24.291249
13.790000	24.291249
13.800000	24.291249
13.810000	24.291249
13.820000	24.291249
13.830000	24.291249
13.840000	24.291249
13.850000	24.291249
13.860000	24.291249
13.870000	24.291249
13.880000	24.291249
13.890000	24.291249
13.900000	24.291249
13.910000	24.291249
13.920000	24.291249
13.930000	24.291249
13.940000	24.291249
13.950000	24.291249
13.960000	24.291249
13.970000	24.291249
13.980000	24.291249
13.990000	24.291249
14.000000	24.291013
14.010000	24.291013
14.020000	24.291013
14.030000	24.291013
14.040000	24.291013
14.050000	24.291013
14.060000	24.291013
14.070000	24.291013
14.080000	24.291013
14.090000	24.291013
14.100000	24.291013
14.110000	24.291013
14.120000	24.291013
14.130000	24.291013
14.140000	24.291013
14.150000	24.291013
14.160000	24.291013
14.170000	24.291013
14.180000	24.291013
14.190000	24.291013
14.200000	24.291013
14.210000	24.291013
14.220000	24.291013
14.230000	24.291013
14.240000	24.291013
14.250000	24.291013
14.260000	24.291013
14.270000	24.291013
14.280000	24.291013
14.290000	24.291013
14.300000	24.291013
14.310000	24.291013
14.320000	24.291013
14.330000	24.291013
14.340000	24.291013
14.350000	24.291013
14.360000	24.291013
14.370000	24.291013
14.380000	24.291013
14.390000	24.291013
14.400000	24.291013
14.410000	24.291013
14.420000	24.291013
14.430000	24.291013
14.440000	24.291013
14.450000	24.291013
14.460000	24.291013
14.470000	24.291013
14.480000	24.291013
14.490000	24.291013
14.500000	24.290356
14.510000	24.290356
14.520000	24.290356
14.530000	24.290356
14.540000	24.290356
14.550000	24.290356
14.560000	24.290356
14.570000	24.290356
14.580000	24.290356
14.590000	24.290356
14.600000	24.290356
14.610000	24.290356
14.620000	24.290356
14.630000	24.290356
14.640000	24.290356
14.650000	24.290356
14.660000	24.290356
14.670000	24.290356
14.680000	24.290356
14.690000	24.290356
14.700000	24.290356
14.710000	24.290356
14.720000	24.290356
14.730000	24.290356
14.740000	24.290356
14.750000	24.290356
14.760000	24.290356
14.770000	24.290356
14.780000	24.290356
14.790000	24.290356
14.800000	24.290356
14.810000	24.290356
14.820000	24.290356
14.830000	24.290356
14.840000	24.290356
14.850000	24.290356
14.860000	24.290356
14.870000	24.290356
14.880000	24.290356
14.890000	24.290356
14.900000	24.290356
14.910000	24.290356
14.920000	24.290356
14.930000	24.290356
14.940000	24.290356
14.950000	24.290356
14.960000	24.290356
14.970000	24.290356
14.980000	24.290356
14.990000	24.290356
15.000000	24.289314
15.010000	24.289314
15.020000	24.289314
15.030000	24.289314
15.040000	24.289314
15.050000	24.289314
15.060000	24.289314
15.070000	24.289314
15.080000	24.289314
15.090000	24.289314
15.100000	24.289314
15.110000	24.289314
15.120000	24.289314
15.130000	24.289314
15.140000	24.289314
15.150000	24.289314
15.160000	24.289314
15.170000	24.289314
15.180000	24.289314
15.190000	24.289314
15.200000	24.289314
15.210000	24.289314
15.220000	24.289314
15.230000	24.289314
15.240000	24.289314
15.250000	24.289314
15.260000	24.289314
15.270000	24.289314
15.280000	24.289314
15.290000	24.289314
15.300000	24.289314
15.310000	24.289314
15.320000	24.289314
15.330000	24.289314
15.340000	24.289314
15.350000	24.289314
15.360000	24.289314
15.370000	24.289314
15.380000	24.289314
15.390000	24.289314
15.400000	24.289314
15.410000	24.289314
15.420000	24.289314
15.430000	24.289314
15.440000	24.289314
15.450000	24.289314
15.460000	24.289314
15.470000	24.289314
15.480000	24.289314
15.490000	24.289314
15.500000	24.288351
15.510000	24.288351
15.520000	24.288351
15.530000	24.288351
15.540000	24.288351
15.550000	24.288351
15.560000	24.288351
15.570000	24.288351
15.580000	24.288351
15.590000	24.288351
15.600000	24.288351
15.610000	24.288351
15.620000	24.288351
15.630000	24.288351
15.640000	24.288351
15.650000	24.288351
15.660000	24.288351
15.670000	24.288351
15.680000	24.288351
15.690000	24.288351
15.700000	24.288351
15.710000	24.288351
15.720000	24.288351
15.730000	24.288351
15.740000	24.288351
15.750000	24.288351
15.760000	24.288351
15.770000	24.288351
15.780000	24.288351
15.790000	24.288351
15.800000	24.288351
15.810000	24.288351
15.820000	24.288351
15.830000	24.288351
15.840000	24.288351
15.850000	24.288351
15.860000	24.288351
15.870000	24.288351
15.880000	24.288351
15.890000	24.288351
15.900000	24.288351
15.910000	24.288351
15.920000	24.288351
15.930000	24.288351
15.940000	24.288351
15.950000	24.288351
15.960000	24.288351
15.970000	24.288351
15.980000	24.288351
15.990000	24.288351
16.000000	24.287326
16.010000	24.287326
16.020000	24.287326
16.030000	24.287326
16.040000	24.287326
16.050000	24.287326
16.060000	24.287326
16.070000	24.287326
16.080000	24.287326
16.090000	24.287326
16.100000	24.287326
16.110000	24.287326
16.120000	24.287326
16.130000	24.287326
16.140000	24.287326
16.150000	24.287326
16.160000	24.287326
16.170000	24.287326
16.180000	24.287326
16.190000	24.287326
16.200000	24.287326
16.210000	24.287326
16.220000	24.287326
16.230000	24.287326
16.240000	24.287326
16.250000	24.287326
16.260000	24.287326
16.270000	24.287326
16.280000	24.287326
16.290000	24.287326
16.300000	24.287326
16.310000	24.287326
16.320000	24.287326
16.330000	24.287326
16.340000	24.287326
16.350000	24.287326
16.360000	24.287326
16.370000	24.287326
16.380000	24.287326
16.390000	24.287326
16.400000	24.287326
16.410000	24.287326
16.420000	24.287326
16.430000	24.287326
16.440000	24.287326
16.450000	24.287326
16.460000	24.287326
16.470000	24.287326
16.480000	24.287326
16.490000	24.287326
16.500000	24.285584
16.510000	24.285584
16.520000	24.285584
16.530000	24.285584
16.540000	24.285584
16.550000	24.285584
16.560000	24.285584
16.570000	24.285584
16.580000	24.285584
16.590000	24.285584
16.600000	24.285584
16.610000	24.285584
16.620000	24.285584
16.630000	24.285584
16.640000	24.285584
16.650000	24.285584
16.660000	24.285584
16.670000	24.285584
16.680000	24.285584
16.690000	24.285584
16.700000	24.285584
16.710000	24.285584
16.720000	24.285584
16.730000	24.285584
16.740000	24.285584
16.750000	24.285584
16.760000	24.285584
16.770000	24.285584
16.780000	24.285584
16.790000	24.285584
16.800000	24.285584
16.810000	24.285584
16.820000	24.285584
16.830000	24.285584
16.840000	24.285584
16.850000	24.285584
16.860000	24.285584
16.870000	24.285584
16.880000	24.285584
16.890000	24.285584
16.900000	24.285584
16.910000	24.285584
16.920000	24.285584
16.930000	24.285584
16.940000	24.285584
16.950000	24.285584
16.960000	24.285584
16.970000	24.285584
16.980000	24.285584
16.990000	24.285584
17.000000	24.284069
17.010000	24.284069
17.020000	24.284069
17.030000	24.284069
17.040000	24.284069
17.050000	24.284069
17.060000	24.284069
17.070000	24.284069
17.080000	24.284069
17.090000	24.284069
17.100000	24.284069
17.110000	24.284069
17.120000	24.284069
17.130000	24.284069
17.140000	24.284069
17.150000	24.284069
17.160000	24.284069
17.170000	24.284069
17.180000	24.284069
17.190000	24.284069
17.200000	24.284069
17.210000	24.284069
17.220000	24.284069
17.230000	24.284069
17.240000	24.284069
17.250000	24.284069
17.260000	24.284069
17.270000	24.284069
17.280000	24.284069
17.290000	24.284069
17.300000	24.284069
17.310000	24.284069
17.320000	24.284069
17.330000	24.284069
17.340000	24.284069
17.350000	24.284069
17.360000	24.284069
17.370000	24.284069
17.380000	24.284069
17.390000	24.284069
17.400000	24.284069
17.410000	24.284069
17.420000	24.284069
17.430000	24.284069
17.440000	24.284069
17.450000	24.284069
17.460000	24.284069
17.470000	24.284069
17.480000	24.284069
17.490000	24.284069
17.500000	24.282326
17.510000	24.282326
17.520000	24.282326
17.530000	24.282326
17.540000	24.282326
17.550000	24.282326
17.560000	24.282326
17.570000	24.282326
17.580000	24.282326
17.590000	24.282326
17.600000	24.282326
17.610000	24.282326
17.620000	24.282326
17.630000	24.282326
17.640000	24.282326
17.650000	24.282326
17.660000	24.282326
17.670000	24.282326
17.680000	24.282326
17.690000	24.282326
