LabVIEW Measurement	
Writer_Version	2
Reader_Version	2
Separator	Tab
Decimal_Separator	.
Multi_Headings	No
X_Columns	One
Time_Pref	Absolute
Operator	biomech-dyno
Date	2023/04/27
Time	17:41:55.9338632999999876419
***End_of_Header***	
	
Channels	1	
Samples	10	
Date	2023/04/27	
Time	19:27:22.348682199999772851	
X_Dimension	Time	
X0	0.0000000000000000E+0	
Delta_X	0.010000	
***End_of_Header***		
X_Value	Untitled	Comment
0.000000	25.077213
0.010000	25.077213
0.020000	25.077213
0.030000	25.077213
0.040000	25.077213
0.050000	25.077213
0.060000	25.077213
0.070000	25.077213
0.080000	25.077213
0.090000	25.077213
0.100000	25.077213
0.110000	25.077213
0.120000	25.077213
0.130000	25.077213
0.140000	25.077213
0.150000	25.077213
0.160000	25.077213
0.170000	25.077213
0.180000	25.077213
0.190000	25.077213
0.200000	25.077213
0.210000	25.077213
0.220000	25.077213
0.230000	25.077213
0.240000	25.077213
0.250000	25.077213
0.260000	25.077213
0.270000	25.077213
0.280000	25.077213
0.290000	25.077213
0.300000	25.077213
0.310000	25.077213
0.320000	25.077213
0.330000	25.077213
0.340000	25.077213
0.350000	25.077213
0.360000	25.077213
0.370000	25.077213
0.380000	25.077213
0.390000	25.077213
0.400000	25.077213
0.410000	25.077213
0.420000	25.077213
0.430000	25.077213
0.440000	25.077213
0.450000	25.077213
0.460000	25.077213
0.470000	25.077213
0.480000	25.077213
0.490000	25.077213
0.500000	25.101718
0.510000	25.101718
0.520000	25.101718
0.530000	25.101718
0.540000	25.101718
0.550000	25.101718
0.560000	25.101718
0.570000	25.101718
0.580000	25.101718
0.590000	25.101718
0.600000	25.101718
0.610000	25.101718
0.620000	25.101718
0.630000	25.101718
0.640000	25.101718
0.650000	25.101718
0.660000	25.101718
0.670000	25.101718
0.680000	25.101718
0.690000	25.101718
0.700000	25.101718
0.710000	25.101718
0.720000	25.101718
0.730000	25.101718
0.740000	25.101718
0.750000	25.101718
0.760000	25.101718
0.770000	25.101718
0.780000	25.101718
0.790000	25.101718
0.800000	25.101718
0.810000	25.101718
0.820000	25.101718
0.830000	25.101718
0.840000	25.101718
0.850000	25.101718
0.860000	25.101718
0.870000	25.101718
0.880000	25.101718
0.890000	25.101718
0.900000	25.101718
0.910000	25.101718
0.920000	25.101718
0.930000	25.101718
0.940000	25.101718
0.950000	25.101718
0.960000	25.101718
0.970000	25.101718
0.980000	25.101718
0.990000	25.101718
1.000000	25.372996
1.010000	25.372996
1.020000	25.372996
1.030000	25.372996
1.040000	25.372996
1.050000	25.372996
1.060000	25.372996
1.070000	25.372996
1.080000	25.372996
1.090000	25.372996
1.100000	25.372996
1.110000	25.372996
1.120000	25.372996
1.130000	25.372996
1.140000	25.372996
1.150000	25.372996
1.160000	25.372996
1.170000	25.372996
1.180000	25.372996
1.190000	25.372996
1.200000	25.372996
1.210000	25.372996
1.220000	25.372996
1.230000	25.372996
1.240000	25.372996
1.250000	25.372996
1.260000	25.372996
1.270000	25.372996
1.280000	25.372996
1.290000	25.372996
1.300000	25.372996
1.310000	25.372996
1.320000	25.372996
1.330000	25.372996
1.340000	25.372996
1.350000	25.372996
1.360000	25.372996
1.370000	25.372996
1.380000	25.372996
1.390000	25.372996
1.400000	25.372996
1.410000	25.372996
1.420000	25.372996
1.430000	25.372996
1.440000	25.372996
1.450000	25.372996
1.460000	25.372996
1.470000	25.372996
1.480000	25.372996
1.490000	25.372996
1.500000	26.011247
1.510000	26.011247
1.520000	26.011247
1.530000	26.011247
1.540000	26.011247
1.550000	26.011247
1.560000	26.011247
1.570000	26.011247
1.580000	26.011247
1.590000	26.011247
1.600000	26.011247
1.610000	26.011247
1.620000	26.011247
1.630000	26.011247
1.640000	26.011247
1.650000	26.011247
1.660000	26.011247
1.670000	26.011247
1.680000	26.011247
1.690000	26.011247
1.700000	26.011247
1.710000	26.011247
1.720000	26.011247
1.730000	26.011247
1.740000	26.011247
1.750000	26.011247
1.760000	26.011247
1.770000	26.011247
1.780000	26.011247
1.790000	26.011247
1.800000	26.011247
1.810000	26.011247
1.820000	26.011247
1.830000	26.011247
1.840000	26.011247
1.850000	26.011247
1.860000	26.011247
1.870000	26.011247
1.880000	26.011247
1.890000	26.011247
1.900000	26.011247
1.910000	26.011247
1.920000	26.011247
1.930000	26.011247
1.940000	26.011247
1.950000	26.011247
1.960000	26.011247
1.970000	26.011247
1.980000	26.011247
1.990000	26.011247
2.000000	26.945409
2.010000	26.945409
2.020000	26.945409
2.030000	26.945409
2.040000	26.945409
2.050000	26.945409
2.060000	26.945409
2.070000	26.945409
2.080000	26.945409
2.090000	26.945409
2.100000	26.945409
2.110000	26.945409
2.120000	26.945409
2.130000	26.945409
2.140000	26.945409
2.150000	26.945409
2.160000	26.945409
2.170000	26.945409
2.180000	26.945409
2.190000	26.945409
2.200000	26.945409
2.210000	26.945409
2.220000	26.945409
2.230000	26.945409
2.240000	26.945409
2.250000	26.945409
2.260000	26.945409
2.270000	26.945409
2.280000	26.945409
2.290000	26.945409
2.300000	26.945409
2.310000	26.945409
2.320000	26.945409
2.330000	26.945409
2.340000	26.945409
2.350000	26.945409
2.360000	26.945409
2.370000	26.945409
2.380000	26.945409
2.390000	26.945409
2.400000	26.945409
2.410000	26.945409
2.420000	26.945409
2.430000	26.945409
2.440000	26.945409
2.450000	26.945409
2.460000	26.945409
2.470000	26.945409
2.480000	26.945409
2.490000	26.945409
2.500000	28.096389
2.510000	28.096389
2.520000	28.096389
2.530000	28.096389
2.540000	28.096389
2.550000	28.096389
2.560000	28.096389
2.570000	28.096389
2.580000	28.096389
2.590000	28.096389
2.600000	28.096389
2.610000	28.096389
2.620000	28.096389
2.630000	28.096389
2.640000	28.096389
2.650000	28.096389
2.660000	28.096389
2.670000	28.096389
2.680000	28.096389
2.690000	28.096389
2.700000	28.096389
2.710000	28.096389
2.720000	28.096389
2.730000	28.096389
2.740000	28.096389
2.750000	28.096389
2.760000	28.096389
2.770000	28.096389
2.780000	28.096389
2.790000	28.096389
2.800000	28.096389
2.810000	28.096389
2.820000	28.096389
2.830000	28.096389
2.840000	28.096389
2.850000	28.096389
2.860000	28.096389
2.870000	28.096389
2.880000	28.096389
2.890000	28.096389
2.900000	28.096389
2.910000	28.096389
2.920000	28.096389
2.930000	28.096389
2.940000	28.096389
2.950000	28.096389
2.960000	28.096389
2.970000	28.096389
2.980000	28.096389
2.990000	28.096389
3.000000	29.363031
3.010000	29.363031
3.020000	29.363031
3.030000	29.363031
3.040000	29.363031
3.050000	29.363031
3.060000	29.363031
3.070000	29.363031
3.080000	29.363031
3.090000	29.363031
3.100000	29.363031
3.110000	29.363031
3.120000	29.363031
3.130000	29.363031
3.140000	29.363031
3.150000	29.363031
3.160000	29.363031
3.170000	29.363031
3.180000	29.363031
3.190000	29.363031
3.200000	29.363031
3.210000	29.363031
3.220000	29.363031
3.230000	29.363031
3.240000	29.363031
3.250000	29.363031
3.260000	29.363031
3.270000	29.363031
3.280000	29.363031
3.290000	29.363031
3.300000	29.363031
3.310000	29.363031
3.320000	29.363031
3.330000	29.363031
3.340000	29.363031
3.350000	29.363031
3.360000	29.363031
3.370000	29.363031
3.380000	29.363031
3.390000	29.363031
3.400000	29.363031
3.410000	29.363031
3.420000	29.363031
3.430000	29.363031
3.440000	29.363031
3.450000	29.363031
3.460000	29.363031
3.470000	29.363031
3.480000	29.363031
3.490000	29.363031
3.500000	30.415867
3.510000	30.415867
3.520000	30.415867
3.530000	30.415867
3.540000	30.415867
3.550000	30.415867
3.560000	30.415867
3.570000	30.415867
3.580000	30.415867
3.590000	30.415867
3.600000	30.415867
3.610000	30.415867
3.620000	30.415867
3.630000	30.415867
3.640000	30.415867
3.650000	30.415867
3.660000	30.415867
3.670000	30.415867
3.680000	30.415867
3.690000	30.415867
3.700000	30.415867
3.710000	30.415867
3.720000	30.415867
3.730000	30.415867
3.740000	30.415867
3.750000	30.415867
3.760000	30.415867
3.770000	30.415867
3.780000	30.415867
3.790000	30.415867
3.800000	30.415867
3.810000	30.415867
3.820000	30.415867
3.830000	30.415867
3.840000	30.415867
3.850000	30.415867
3.860000	30.415867
3.870000	30.415867
3.880000	30.415867
3.890000	30.415867
3.900000	30.415867
3.910000	30.415867
3.920000	30.415867
3.930000	30.415867
3.940000	30.415867
3.950000	30.415867
3.960000	30.415867
3.970000	30.415867
3.980000	30.415867
3.990000	30.415867
4.000000	31.201906
4.010000	31.201906
4.020000	31.201906
4.030000	31.201906
4.040000	31.201906
4.050000	31.201906
4.060000	31.201906
4.070000	31.201906
4.080000	31.201906
4.090000	31.201906
4.100000	31.201906
4.110000	31.201906
4.120000	31.201906
4.130000	31.201906
4.140000	31.201906
4.150000	31.201906
4.160000	31.201906
4.170000	31.201906
4.180000	31.201906
4.190000	31.201906
4.200000	31.201906
4.210000	31.201906
4.220000	31.201906
4.230000	31.201906
4.240000	31.201906
4.250000	31.201906
4.260000	31.201906
4.270000	31.201906
4.280000	31.201906
4.290000	31.201906
4.300000	31.201906
4.310000	31.201906
4.320000	31.201906
4.330000	31.201906
4.340000	31.201906
4.350000	31.201906
4.360000	31.201906
4.370000	31.201906
4.380000	31.201906
4.390000	31.201906
4.400000	31.201906
4.410000	31.201906
4.420000	31.201906
4.430000	31.201906
4.440000	31.201906
4.450000	31.201906
4.460000	31.201906
4.470000	31.201906
4.480000	31.201906
4.490000	31.201906
4.500000	31.770600
4.510000	31.770600
4.520000	31.770600
4.530000	31.770600
4.540000	31.770600
4.550000	31.770600
4.560000	31.770600
4.570000	31.770600
4.580000	31.770600
4.590000	31.770600
4.600000	31.770600
4.610000	31.770600
4.620000	31.770600
4.630000	31.770600
4.640000	31.770600
4.650000	31.770600
4.660000	31.770600
4.670000	31.770600
4.680000	31.770600
4.690000	31.770600
4.700000	31.770600
4.710000	31.770600
4.720000	31.770600
4.730000	31.770600
4.740000	31.770600
4.750000	31.770600
4.760000	31.770600
4.770000	31.770600
4.780000	31.770600
4.790000	31.770600
4.800000	31.770600
4.810000	31.770600
4.820000	31.770600
4.830000	31.770600
4.840000	31.770600
4.850000	31.770600
4.860000	31.770600
4.870000	31.770600
4.880000	31.770600
4.890000	31.770600
4.900000	31.770600
4.910000	31.770600
4.920000	31.770600
4.930000	31.770600
4.940000	31.770600
4.950000	31.770600
4.960000	31.770600
4.970000	31.770600
4.980000	31.770600
4.990000	31.770600
5.000000	32.165136
5.010000	32.165136
5.020000	32.165136
5.030000	32.165136
5.040000	32.165136
5.050000	32.165136
5.060000	32.165136
5.070000	32.165136
5.080000	32.165136
5.090000	32.165136
5.100000	32.165136
5.110000	32.165136
5.120000	32.165136
5.130000	32.165136
5.140000	32.165136
5.150000	32.165136
5.160000	32.165136
5.170000	32.165136
5.180000	32.165136
5.190000	32.165136
5.200000	32.165136
5.210000	32.165136
5.220000	32.165136
5.230000	32.165136
5.240000	32.165136
5.250000	32.165136
5.260000	32.165136
5.270000	32.165136
5.280000	32.165136
5.290000	32.165136
5.300000	32.165136
5.310000	32.165136
5.320000	32.165136
5.330000	32.165136
5.340000	32.165136
5.350000	32.165136
5.360000	32.165136
5.370000	32.165136
5.380000	32.165136
5.390000	32.165136
5.400000	32.165136
5.410000	32.165136
5.420000	32.165136
5.430000	32.165136
5.440000	32.165136
5.450000	32.165136
5.460000	32.165136
5.470000	32.165136
5.480000	32.165136
5.490000	32.165136
5.500000	32.428725
5.510000	32.428725
5.520000	32.428725
5.530000	32.428725
5.540000	32.428725
5.550000	32.428725
5.560000	32.428725
5.570000	32.428725
5.580000	32.428725
5.590000	32.428725
5.600000	32.428725
5.610000	32.428725
5.620000	32.428725
5.630000	32.428725
5.640000	32.428725
5.650000	32.428725
5.660000	32.428725
5.670000	32.428725
5.680000	32.428725
5.690000	32.428725
5.700000	32.428725
5.710000	32.428725
5.720000	32.428725
5.730000	32.428725
5.740000	32.428725
5.750000	32.428725
5.760000	32.428725
5.770000	32.428725
5.780000	32.428725
5.790000	32.428725
5.800000	32.428725
5.810000	32.428725
5.820000	32.428725
5.830000	32.428725
5.840000	32.428725
5.850000	32.428725
5.860000	32.428725
5.870000	32.428725
5.880000	32.428725
5.890000	32.428725
5.900000	32.428725
5.910000	32.428725
5.920000	32.428725
5.930000	32.428725
5.940000	32.428725
5.950000	32.428725
5.960000	32.428725
5.970000	32.428725
5.980000	32.428725
5.990000	32.428725
6.000000	32.586431
6.010000	32.586431
6.020000	32.586431
6.030000	32.586431
6.040000	32.586431
6.050000	32.586431
6.060000	32.586431
6.070000	32.586431
6.080000	32.586431
6.090000	32.586431
6.100000	32.586431
6.110000	32.586431
6.120000	32.586431
6.130000	32.586431
6.140000	32.586431
6.150000	32.586431
6.160000	32.586431
6.170000	32.586431
6.180000	32.586431
6.190000	32.586431
6.200000	32.586431
6.210000	32.586431
6.220000	32.586431
6.230000	32.586431
6.240000	32.586431
6.250000	32.586431
6.260000	32.586431
6.270000	32.586431
6.280000	32.586431
6.290000	32.586431
6.300000	32.586431
6.310000	32.586431
6.320000	32.586431
6.330000	32.586431
6.340000	32.586431
6.350000	32.586431
6.360000	32.586431
6.370000	32.586431
6.380000	32.586431
6.390000	32.586431
6.400000	32.586431
6.410000	32.586431
6.420000	32.586431
6.430000	32.586431
6.440000	32.586431
6.450000	32.586431
6.460000	32.586431
6.470000	32.586431
6.480000	32.586431
6.490000	32.586431
6.500000	32.667810
6.510000	32.667810
6.520000	32.667810
6.530000	32.667810
6.540000	32.667810
6.550000	32.667810
6.560000	32.667810
6.570000	32.667810
6.580000	32.667810
6.590000	32.667810
6.600000	32.667810
6.610000	32.667810
6.620000	32.667810
6.630000	32.667810
6.640000	32.667810
6.650000	32.667810
6.660000	32.667810
6.670000	32.667810
6.680000	32.667810
6.690000	32.667810
6.700000	32.667810
6.710000	32.667810
6.720000	32.667810
6.730000	32.667810
6.740000	32.667810
6.750000	32.667810
6.760000	32.667810
6.770000	32.667810
6.780000	32.667810
6.790000	32.667810
6.800000	32.667810
6.810000	32.667810
6.820000	32.667810
6.830000	32.667810
6.840000	32.667810
6.850000	32.667810
6.860000	32.667810
6.870000	32.667810
6.880000	32.667810
6.890000	32.667810
6.900000	32.667810
6.910000	32.667810
6.920000	32.667810
6.930000	32.667810
6.940000	32.667810
6.950000	32.667810
6.960000	32.667810
6.970000	32.667810
6.980000	32.667810
6.990000	32.667810
7.000000	32.690050
7.010000	32.690050
7.020000	32.690050
7.030000	32.690050
7.040000	32.690050
7.050000	32.690050
7.060000	32.690050
7.070000	32.690050
7.080000	32.690050
7.090000	32.690050
7.100000	32.690050
7.110000	32.690050
7.120000	32.690050
7.130000	32.690050
7.140000	32.690050
7.150000	32.690050
7.160000	32.690050
7.170000	32.690050
7.180000	32.690050
7.190000	32.690050
7.200000	32.690050
7.210000	32.690050
7.220000	32.690050
7.230000	32.690050
7.240000	32.690050
7.250000	32.690050
7.260000	32.690050
7.270000	32.690050
7.280000	32.690050
7.290000	32.690050
7.300000	32.690050
7.310000	32.690050
7.320000	32.690050
7.330000	32.690050
7.340000	32.690050
7.350000	32.690050
7.360000	32.690050
7.370000	32.690050
7.380000	32.690050
7.390000	32.690050
7.400000	32.690050
7.410000	32.690050
7.420000	32.690050
7.430000	32.690050
7.440000	32.690050
7.450000	32.690050
7.460000	32.690050
7.470000	32.690050
7.480000	32.690050
7.490000	32.690050
7.500000	32.665170
7.510000	32.665170
7.520000	32.665170
7.530000	32.665170
7.540000	32.665170
7.550000	32.665170
7.560000	32.665170
7.570000	32.665170
7.580000	32.665170
7.590000	32.665170
7.600000	32.665170
7.610000	32.665170
7.620000	32.665170
7.630000	32.665170
7.640000	32.665170
7.650000	32.665170
7.660000	32.665170
7.670000	32.665170
7.680000	32.665170
7.690000	32.665170
7.700000	32.665170
7.710000	32.665170
7.720000	32.665170
7.730000	32.665170
7.740000	32.665170
7.750000	32.665170
7.760000	32.665170
7.770000	32.665170
7.780000	32.665170
7.790000	32.665170
7.800000	32.665170
7.810000	32.665170
7.820000	32.665170
7.830000	32.665170
7.840000	32.665170
7.850000	32.665170
7.860000	32.665170
7.870000	32.665170
7.880000	32.665170
7.890000	32.665170
7.900000	32.665170
7.910000	32.665170
7.920000	32.665170
7.930000	32.665170
7.940000	32.665170
7.950000	32.665170
7.960000	32.665170
7.970000	32.665170
7.980000	32.665170
7.990000	32.665170
8.000000	32.604722
8.010000	32.604722
8.020000	32.604722
8.030000	32.604722
8.040000	32.604722
8.050000	32.604722
8.060000	32.604722
8.070000	32.604722
8.080000	32.604722
8.090000	32.604722
8.100000	32.604722
8.110000	32.604722
8.120000	32.604722
8.130000	32.604722
8.140000	32.604722
8.150000	32.604722
8.160000	32.604722
8.170000	32.604722
8.180000	32.604722
8.190000	32.604722
8.200000	32.604722
8.210000	32.604722
8.220000	32.604722
8.230000	32.604722
8.240000	32.604722
8.250000	32.604722
8.260000	32.604722
8.270000	32.604722
8.280000	32.604722
8.290000	32.604722
8.300000	32.604722
8.310000	32.604722
8.320000	32.604722
8.330000	32.604722
8.340000	32.604722
8.350000	32.604722
8.360000	32.604722
8.370000	32.604722
8.380000	32.604722
8.390000	32.604722
8.400000	32.604722
8.410000	32.604722
8.420000	32.604722
8.430000	32.604722
8.440000	32.604722
8.450000	32.604722
8.460000	32.604722
8.470000	32.604722
8.480000	32.604722
8.490000	32.604722
8.500000	32.522625
8.510000	32.522625
8.520000	32.522625
8.530000	32.522625
8.540000	32.522625
8.550000	32.522625
8.560000	32.522625
8.570000	32.522625
8.580000	32.522625
8.590000	32.522625
8.600000	32.522625
8.610000	32.522625
8.620000	32.522625
8.630000	32.522625
8.640000	32.522625
8.650000	32.522625
8.660000	32.522625
8.670000	32.522625
8.680000	32.522625
8.690000	32.522625
8.700000	32.522625
8.710000	32.522625
8.720000	32.522625
8.730000	32.522625
8.740000	32.522625
8.750000	32.522625
8.760000	32.522625
8.770000	32.522625
8.780000	32.522625
8.790000	32.522625
8.800000	32.522625
8.810000	32.522625
8.820000	32.522625
8.830000	32.522625
8.840000	32.522625
8.850000	32.522625
8.860000	32.522625
8.870000	32.522625
8.880000	32.522625
8.890000	32.522625
8.900000	32.522625
8.910000	32.522625
8.920000	32.522625
8.930000	32.522625
8.940000	32.522625
8.950000	32.522625
8.960000	32.522625
8.970000	32.522625
8.980000	32.522625
8.990000	32.522625
9.000000	32.424815
9.010000	32.424815
9.020000	32.424815
9.030000	32.424815
9.040000	32.424815
9.050000	32.424815
9.060000	32.424815
9.070000	32.424815
9.080000	32.424815
9.090000	32.424815
9.100000	32.424815
9.110000	32.424815
9.120000	32.424815
9.130000	32.424815
9.140000	32.424815
9.150000	32.424815
9.160000	32.424815
9.170000	32.424815
9.180000	32.424815
9.190000	32.424815
9.200000	32.424815
9.210000	32.424815
9.220000	32.424815
9.230000	32.424815
9.240000	32.424815
9.250000	32.424815
9.260000	32.424815
9.270000	32.424815
9.280000	32.424815
9.290000	32.424815
9.300000	32.424815
9.310000	32.424815
9.320000	32.424815
9.330000	32.424815
9.340000	32.424815
9.350000	32.424815
9.360000	32.424815
9.370000	32.424815
9.380000	32.424815
9.390000	32.424815
9.400000	32.424815
9.410000	32.424815
9.420000	32.424815
9.430000	32.424815
9.440000	32.424815
9.450000	32.424815
9.460000	32.424815
9.470000	32.424815
9.480000	32.424815
9.490000	32.424815
9.500000	32.315003
9.510000	32.315003
9.520000	32.315003
9.530000	32.315003
9.540000	32.315003
9.550000	32.315003
9.560000	32.315003
9.570000	32.315003
9.580000	32.315003
9.590000	32.315003
9.600000	32.315003
9.610000	32.315003
9.620000	32.315003
9.630000	32.315003
9.640000	32.315003
9.650000	32.315003
9.660000	32.315003
9.670000	32.315003
9.680000	32.315003
9.690000	32.315003
9.700000	32.315003
9.710000	32.315003
9.720000	32.315003
9.730000	32.315003
9.740000	32.315003
9.750000	32.315003
9.760000	32.315003
9.770000	32.315003
9.780000	32.315003
9.790000	32.315003
9.800000	32.315003
9.810000	32.315003
9.820000	32.315003
9.830000	32.315003
9.840000	32.315003
9.850000	32.315003
9.860000	32.315003
9.870000	32.315003
9.880000	32.315003
9.890000	32.315003
9.900000	32.315003
9.910000	32.315003
9.920000	32.315003
9.930000	32.315003
9.940000	32.315003
9.950000	32.315003
9.960000	32.315003
9.970000	32.315003
9.980000	32.315003
9.990000	32.315003
10.000000	32.196569
10.010000	32.196569
10.020000	32.196569
10.030000	32.196569
10.040000	32.196569
10.050000	32.196569
10.060000	32.196569
10.070000	32.196569
10.080000	32.196569
10.090000	32.196569
10.100000	32.196569
10.110000	32.196569
10.120000	32.196569
10.130000	32.196569
10.140000	32.196569
10.150000	32.196569
10.160000	32.196569
10.170000	32.196569
10.180000	32.196569
10.190000	32.196569
10.200000	32.196569
10.210000	32.196569
10.220000	32.196569
10.230000	32.196569
10.240000	32.196569
10.250000	32.196569
10.260000	32.196569
10.270000	32.196569
10.280000	32.196569
10.290000	32.196569
10.300000	32.196569
10.310000	32.196569
10.320000	32.196569
10.330000	32.196569
10.340000	32.196569
10.350000	32.196569
10.360000	32.196569
10.370000	32.196569
10.380000	32.196569
10.390000	32.196569
10.400000	32.196569
10.410000	32.196569
10.420000	32.196569
10.430000	32.196569
10.440000	32.196569
10.450000	32.196569
10.460000	32.196569
10.470000	32.196569
10.480000	32.196569
10.490000	32.196569
10.500000	32.072075
10.510000	32.072075
10.520000	32.072075
10.530000	32.072075
10.540000	32.072075
10.550000	32.072075
10.560000	32.072075
10.570000	32.072075
10.580000	32.072075
10.590000	32.072075
10.600000	32.072075
10.610000	32.072075
10.620000	32.072075
10.630000	32.072075
10.640000	32.072075
10.650000	32.072075
10.660000	32.072075
10.670000	32.072075
10.680000	32.072075
10.690000	32.072075
10.700000	32.072075
10.710000	32.072075
10.720000	32.072075
10.730000	32.072075
10.740000	32.072075
10.750000	32.072075
10.760000	32.072075
10.770000	32.072075
10.780000	32.072075
10.790000	32.072075
10.800000	32.072075
10.810000	32.072075
10.820000	32.072075
10.830000	32.072075
10.840000	32.072075
10.850000	32.072075
10.860000	32.072075
10.870000	32.072075
10.880000	32.072075
10.890000	32.072075
10.900000	32.072075
10.910000	32.072075
10.920000	32.072075
10.930000	32.072075
10.940000	32.072075
10.950000	32.072075
10.960000	32.072075
10.970000	32.072075
10.980000	32.072075
10.990000	32.072075
11.000000	31.942512
11.010000	31.942512
11.020000	31.942512
11.030000	31.942512
11.040000	31.942512
11.050000	31.942512
11.060000	31.942512
11.070000	31.942512
11.080000	31.942512
11.090000	31.942512
11.100000	31.942512
11.110000	31.942512
11.120000	31.942512
11.130000	31.942512
11.140000	31.942512
11.150000	31.942512
11.160000	31.942512
11.170000	31.942512
11.180000	31.942512
11.190000	31.942512
11.200000	31.942512
11.210000	31.942512
11.220000	31.942512
11.230000	31.942512
11.240000	31.942512
11.250000	31.942512
11.260000	31.942512
11.270000	31.942512
11.280000	31.942512
11.290000	31.942512
11.300000	31.942512
11.310000	31.942512
11.320000	31.942512
11.330000	31.942512
11.340000	31.942512
11.350000	31.942512
11.360000	31.942512
11.370000	31.942512
11.380000	31.942512
11.390000	31.942512
11.400000	31.942512
11.410000	31.942512
11.420000	31.942512
11.430000	31.942512
11.440000	31.942512
11.450000	31.942512
11.460000	31.942512
11.470000	31.942512
11.480000	31.942512
11.490000	31.942512
11.500000	31.810868
11.510000	31.810868
11.520000	31.810868
11.530000	31.810868
11.540000	31.810868
11.550000	31.810868
11.560000	31.810868
11.570000	31.810868
11.580000	31.810868
11.590000	31.810868
11.600000	31.810868
11.610000	31.810868
11.620000	31.810868
11.630000	31.810868
11.640000	31.810868
11.650000	31.810868
11.660000	31.810868
11.670000	31.810868
11.680000	31.810868
11.690000	31.810868
11.700000	31.810868
11.710000	31.810868
11.720000	31.810868
11.730000	31.810868
11.740000	31.810868
11.750000	31.810868
11.760000	31.810868
11.770000	31.810868
11.780000	31.810868
11.790000	31.810868
11.800000	31.810868
11.810000	31.810868
11.820000	31.810868
11.830000	31.810868
11.840000	31.810868
11.850000	31.810868
11.860000	31.810868
11.870000	31.810868
11.880000	31.810868
11.890000	31.810868
11.900000	31.810868
11.910000	31.810868
11.920000	31.810868
11.930000	31.810868
11.940000	31.810868
11.950000	31.810868
11.960000	31.810868
11.970000	31.810868
11.980000	31.810868
11.990000	31.810868
12.000000	31.678426
12.010000	31.678426
12.020000	31.678426
12.030000	31.678426
12.040000	31.678426
12.050000	31.678426
12.060000	31.678426
12.070000	31.678426
12.080000	31.678426
12.090000	31.678426
12.100000	31.678426
12.110000	31.678426
12.120000	31.678426
12.130000	31.678426
12.140000	31.678426
12.150000	31.678426
12.160000	31.678426
12.170000	31.678426
12.180000	31.678426
12.190000	31.678426
12.200000	31.678426
12.210000	31.678426
12.220000	31.678426
12.230000	31.678426
12.240000	31.678426
12.250000	31.678426
12.260000	31.678426
12.270000	31.678426
12.280000	31.678426
12.290000	31.678426
12.300000	31.678426
12.310000	31.678426
12.320000	31.678426
12.330000	31.678426
12.340000	31.678426
12.350000	31.678426
12.360000	31.678426
12.370000	31.678426
12.380000	31.678426
12.390000	31.678426
12.400000	31.678426
12.410000	31.678426
12.420000	31.678426
12.430000	31.678426
12.440000	31.678426
12.450000	31.678426
12.460000	31.678426
12.470000	31.678426
12.480000	31.678426
12.490000	31.678426
12.500000	31.546320
12.510000	31.546320
12.520000	31.546320
12.530000	31.546320
12.540000	31.546320
12.550000	31.546320
12.560000	31.546320
12.570000	31.546320
12.580000	31.546320
12.590000	31.546320
12.600000	31.546320
12.610000	31.546320
12.620000	31.546320
12.630000	31.546320
12.640000	31.546320
12.650000	31.546320
12.660000	31.546320
12.670000	31.546320
12.680000	31.546320
12.690000	31.546320
12.700000	31.546320
12.710000	31.546320
12.720000	31.546320
12.730000	31.546320
12.740000	31.546320
12.750000	31.546320
12.760000	31.546320
12.770000	31.546320
12.780000	31.546320
12.790000	31.546320
12.800000	31.546320
12.810000	31.546320
12.820000	31.546320
12.830000	31.546320
12.840000	31.546320
12.850000	31.546320
12.860000	31.546320
12.870000	31.546320
12.880000	31.546320
12.890000	31.546320
12.900000	31.546320
12.910000	31.546320
12.920000	31.546320
12.930000	31.546320
12.940000	31.546320
12.950000	31.546320
12.960000	31.546320
12.970000	31.546320
12.980000	31.546320
12.990000	31.546320
13.000000	31.413547
13.010000	31.413547
13.020000	31.413547
13.030000	31.413547
13.040000	31.413547
13.050000	31.413547
13.060000	31.413547
13.070000	31.413547
13.080000	31.413547
13.090000	31.413547
13.100000	31.413547
13.110000	31.413547
13.120000	31.413547
13.130000	31.413547
13.140000	31.413547
13.150000	31.413547
13.160000	31.413547
13.170000	31.413547
13.180000	31.413547
13.190000	31.413547
13.200000	31.413547
13.210000	31.413547
13.220000	31.413547
13.230000	31.413547
13.240000	31.413547
13.250000	31.413547
13.260000	31.413547
13.270000	31.413547
13.280000	31.413547
13.290000	31.413547
13.300000	31.413547
13.310000	31.413547
13.320000	31.413547
13.330000	31.413547
13.340000	31.413547
13.350000	31.413547
13.360000	31.413547
13.370000	31.413547
13.380000	31.413547
13.390000	31.413547
13.400000	31.413547
13.410000	31.413547
13.420000	31.413547
13.430000	31.413547
13.440000	31.413547
13.450000	31.413547
13.460000	31.413547
13.470000	31.413547
13.480000	31.413547
13.490000	31.413547
13.500000	31.277841
13.510000	31.277841
13.520000	31.277841
13.530000	31.277841
13.540000	31.277841
13.550000	31.277841
13.560000	31.277841
13.570000	31.277841
13.580000	31.277841
13.590000	31.277841
13.600000	31.277841
13.610000	31.277841
13.620000	31.277841
13.630000	31.277841
13.640000	31.277841
13.650000	31.277841
13.660000	31.277841
13.670000	31.277841
13.680000	31.277841
13.690000	31.277841
13.700000	31.277841
13.710000	31.277841
13.720000	31.277841
13.730000	31.277841
13.740000	31.277841
13.750000	31.277841
13.760000	31.277841
13.770000	31.277841
13.780000	31.277841
13.790000	31.277841
13.800000	31.277841
13.810000	31.277841
13.820000	31.277841
13.830000	31.277841
13.840000	31.277841
13.850000	31.277841
13.860000	31.277841
13.870000	31.277841
13.880000	31.277841
13.890000	31.277841
13.900000	31.277841
13.910000	31.277841
13.920000	31.277841
13.930000	31.277841
13.940000	31.277841
13.950000	31.277841
13.960000	31.277841
13.970000	31.277841
13.980000	31.277841
13.990000	31.277841
14.000000	31.140916
14.010000	31.140916
14.020000	31.140916
14.030000	31.140916
14.040000	31.140916
14.050000	31.140916
14.060000	31.140916
14.070000	31.140916
14.080000	31.140916
14.090000	31.140916
14.100000	31.140916
14.110000	31.140916
14.120000	31.140916
14.130000	31.140916
14.140000	31.140916
14.150000	31.140916
14.160000	31.140916
14.170000	31.140916
14.180000	31.140916
14.190000	31.140916
14.200000	31.140916
14.210000	31.140916
14.220000	31.140916
14.230000	31.140916
14.240000	31.140916
14.250000	31.140916
14.260000	31.140916
14.270000	31.140916
14.280000	31.140916
14.290000	31.140916
14.300000	31.140916
14.310000	31.140916
14.320000	31.140916
14.330000	31.140916
14.340000	31.140916
14.350000	31.140916
14.360000	31.140916
14.370000	31.140916
14.380000	31.140916
14.390000	31.140916
14.400000	31.140916
14.410000	31.140916
14.420000	31.140916
14.430000	31.140916
14.440000	31.140916
14.450000	31.140916
14.460000	31.140916
14.470000	31.140916
14.480000	31.140916
14.490000	31.140916
14.500000	31.009794
14.510000	31.009794
14.520000	31.009794
14.530000	31.009794
14.540000	31.009794
14.550000	31.009794
14.560000	31.009794
14.570000	31.009794
14.580000	31.009794
14.590000	31.009794
14.600000	31.009794
14.610000	31.009794
14.620000	31.009794
14.630000	31.009794
14.640000	31.009794
14.650000	31.009794
14.660000	31.009794
14.670000	31.009794
14.680000	31.009794
14.690000	31.009794
14.700000	31.009794
14.710000	31.009794
14.720000	31.009794
14.730000	31.009794
14.740000	31.009794
14.750000	31.009794
14.760000	31.009794
14.770000	31.009794
14.780000	31.009794
14.790000	31.009794
14.800000	31.009794
14.810000	31.009794
14.820000	31.009794
14.830000	31.009794
14.840000	31.009794
14.850000	31.009794
14.860000	31.009794
14.870000	31.009794
14.880000	31.009794
14.890000	31.009794
14.900000	31.009794
14.910000	31.009794
14.920000	31.009794
14.930000	31.009794
14.940000	31.009794
14.950000	31.009794
14.960000	31.009794
14.970000	31.009794
14.980000	31.009794
14.990000	31.009794
15.000000	30.882608
15.010000	30.882608
15.020000	30.882608
15.030000	30.882608
15.040000	30.882608
15.050000	30.882608
15.060000	30.882608
15.070000	30.882608
15.080000	30.882608
15.090000	30.882608
15.100000	30.882608
15.110000	30.882608
15.120000	30.882608
15.130000	30.882608
15.140000	30.882608
15.150000	30.882608
15.160000	30.882608
15.170000	30.882608
15.180000	30.882608
15.190000	30.882608
15.200000	30.882608
15.210000	30.882608
15.220000	30.882608
15.230000	30.882608
15.240000	30.882608
15.250000	30.882608
15.260000	30.882608
15.270000	30.882608
15.280000	30.882608
15.290000	30.882608
15.300000	30.882608
15.310000	30.882608
15.320000	30.882608
15.330000	30.882608
15.340000	30.882608
15.350000	30.882608
15.360000	30.882608
15.370000	30.882608
15.380000	30.882608
15.390000	30.882608
15.400000	30.882608
15.410000	30.882608
15.420000	30.882608
15.430000	30.882608
15.440000	30.882608
15.450000	30.882608
15.460000	30.882608
15.470000	30.882608
15.480000	30.882608
15.490000	30.882608
15.500000	30.760180
15.510000	30.760180
15.520000	30.760180
15.530000	30.760180
15.540000	30.760180
15.550000	30.760180
15.560000	30.760180
15.570000	30.760180
15.580000	30.760180
15.590000	30.760180
15.600000	30.760180
15.610000	30.760180
15.620000	30.760180
15.630000	30.760180
15.640000	30.760180
15.650000	30.760180
15.660000	30.760180
15.670000	30.760180
15.680000	30.760180
15.690000	30.760180
15.700000	30.760180
15.710000	30.760180
15.720000	30.760180
15.730000	30.760180
15.740000	30.760180
15.750000	30.760180
15.760000	30.760180
15.770000	30.760180
15.780000	30.760180
15.790000	30.760180
15.800000	30.760180
15.810000	30.760180
15.820000	30.760180
15.830000	30.760180
15.840000	30.760180
15.850000	30.760180
15.860000	30.760180
15.870000	30.760180
15.880000	30.760180
15.890000	30.760180
15.900000	30.760180
15.910000	30.760180
15.920000	30.760180
15.930000	30.760180
15.940000	30.760180
15.950000	30.760180
15.960000	30.760180
15.970000	30.760180
15.980000	30.760180
15.990000	30.760180
16.000000	30.640854
16.010000	30.640854
16.020000	30.640854
16.030000	30.640854
16.040000	30.640854
16.050000	30.640854
16.060000	30.640854
16.070000	30.640854
16.080000	30.640854
16.090000	30.640854
16.100000	30.640854
16.110000	30.640854
16.120000	30.640854
16.130000	30.640854
16.140000	30.640854
16.150000	30.640854
16.160000	30.640854
16.170000	30.640854
16.180000	30.640854
16.190000	30.640854
16.200000	30.640854
16.210000	30.640854
16.220000	30.640854
16.230000	30.640854
16.240000	30.640854
16.250000	30.640854
16.260000	30.640854
16.270000	30.640854
16.280000	30.640854
16.290000	30.640854
16.300000	30.640854
16.310000	30.640854
16.320000	30.640854
16.330000	30.640854
16.340000	30.640854
16.350000	30.640854
16.360000	30.640854
16.370000	30.640854
16.380000	30.640854
16.390000	30.640854
16.400000	30.640854
16.410000	30.640854
16.420000	30.640854
16.430000	30.640854
16.440000	30.640854
16.450000	30.640854
16.460000	30.640854
16.470000	30.640854
16.480000	30.640854
16.490000	30.640854
16.500000	30.524116
16.510000	30.524116
16.520000	30.524116
16.530000	30.524116
16.540000	30.524116
16.550000	30.524116
16.560000	30.524116
16.570000	30.524116
16.580000	30.524116
16.590000	30.524116
16.600000	30.524116
16.610000	30.524116
16.620000	30.524116
16.630000	30.524116
16.640000	30.524116
16.650000	30.524116
16.660000	30.524116
16.670000	30.524116
16.680000	30.524116
16.690000	30.524116
16.700000	30.524116
16.710000	30.524116
16.720000	30.524116
16.730000	30.524116
16.740000	30.524116
16.750000	30.524116
16.760000	30.524116
16.770000	30.524116
16.780000	30.524116
16.790000	30.524116
16.800000	30.524116
16.810000	30.524116
16.820000	30.524116
16.830000	30.524116
16.840000	30.524116
16.850000	30.524116
16.860000	30.524116
16.870000	30.524116
16.880000	30.524116
16.890000	30.524116
16.900000	30.524116
16.910000	30.524116
16.920000	30.524116
16.930000	30.524116
16.940000	30.524116
16.950000	30.524116
16.960000	30.524116
16.970000	30.524116
16.980000	30.524116
16.990000	30.524116
17.000000	30.408407
17.010000	30.408407
17.020000	30.408407
17.030000	30.408407
17.040000	30.408407
17.050000	30.408407
17.060000	30.408407
17.070000	30.408407
17.080000	30.408407
17.090000	30.408407
17.100000	30.408407
17.110000	30.408407
17.120000	30.408407
17.130000	30.408407
17.140000	30.408407
17.150000	30.408407
17.160000	30.408407
17.170000	30.408407
17.180000	30.408407
17.190000	30.408407
17.200000	30.408407
17.210000	30.408407
17.220000	30.408407
17.230000	30.408407
17.240000	30.408407
17.250000	30.408407
17.260000	30.408407
17.270000	30.408407
17.280000	30.408407
17.290000	30.408407
17.300000	30.408407
17.310000	30.408407
17.320000	30.408407
17.330000	30.408407
17.340000	30.408407
17.350000	30.408407
17.360000	30.408407
17.370000	30.408407
17.380000	30.408407
17.390000	30.408407
17.400000	30.408407
17.410000	30.408407
17.420000	30.408407
17.430000	30.408407
17.440000	30.408407
17.450000	30.408407
17.460000	30.408407
17.470000	30.408407
17.480000	30.408407
17.490000	30.408407
