LabVIEW Measurement	
Writer_Version	2
Reader_Version	2
Separator	Tab
Decimal_Separator	.
Multi_Headings	No
X_Columns	One
Time_Pref	Absolute
Operator	biomech-dyno
Date	2023/04/27
Time	17:41:55.9338632999999876419
***End_of_Header***	
	
Channels	1	
Samples	10	
Date	2023/04/27	
Time	17:54:44.0039002999999513771	
X_Dimension	Time	
X0	0.0000000000000000E+0	
Delta_X	0.010000	
***End_of_Header***		
X_Value	Untitled	Comment
0.000000	24.866130
0.010000	24.866130
0.020000	24.866130
0.030000	24.866130
0.040000	24.866130
0.050000	24.866130
0.060000	24.866130
0.070000	24.866130
0.080000	24.866130
0.090000	24.866130
0.100000	24.866130
0.110000	24.866130
0.120000	24.866130
0.130000	24.866130
0.140000	24.866130
0.150000	24.866130
0.160000	24.866130
0.170000	24.866130
0.180000	24.866130
0.190000	24.866130
0.200000	24.866130
0.210000	24.866130
0.220000	24.866130
0.230000	24.866130
0.240000	24.866130
0.250000	24.866130
0.260000	24.866130
0.270000	24.866130
0.280000	24.866130
0.290000	24.866130
0.300000	24.866130
0.310000	24.866130
0.320000	24.866130
0.330000	24.866130
0.340000	24.866130
0.350000	24.866130
0.360000	24.866130
0.370000	24.866130
0.380000	24.866130
0.390000	24.866130
0.400000	24.866130
0.410000	24.866130
0.420000	24.866130
0.430000	24.866130
0.440000	24.866130
0.450000	24.866130
0.460000	24.866130
0.470000	24.866130
0.480000	24.866130
0.490000	24.866130
0.500000	24.875964
0.510000	24.875964
0.520000	24.875964
0.530000	24.875964
0.540000	24.875964
0.550000	24.875964
0.560000	24.875964
0.570000	24.875964
0.580000	24.875964
0.590000	24.875964
0.600000	24.875964
0.610000	24.875964
0.620000	24.875964
0.630000	24.875964
0.640000	24.875964
0.650000	24.875964
0.660000	24.875964
0.670000	24.875964
0.680000	24.875964
0.690000	24.875964
0.700000	24.875964
0.710000	24.875964
0.720000	24.875964
0.730000	24.875964
0.740000	24.875964
0.750000	24.875964
0.760000	24.875964
0.770000	24.875964
0.780000	24.875964
0.790000	24.875964
0.800000	24.875964
0.810000	24.875964
0.820000	24.875964
0.830000	24.875964
0.840000	24.875964
0.850000	24.875964
0.860000	24.875964
0.870000	24.875964
0.880000	24.875964
0.890000	24.875964
0.900000	24.875964
0.910000	24.875964
0.920000	24.875964
0.930000	24.875964
0.940000	24.875964
0.950000	24.875964
0.960000	24.875964
0.970000	24.875964
0.980000	24.875964
0.990000	24.875964
1.000000	25.035553
1.010000	25.035553
1.020000	25.035553
1.030000	25.035553
1.040000	25.035553
1.050000	25.035553
1.060000	25.035553
1.070000	25.035553
1.080000	25.035553
1.090000	25.035553
1.100000	25.035553
1.110000	25.035553
1.120000	25.035553
1.130000	25.035553
1.140000	25.035553
1.150000	25.035553
1.160000	25.035553
1.170000	25.035553
1.180000	25.035553
1.190000	25.035553
1.200000	25.035553
1.210000	25.035553
1.220000	25.035553
1.230000	25.035553
1.240000	25.035553
1.250000	25.035553
1.260000	25.035553
1.270000	25.035553
1.280000	25.035553
1.290000	25.035553
1.300000	25.035553
1.310000	25.035553
1.320000	25.035553
1.330000	25.035553
1.340000	25.035553
1.350000	25.035553
1.360000	25.035553
1.370000	25.035553
1.380000	25.035553
1.390000	25.035553
1.400000	25.035553
1.410000	25.035553
1.420000	25.035553
1.430000	25.035553
1.440000	25.035553
1.450000	25.035553
1.460000	25.035553
1.470000	25.035553
1.480000	25.035553
1.490000	25.035553
1.500000	25.415171
1.510000	25.415171
1.520000	25.415171
1.530000	25.415171
1.540000	25.415171
1.550000	25.415171
1.560000	25.415171
1.570000	25.415171
1.580000	25.415171
1.590000	25.415171
1.600000	25.415171
1.610000	25.415171
1.620000	25.415171
1.630000	25.415171
1.640000	25.415171
1.650000	25.415171
1.660000	25.415171
1.670000	25.415171
1.680000	25.415171
1.690000	25.415171
1.700000	25.415171
1.710000	25.415171
1.720000	25.415171
1.730000	25.415171
1.740000	25.415171
1.750000	25.415171
1.760000	25.415171
1.770000	25.415171
1.780000	25.415171
1.790000	25.415171
1.800000	25.415171
1.810000	25.415171
1.820000	25.415171
1.830000	25.415171
1.840000	25.415171
1.850000	25.415171
1.860000	25.415171
1.870000	25.415171
1.880000	25.415171
1.890000	25.415171
1.900000	25.415171
1.910000	25.415171
1.920000	25.415171
1.930000	25.415171
1.940000	25.415171
1.950000	25.415171
1.960000	25.415171
1.970000	25.415171
1.980000	25.415171
1.990000	25.415171
2.000000	25.976098
2.010000	25.976098
2.020000	25.976098
2.030000	25.976098
2.040000	25.976098
2.050000	25.976098
2.060000	25.976098
2.070000	25.976098
2.080000	25.976098
2.090000	25.976098
2.100000	25.976098
2.110000	25.976098
2.120000	25.976098
2.130000	25.976098
2.140000	25.976098
2.150000	25.976098
2.160000	25.976098
2.170000	25.976098
2.180000	25.976098
2.190000	25.976098
2.200000	25.976098
2.210000	25.976098
2.220000	25.976098
2.230000	25.976098
2.240000	25.976098
2.250000	25.976098
2.260000	25.976098
2.270000	25.976098
2.280000	25.976098
2.290000	25.976098
2.300000	25.976098
2.310000	25.976098
2.320000	25.976098
2.330000	25.976098
2.340000	25.976098
2.350000	25.976098
2.360000	25.976098
2.370000	25.976098
2.380000	25.976098
2.390000	25.976098
2.400000	25.976098
2.410000	25.976098
2.420000	25.976098
2.430000	25.976098
2.440000	25.976098
2.450000	25.976098
2.460000	25.976098
2.470000	25.976098
2.480000	25.976098
2.490000	25.976098
2.500000	26.675101
2.510000	26.675101
2.520000	26.675101
2.530000	26.675101
2.540000	26.675101
2.550000	26.675101
2.560000	26.675101
2.570000	26.675101
2.580000	26.675101
2.590000	26.675101
2.600000	26.675101
2.610000	26.675101
2.620000	26.675101
2.630000	26.675101
2.640000	26.675101
2.650000	26.675101
2.660000	26.675101
2.670000	26.675101
2.680000	26.675101
2.690000	26.675101
2.700000	26.675101
2.710000	26.675101
2.720000	26.675101
2.730000	26.675101
2.740000	26.675101
2.750000	26.675101
2.760000	26.675101
2.770000	26.675101
2.780000	26.675101
2.790000	26.675101
2.800000	26.675101
2.810000	26.675101
2.820000	26.675101
2.830000	26.675101
2.840000	26.675101
2.850000	26.675101
2.860000	26.675101
2.870000	26.675101
2.880000	26.675101
2.890000	26.675101
2.900000	26.675101
2.910000	26.675101
2.920000	26.675101
2.930000	26.675101
2.940000	26.675101
2.950000	26.675101
2.960000	26.675101
2.970000	26.675101
2.980000	26.675101
2.990000	26.675101
3.000000	27.436700
3.010000	27.436700
3.020000	27.436700
3.030000	27.436700
3.040000	27.436700
3.050000	27.436700
3.060000	27.436700
3.070000	27.436700
3.080000	27.436700
3.090000	27.436700
3.100000	27.436700
3.110000	27.436700
3.120000	27.436700
3.130000	27.436700
3.140000	27.436700
3.150000	27.436700
3.160000	27.436700
3.170000	27.436700
3.180000	27.436700
3.190000	27.436700
3.200000	27.436700
3.210000	27.436700
3.220000	27.436700
3.230000	27.436700
3.240000	27.436700
3.250000	27.436700
3.260000	27.436700
3.270000	27.436700
3.280000	27.436700
3.290000	27.436700
3.300000	27.436700
3.310000	27.436700
3.320000	27.436700
3.330000	27.436700
3.340000	27.436700
3.350000	27.436700
3.360000	27.436700
3.370000	27.436700
3.380000	27.436700
3.390000	27.436700
3.400000	27.436700
3.410000	27.436700
3.420000	27.436700
3.430000	27.436700
3.440000	27.436700
3.450000	27.436700
3.460000	27.436700
3.470000	27.436700
3.480000	27.436700
3.490000	27.436700
3.500000	28.076065
3.510000	28.076065
3.520000	28.076065
3.530000	28.076065
3.540000	28.076065
3.550000	28.076065
3.560000	28.076065
3.570000	28.076065
3.580000	28.076065
3.590000	28.076065
3.600000	28.076065
3.610000	28.076065
3.620000	28.076065
3.630000	28.076065
3.640000	28.076065
3.650000	28.076065
3.660000	28.076065
3.670000	28.076065
3.680000	28.076065
3.690000	28.076065
3.700000	28.076065
3.710000	28.076065
3.720000	28.076065
3.730000	28.076065
3.740000	28.076065
3.750000	28.076065
3.760000	28.076065
3.770000	28.076065
3.780000	28.076065
3.790000	28.076065
3.800000	28.076065
3.810000	28.076065
3.820000	28.076065
3.830000	28.076065
3.840000	28.076065
3.850000	28.076065
3.860000	28.076065
3.870000	28.076065
3.880000	28.076065
3.890000	28.076065
3.900000	28.076065
3.910000	28.076065
3.920000	28.076065
3.930000	28.076065
3.940000	28.076065
3.950000	28.076065
3.960000	28.076065
3.970000	28.076065
3.980000	28.076065
3.990000	28.076065
4.000000	28.547823
4.010000	28.547823
4.020000	28.547823
4.030000	28.547823
4.040000	28.547823
4.050000	28.547823
4.060000	28.547823
4.070000	28.547823
4.080000	28.547823
4.090000	28.547823
4.100000	28.547823
4.110000	28.547823
4.120000	28.547823
4.130000	28.547823
4.140000	28.547823
4.150000	28.547823
4.160000	28.547823
4.170000	28.547823
4.180000	28.547823
4.190000	28.547823
4.200000	28.547823
4.210000	28.547823
4.220000	28.547823
4.230000	28.547823
4.240000	28.547823
4.250000	28.547823
4.260000	28.547823
4.270000	28.547823
4.280000	28.547823
4.290000	28.547823
4.300000	28.547823
4.310000	28.547823
4.320000	28.547823
4.330000	28.547823
4.340000	28.547823
4.350000	28.547823
4.360000	28.547823
4.370000	28.547823
4.380000	28.547823
4.390000	28.547823
4.400000	28.547823
4.410000	28.547823
4.420000	28.547823
4.430000	28.547823
4.440000	28.547823
4.450000	28.547823
4.460000	28.547823
4.470000	28.547823
4.480000	28.547823
4.490000	28.547823
4.500000	28.881359
4.510000	28.881359
4.520000	28.881359
4.530000	28.881359
4.540000	28.881359
4.550000	28.881359
4.560000	28.881359
4.570000	28.881359
4.580000	28.881359
4.590000	28.881359
4.600000	28.881359
4.610000	28.881359
4.620000	28.881359
4.630000	28.881359
4.640000	28.881359
4.650000	28.881359
4.660000	28.881359
4.670000	28.881359
4.680000	28.881359
4.690000	28.881359
4.700000	28.881359
4.710000	28.881359
4.720000	28.881359
4.730000	28.881359
4.740000	28.881359
4.750000	28.881359
4.760000	28.881359
4.770000	28.881359
4.780000	28.881359
4.790000	28.881359
4.800000	28.881359
4.810000	28.881359
4.820000	28.881359
4.830000	28.881359
4.840000	28.881359
4.850000	28.881359
4.860000	28.881359
4.870000	28.881359
4.880000	28.881359
4.890000	28.881359
4.900000	28.881359
4.910000	28.881359
4.920000	28.881359
4.930000	28.881359
4.940000	28.881359
4.950000	28.881359
4.960000	28.881359
4.970000	28.881359
4.980000	28.881359
4.990000	28.881359
5.000000	29.108886
5.010000	29.108886
5.020000	29.108886
5.030000	29.108886
5.040000	29.108886
5.050000	29.108886
5.060000	29.108886
5.070000	29.108886
5.080000	29.108886
5.090000	29.108886
5.100000	29.108886
5.110000	29.108886
5.120000	29.108886
5.130000	29.108886
5.140000	29.108886
5.150000	29.108886
5.160000	29.108886
5.170000	29.108886
5.180000	29.108886
5.190000	29.108886
5.200000	29.108886
5.210000	29.108886
5.220000	29.108886
5.230000	29.108886
5.240000	29.108886
5.250000	29.108886
5.260000	29.108886
5.270000	29.108886
5.280000	29.108886
5.290000	29.108886
5.300000	29.108886
5.310000	29.108886
5.320000	29.108886
5.330000	29.108886
5.340000	29.108886
5.350000	29.108886
5.360000	29.108886
5.370000	29.108886
5.380000	29.108886
5.390000	29.108886
5.400000	29.108886
5.410000	29.108886
5.420000	29.108886
5.430000	29.108886
5.440000	29.108886
5.450000	29.108886
5.460000	29.108886
5.470000	29.108886
5.480000	29.108886
5.490000	29.108886
5.500000	29.256573
5.510000	29.256573
5.520000	29.256573
5.530000	29.256573
5.540000	29.256573
5.550000	29.256573
5.560000	29.256573
5.570000	29.256573
5.580000	29.256573
5.590000	29.256573
5.600000	29.256573
5.610000	29.256573
5.620000	29.256573
5.630000	29.256573
5.640000	29.256573
5.650000	29.256573
5.660000	29.256573
5.670000	29.256573
5.680000	29.256573
5.690000	29.256573
5.700000	29.256573
5.710000	29.256573
5.720000	29.256573
5.730000	29.256573
5.740000	29.256573
5.750000	29.256573
5.760000	29.256573
5.770000	29.256573
5.780000	29.256573
5.790000	29.256573
5.800000	29.256573
5.810000	29.256573
5.820000	29.256573
5.830000	29.256573
5.840000	29.256573
5.850000	29.256573
5.860000	29.256573
5.870000	29.256573
5.880000	29.256573
5.890000	29.256573
5.900000	29.256573
5.910000	29.256573
5.920000	29.256573
5.930000	29.256573
5.940000	29.256573
5.950000	29.256573
5.960000	29.256573
5.970000	29.256573
5.980000	29.256573
5.990000	29.256573
6.000000	29.342489
6.010000	29.342489
6.020000	29.342489
6.030000	29.342489
6.040000	29.342489
6.050000	29.342489
6.060000	29.342489
6.070000	29.342489
6.080000	29.342489
6.090000	29.342489
6.100000	29.342489
6.110000	29.342489
6.120000	29.342489
6.130000	29.342489
6.140000	29.342489
6.150000	29.342489
6.160000	29.342489
6.170000	29.342489
6.180000	29.342489
6.190000	29.342489
6.200000	29.342489
6.210000	29.342489
6.220000	29.342489
6.230000	29.342489
6.240000	29.342489
6.250000	29.342489
6.260000	29.342489
6.270000	29.342489
6.280000	29.342489
6.290000	29.342489
6.300000	29.342489
6.310000	29.342489
6.320000	29.342489
6.330000	29.342489
6.340000	29.342489
6.350000	29.342489
6.360000	29.342489
6.370000	29.342489
6.380000	29.342489
6.390000	29.342489
6.400000	29.342489
6.410000	29.342489
6.420000	29.342489
6.430000	29.342489
6.440000	29.342489
6.450000	29.342489
6.460000	29.342489
6.470000	29.342489
6.480000	29.342489
6.490000	29.342489
6.500000	29.384089
6.510000	29.384089
6.520000	29.384089
6.530000	29.384089
6.540000	29.384089
6.550000	29.384089
6.560000	29.384089
6.570000	29.384089
6.580000	29.384089
6.590000	29.384089
6.600000	29.384089
6.610000	29.384089
6.620000	29.384089
6.630000	29.384089
6.640000	29.384089
6.650000	29.384089
6.660000	29.384089
6.670000	29.384089
6.680000	29.384089
6.690000	29.384089
6.700000	29.384089
6.710000	29.384089
6.720000	29.384089
6.730000	29.384089
6.740000	29.384089
6.750000	29.384089
6.760000	29.384089
6.770000	29.384089
6.780000	29.384089
6.790000	29.384089
6.800000	29.384089
6.810000	29.384089
6.820000	29.384089
6.830000	29.384089
6.840000	29.384089
6.850000	29.384089
6.860000	29.384089
6.870000	29.384089
6.880000	29.384089
6.890000	29.384089
6.900000	29.384089
6.910000	29.384089
6.920000	29.384089
6.930000	29.384089
6.940000	29.384089
6.950000	29.384089
6.960000	29.384089
6.970000	29.384089
6.980000	29.384089
6.990000	29.384089
7.000000	29.386279
7.010000	29.386279
7.020000	29.386279
7.030000	29.386279
7.040000	29.386279
7.050000	29.386279
7.060000	29.386279
7.070000	29.386279
7.080000	29.386279
7.090000	29.386279
7.100000	29.386279
7.110000	29.386279
7.120000	29.386279
7.130000	29.386279
7.140000	29.386279
7.150000	29.386279
7.160000	29.386279
7.170000	29.386279
7.180000	29.386279
7.190000	29.386279
7.200000	29.386279
7.210000	29.386279
7.220000	29.386279
7.230000	29.386279
7.240000	29.386279
7.250000	29.386279
7.260000	29.386279
7.270000	29.386279
7.280000	29.386279
7.290000	29.386279
7.300000	29.386279
7.310000	29.386279
7.320000	29.386279
7.330000	29.386279
7.340000	29.386279
7.350000	29.386279
7.360000	29.386279
7.370000	29.386279
7.380000	29.386279
7.390000	29.386279
7.400000	29.386279
7.410000	29.386279
7.420000	29.386279
7.430000	29.386279
7.440000	29.386279
7.450000	29.386279
7.460000	29.386279
7.470000	29.386279
7.480000	29.386279
7.490000	29.386279
7.500000	29.361967
7.510000	29.361967
7.520000	29.361967
7.530000	29.361967
7.540000	29.361967
7.550000	29.361967
7.560000	29.361967
7.570000	29.361967
7.580000	29.361967
7.590000	29.361967
7.600000	29.361967
7.610000	29.361967
7.620000	29.361967
7.630000	29.361967
7.640000	29.361967
7.650000	29.361967
7.660000	29.361967
7.670000	29.361967
7.680000	29.361967
7.690000	29.361967
7.700000	29.361967
7.710000	29.361967
7.720000	29.361967
7.730000	29.361967
7.740000	29.361967
7.750000	29.361967
7.760000	29.361967
7.770000	29.361967
7.780000	29.361967
7.790000	29.361967
7.800000	29.361967
7.810000	29.361967
7.820000	29.361967
7.830000	29.361967
7.840000	29.361967
7.850000	29.361967
7.860000	29.361967
7.870000	29.361967
7.880000	29.361967
7.890000	29.361967
7.900000	29.361967
7.910000	29.361967
7.920000	29.361967
7.930000	29.361967
7.940000	29.361967
7.950000	29.361967
7.960000	29.361967
7.970000	29.361967
7.980000	29.361967
7.990000	29.361967
8.000000	29.321137
8.010000	29.321137
8.020000	29.321137
8.030000	29.321137
8.040000	29.321137
8.050000	29.321137
8.060000	29.321137
8.070000	29.321137
8.080000	29.321137
8.090000	29.321137
8.100000	29.321137
8.110000	29.321137
8.120000	29.321137
8.130000	29.321137
8.140000	29.321137
8.150000	29.321137
8.160000	29.321137
8.170000	29.321137
8.180000	29.321137
8.190000	29.321137
8.200000	29.321137
8.210000	29.321137
8.220000	29.321137
8.230000	29.321137
8.240000	29.321137
8.250000	29.321137
8.260000	29.321137
8.270000	29.321137
8.280000	29.321137
8.290000	29.321137
8.300000	29.321137
8.310000	29.321137
8.320000	29.321137
8.330000	29.321137
8.340000	29.321137
8.350000	29.321137
8.360000	29.321137
8.370000	29.321137
8.380000	29.321137
8.390000	29.321137
8.400000	29.321137
8.410000	29.321137
8.420000	29.321137
8.430000	29.321137
8.440000	29.321137
8.450000	29.321137
8.460000	29.321137
8.470000	29.321137
8.480000	29.321137
8.490000	29.321137
8.500000	29.265255
8.510000	29.265255
8.520000	29.265255
8.530000	29.265255
8.540000	29.265255
8.550000	29.265255
8.560000	29.265255
8.570000	29.265255
8.580000	29.265255
8.590000	29.265255
8.600000	29.265255
8.610000	29.265255
8.620000	29.265255
8.630000	29.265255
8.640000	29.265255
8.650000	29.265255
8.660000	29.265255
8.670000	29.265255
8.680000	29.265255
8.690000	29.265255
8.700000	29.265255
8.710000	29.265255
8.720000	29.265255
8.730000	29.265255
8.740000	29.265255
8.750000	29.265255
8.760000	29.265255
8.770000	29.265255
8.780000	29.265255
8.790000	29.265255
8.800000	29.265255
8.810000	29.265255
8.820000	29.265255
8.830000	29.265255
8.840000	29.265255
8.850000	29.265255
8.860000	29.265255
8.870000	29.265255
8.880000	29.265255
8.890000	29.265255
8.900000	29.265255
8.910000	29.265255
8.920000	29.265255
8.930000	29.265255
8.940000	29.265255
8.950000	29.265255
8.960000	29.265255
8.970000	29.265255
8.980000	29.265255
8.990000	29.265255
9.000000	29.201535
9.010000	29.201535
9.020000	29.201535
9.030000	29.201535
9.040000	29.201535
9.050000	29.201535
9.060000	29.201535
9.070000	29.201535
9.080000	29.201535
9.090000	29.201535
9.100000	29.201535
9.110000	29.201535
9.120000	29.201535
9.130000	29.201535
9.140000	29.201535
9.150000	29.201535
9.160000	29.201535
9.170000	29.201535
9.180000	29.201535
9.190000	29.201535
9.200000	29.201535
9.210000	29.201535
9.220000	29.201535
9.230000	29.201535
9.240000	29.201535
9.250000	29.201535
9.260000	29.201535
9.270000	29.201535
9.280000	29.201535
9.290000	29.201535
9.300000	29.201535
9.310000	29.201535
9.320000	29.201535
9.330000	29.201535
9.340000	29.201535
9.350000	29.201535
9.360000	29.201535
9.370000	29.201535
9.380000	29.201535
9.390000	29.201535
9.400000	29.201535
9.410000	29.201535
9.420000	29.201535
9.430000	29.201535
9.440000	29.201535
9.450000	29.201535
9.460000	29.201535
9.470000	29.201535
9.480000	29.201535
9.490000	29.201535
9.500000	29.129751
9.510000	29.129751
9.520000	29.129751
9.530000	29.129751
9.540000	29.129751
9.550000	29.129751
9.560000	29.129751
9.570000	29.129751
9.580000	29.129751
9.590000	29.129751
9.600000	29.129751
9.610000	29.129751
9.620000	29.129751
9.630000	29.129751
9.640000	29.129751
9.650000	29.129751
9.660000	29.129751
9.670000	29.129751
9.680000	29.129751
9.690000	29.129751
9.700000	29.129751
9.710000	29.129751
9.720000	29.129751
9.730000	29.129751
9.740000	29.129751
9.750000	29.129751
9.760000	29.129751
9.770000	29.129751
9.780000	29.129751
9.790000	29.129751
9.800000	29.129751
9.810000	29.129751
9.820000	29.129751
9.830000	29.129751
9.840000	29.129751
9.850000	29.129751
9.860000	29.129751
9.870000	29.129751
9.880000	29.129751
9.890000	29.129751
9.900000	29.129751
9.910000	29.129751
9.920000	29.129751
9.930000	29.129751
9.940000	29.129751
9.950000	29.129751
9.960000	29.129751
9.970000	29.129751
9.980000	29.129751
9.990000	29.129751
10.000000	29.052595
10.010000	29.052595
10.020000	29.052595
10.030000	29.052595
10.040000	29.052595
10.050000	29.052595
10.060000	29.052595
10.070000	29.052595
10.080000	29.052595
10.090000	29.052595
10.100000	29.052595
10.110000	29.052595
10.120000	29.052595
10.130000	29.052595
10.140000	29.052595
10.150000	29.052595
10.160000	29.052595
10.170000	29.052595
10.180000	29.052595
10.190000	29.052595
10.200000	29.052595
10.210000	29.052595
10.220000	29.052595
10.230000	29.052595
10.240000	29.052595
10.250000	29.052595
10.260000	29.052595
10.270000	29.052595
10.280000	29.052595
10.290000	29.052595
10.300000	29.052595
10.310000	29.052595
10.320000	29.052595
10.330000	29.052595
10.340000	29.052595
10.350000	29.052595
10.360000	29.052595
10.370000	29.052595
10.380000	29.052595
10.390000	29.052595
10.400000	29.052595
10.410000	29.052595
10.420000	29.052595
10.430000	29.052595
10.440000	29.052595
10.450000	29.052595
10.460000	29.052595
10.470000	29.052595
10.480000	29.052595
10.490000	29.052595
10.500000	28.971505
10.510000	28.971505
10.520000	28.971505
10.530000	28.971505
10.540000	28.971505
10.550000	28.971505
10.560000	28.971505
10.570000	28.971505
10.580000	28.971505
10.590000	28.971505
10.600000	28.971505
10.610000	28.971505
10.620000	28.971505
10.630000	28.971505
10.640000	28.971505
10.650000	28.971505
10.660000	28.971505
10.670000	28.971505
10.680000	28.971505
10.690000	28.971505
10.700000	28.971505
10.710000	28.971505
10.720000	28.971505
10.730000	28.971505
10.740000	28.971505
10.750000	28.971505
10.760000	28.971505
10.770000	28.971505
10.780000	28.971505
10.790000	28.971505
10.800000	28.971505
10.810000	28.971505
10.820000	28.971505
10.830000	28.971505
10.840000	28.971505
10.850000	28.971505
10.860000	28.971505
10.870000	28.971505
10.880000	28.971505
10.890000	28.971505
10.900000	28.971505
10.910000	28.971505
10.920000	28.971505
10.930000	28.971505
10.940000	28.971505
10.950000	28.971505
10.960000	28.971505
10.970000	28.971505
10.980000	28.971505
10.990000	28.971505
11.000000	28.888242
11.010000	28.888242
11.020000	28.888242
11.030000	28.888242
11.040000	28.888242
11.050000	28.888242
11.060000	28.888242
11.070000	28.888242
11.080000	28.888242
11.090000	28.888242
11.100000	28.888242
11.110000	28.888242
11.120000	28.888242
11.130000	28.888242
11.140000	28.888242
11.150000	28.888242
11.160000	28.888242
11.170000	28.888242
11.180000	28.888242
11.190000	28.888242
11.200000	28.888242
11.210000	28.888242
11.220000	28.888242
11.230000	28.888242
11.240000	28.888242
11.250000	28.888242
11.260000	28.888242
11.270000	28.888242
11.280000	28.888242
11.290000	28.888242
11.300000	28.888242
11.310000	28.888242
11.320000	28.888242
11.330000	28.888242
11.340000	28.888242
11.350000	28.888242
11.360000	28.888242
11.370000	28.888242
11.380000	28.888242
11.390000	28.888242
11.400000	28.888242
11.410000	28.888242
11.420000	28.888242
11.430000	28.888242
11.440000	28.888242
11.450000	28.888242
11.460000	28.888242
11.470000	28.888242
11.480000	28.888242
11.490000	28.888242
11.500000	28.804470
11.510000	28.804470
11.520000	28.804470
11.530000	28.804470
11.540000	28.804470
11.550000	28.804470
11.560000	28.804470
11.570000	28.804470
11.580000	28.804470
11.590000	28.804470
11.600000	28.804470
11.610000	28.804470
11.620000	28.804470
11.630000	28.804470
11.640000	28.804470
11.650000	28.804470
11.660000	28.804470
11.670000	28.804470
11.680000	28.804470
11.690000	28.804470
11.700000	28.804470
11.710000	28.804470
11.720000	28.804470
11.730000	28.804470
11.740000	28.804470
11.750000	28.804470
11.760000	28.804470
11.770000	28.804470
11.780000	28.804470
11.790000	28.804470
11.800000	28.804470
11.810000	28.804470
11.820000	28.804470
11.830000	28.804470
11.840000	28.804470
11.850000	28.804470
11.860000	28.804470
11.870000	28.804470
11.880000	28.804470
11.890000	28.804470
11.900000	28.804470
11.910000	28.804470
11.920000	28.804470
11.930000	28.804470
11.940000	28.804470
11.950000	28.804470
11.960000	28.804470
11.970000	28.804470
11.980000	28.804470
11.990000	28.804470
12.000000	28.720548
12.010000	28.720548
12.020000	28.720548
12.030000	28.720548
12.040000	28.720548
12.050000	28.720548
12.060000	28.720548
12.070000	28.720548
12.080000	28.720548
12.090000	28.720548
12.100000	28.720548
12.110000	28.720548
12.120000	28.720548
12.130000	28.720548
12.140000	28.720548
12.150000	28.720548
12.160000	28.720548
12.170000	28.720548
12.180000	28.720548
12.190000	28.720548
12.200000	28.720548
12.210000	28.720548
12.220000	28.720548
12.230000	28.720548
12.240000	28.720548
12.250000	28.720548
12.260000	28.720548
12.270000	28.720548
12.280000	28.720548
12.290000	28.720548
12.300000	28.720548
12.310000	28.720548
12.320000	28.720548
12.330000	28.720548
12.340000	28.720548
12.350000	28.720548
12.360000	28.720548
12.370000	28.720548
12.380000	28.720548
12.390000	28.720548
12.400000	28.720548
12.410000	28.720548
12.420000	28.720548
12.430000	28.720548
12.440000	28.720548
12.450000	28.720548
12.460000	28.720548
12.470000	28.720548
12.480000	28.720548
12.490000	28.720548
12.500000	28.636588
12.510000	28.636588
12.520000	28.636588
12.530000	28.636588
12.540000	28.636588
12.550000	28.636588
12.560000	28.636588
12.570000	28.636588
12.580000	28.636588
12.590000	28.636588
12.600000	28.636588
12.610000	28.636588
12.620000	28.636588
12.630000	28.636588
12.640000	28.636588
12.650000	28.636588
12.660000	28.636588
12.670000	28.636588
12.680000	28.636588
12.690000	28.636588
12.700000	28.636588
12.710000	28.636588
12.720000	28.636588
12.730000	28.636588
12.740000	28.636588
12.750000	28.636588
12.760000	28.636588
12.770000	28.636588
12.780000	28.636588
12.790000	28.636588
12.800000	28.636588
12.810000	28.636588
12.820000	28.636588
12.830000	28.636588
12.840000	28.636588
12.850000	28.636588
12.860000	28.636588
12.870000	28.636588
12.880000	28.636588
12.890000	28.636588
12.900000	28.636588
12.910000	28.636588
12.920000	28.636588
12.930000	28.636588
12.940000	28.636588
12.950000	28.636588
12.960000	28.636588
12.970000	28.636588
12.980000	28.636588
12.990000	28.636588
13.000000	28.553129
13.010000	28.553129
13.020000	28.553129
13.030000	28.553129
13.040000	28.553129
13.050000	28.553129
13.060000	28.553129
13.070000	28.553129
13.080000	28.553129
13.090000	28.553129
13.100000	28.553129
13.110000	28.553129
13.120000	28.553129
13.130000	28.553129
13.140000	28.553129
13.150000	28.553129
13.160000	28.553129
13.170000	28.553129
13.180000	28.553129
13.190000	28.553129
13.200000	28.553129
13.210000	28.553129
13.220000	28.553129
13.230000	28.553129
13.240000	28.553129
13.250000	28.553129
13.260000	28.553129
13.270000	28.553129
13.280000	28.553129
13.290000	28.553129
13.300000	28.553129
13.310000	28.553129
13.320000	28.553129
13.330000	28.553129
13.340000	28.553129
13.350000	28.553129
13.360000	28.553129
13.370000	28.553129
13.380000	28.553129
13.390000	28.553129
13.400000	28.553129
13.410000	28.553129
13.420000	28.553129
13.430000	28.553129
13.440000	28.553129
13.450000	28.553129
13.460000	28.553129
13.470000	28.553129
13.480000	28.553129
13.490000	28.553129
13.500000	28.470882
13.510000	28.470882
13.520000	28.470882
13.530000	28.470882
13.540000	28.470882
13.550000	28.470882
13.560000	28.470882
13.570000	28.470882
13.580000	28.470882
13.590000	28.470882
13.600000	28.470882
13.610000	28.470882
13.620000	28.470882
13.630000	28.470882
13.640000	28.470882
13.650000	28.470882
13.660000	28.470882
13.670000	28.470882
13.680000	28.470882
13.690000	28.470882
13.700000	28.470882
13.710000	28.470882
13.720000	28.470882
13.730000	28.470882
13.740000	28.470882
13.750000	28.470882
13.760000	28.470882
13.770000	28.470882
13.780000	28.470882
13.790000	28.470882
13.800000	28.470882
13.810000	28.470882
13.820000	28.470882
13.830000	28.470882
13.840000	28.470882
13.850000	28.470882
13.860000	28.470882
13.870000	28.470882
13.880000	28.470882
13.890000	28.470882
13.900000	28.470882
13.910000	28.470882
13.920000	28.470882
13.930000	28.470882
13.940000	28.470882
13.950000	28.470882
13.960000	28.470882
13.970000	28.470882
13.980000	28.470882
13.990000	28.470882
14.000000	28.389910
14.010000	28.389910
14.020000	28.389910
14.030000	28.389910
14.040000	28.389910
14.050000	28.389910
14.060000	28.389910
14.070000	28.389910
14.080000	28.389910
14.090000	28.389910
14.100000	28.389910
14.110000	28.389910
14.120000	28.389910
14.130000	28.389910
14.140000	28.389910
14.150000	28.389910
14.160000	28.389910
14.170000	28.389910
14.180000	28.389910
14.190000	28.389910
14.200000	28.389910
14.210000	28.389910
14.220000	28.389910
14.230000	28.389910
14.240000	28.389910
14.250000	28.389910
14.260000	28.389910
14.270000	28.389910
14.280000	28.389910
14.290000	28.389910
14.300000	28.389910
14.310000	28.389910
14.320000	28.389910
14.330000	28.389910
14.340000	28.389910
14.350000	28.389910
14.360000	28.389910
14.370000	28.389910
14.380000	28.389910
14.390000	28.389910
14.400000	28.389910
14.410000	28.389910
14.420000	28.389910
14.430000	28.389910
14.440000	28.389910
14.450000	28.389910
14.460000	28.389910
14.470000	28.389910
14.480000	28.389910
14.490000	28.389910
14.500000	28.309044
14.510000	28.309044
14.520000	28.309044
14.530000	28.309044
14.540000	28.309044
14.550000	28.309044
14.560000	28.309044
14.570000	28.309044
14.580000	28.309044
14.590000	28.309044
14.600000	28.309044
14.610000	28.309044
14.620000	28.309044
14.630000	28.309044
14.640000	28.309044
14.650000	28.309044
14.660000	28.309044
14.670000	28.309044
14.680000	28.309044
14.690000	28.309044
14.700000	28.309044
14.710000	28.309044
14.720000	28.309044
14.730000	28.309044
14.740000	28.309044
14.750000	28.309044
14.760000	28.309044
14.770000	28.309044
14.780000	28.309044
14.790000	28.309044
14.800000	28.309044
14.810000	28.309044
14.820000	28.309044
14.830000	28.309044
14.840000	28.309044
14.850000	28.309044
14.860000	28.309044
14.870000	28.309044
14.880000	28.309044
14.890000	28.309044
14.900000	28.309044
14.910000	28.309044
14.920000	28.309044
14.930000	28.309044
14.940000	28.309044
14.950000	28.309044
14.960000	28.309044
14.970000	28.309044
14.980000	28.309044
14.990000	28.309044
15.000000	28.229832
15.010000	28.229832
15.020000	28.229832
15.030000	28.229832
15.040000	28.229832
15.050000	28.229832
15.060000	28.229832
15.070000	28.229832
15.080000	28.229832
15.090000	28.229832
15.100000	28.229832
15.110000	28.229832
15.120000	28.229832
15.130000	28.229832
15.140000	28.229832
15.150000	28.229832
15.160000	28.229832
15.170000	28.229832
15.180000	28.229832
15.190000	28.229832
15.200000	28.229832
15.210000	28.229832
15.220000	28.229832
15.230000	28.229832
15.240000	28.229832
15.250000	28.229832
15.260000	28.229832
15.270000	28.229832
15.280000	28.229832
15.290000	28.229832
15.300000	28.229832
15.310000	28.229832
15.320000	28.229832
15.330000	28.229832
15.340000	28.229832
15.350000	28.229832
15.360000	28.229832
15.370000	28.229832
15.380000	28.229832
15.390000	28.229832
15.400000	28.229832
15.410000	28.229832
15.420000	28.229832
15.430000	28.229832
15.440000	28.229832
15.450000	28.229832
15.460000	28.229832
15.470000	28.229832
15.480000	28.229832
15.490000	28.229832
15.500000	28.152338
15.510000	28.152338
15.520000	28.152338
15.530000	28.152338
15.540000	28.152338
15.550000	28.152338
15.560000	28.152338
15.570000	28.152338
15.580000	28.152338
15.590000	28.152338
15.600000	28.152338
15.610000	28.152338
15.620000	28.152338
15.630000	28.152338
15.640000	28.152338
15.650000	28.152338
15.660000	28.152338
15.670000	28.152338
15.680000	28.152338
15.690000	28.152338
15.700000	28.152338
15.710000	28.152338
15.720000	28.152338
15.730000	28.152338
15.740000	28.152338
15.750000	28.152338
15.760000	28.152338
15.770000	28.152338
15.780000	28.152338
15.790000	28.152338
15.800000	28.152338
15.810000	28.152338
15.820000	28.152338
15.830000	28.152338
15.840000	28.152338
15.850000	28.152338
15.860000	28.152338
15.870000	28.152338
15.880000	28.152338
15.890000	28.152338
15.900000	28.152338
15.910000	28.152338
15.920000	28.152338
15.930000	28.152338
15.940000	28.152338
15.950000	28.152338
15.960000	28.152338
15.970000	28.152338
15.980000	28.152338
15.990000	28.152338
16.000000	28.074790
16.010000	28.074790
16.020000	28.074790
16.030000	28.074790
16.040000	28.074790
16.050000	28.074790
16.060000	28.074790
16.070000	28.074790
16.080000	28.074790
16.090000	28.074790
16.100000	28.074790
16.110000	28.074790
16.120000	28.074790
16.130000	28.074790
16.140000	28.074790
16.150000	28.074790
16.160000	28.074790
16.170000	28.074790
16.180000	28.074790
16.190000	28.074790
16.200000	28.074790
16.210000	28.074790
16.220000	28.074790
16.230000	28.074790
16.240000	28.074790
16.250000	28.074790
16.260000	28.074790
16.270000	28.074790
16.280000	28.074790
16.290000	28.074790
16.300000	28.074790
16.310000	28.074790
16.320000	28.074790
16.330000	28.074790
16.340000	28.074790
16.350000	28.074790
16.360000	28.074790
16.370000	28.074790
16.380000	28.074790
16.390000	28.074790
16.400000	28.074790
16.410000	28.074790
16.420000	28.074790
16.430000	28.074790
16.440000	28.074790
16.450000	28.074790
16.460000	28.074790
16.470000	28.074790
16.480000	28.074790
16.490000	28.074790
16.500000	27.997814
16.510000	27.997814
16.520000	27.997814
16.530000	27.997814
16.540000	27.997814
16.550000	27.997814
16.560000	27.997814
16.570000	27.997814
16.580000	27.997814
16.590000	27.997814
16.600000	27.997814
16.610000	27.997814
16.620000	27.997814
16.630000	27.997814
16.640000	27.997814
16.650000	27.997814
16.660000	27.997814
16.670000	27.997814
16.680000	27.997814
16.690000	27.997814
16.700000	27.997814
16.710000	27.997814
16.720000	27.997814
16.730000	27.997814
16.740000	27.997814
16.750000	27.997814
16.760000	27.997814
16.770000	27.997814
16.780000	27.997814
16.790000	27.997814
16.800000	27.997814
16.810000	27.997814
16.820000	27.997814
16.830000	27.997814
16.840000	27.997814
16.850000	27.997814
16.860000	27.997814
16.870000	27.997814
16.880000	27.997814
16.890000	27.997814
16.900000	27.997814
16.910000	27.997814
16.920000	27.997814
16.930000	27.997814
16.940000	27.997814
16.950000	27.997814
16.960000	27.997814
16.970000	27.997814
16.980000	27.997814
16.990000	27.997814
17.000000	27.924011
17.010000	27.924011
17.020000	27.924011
17.030000	27.924011
17.040000	27.924011
17.050000	27.924011
17.060000	27.924011
17.070000	27.924011
17.080000	27.924011
17.090000	27.924011
17.100000	27.924011
17.110000	27.924011
17.120000	27.924011
17.130000	27.924011
17.140000	27.924011
17.150000	27.924011
17.160000	27.924011
17.170000	27.924011
17.180000	27.924011
17.190000	27.924011
17.200000	27.924011
17.210000	27.924011
17.220000	27.924011
17.230000	27.924011
17.240000	27.924011
17.250000	27.924011
17.260000	27.924011
17.270000	27.924011
17.280000	27.924011
17.290000	27.924011
17.300000	27.924011
17.310000	27.924011
17.320000	27.924011
17.330000	27.924011
17.340000	27.924011
17.350000	27.924011
17.360000	27.924011
17.370000	27.924011
17.380000	27.924011
17.390000	27.924011
17.400000	27.924011
17.410000	27.924011
17.420000	27.924011
17.430000	27.924011
17.440000	27.924011
17.450000	27.924011
17.460000	27.924011
17.470000	27.924011
17.480000	27.924011
17.490000	27.924011
