LabVIEW Measurement	
Writer_Version	2
Reader_Version	2
Separator	Tab
Decimal_Separator	.
Multi_Headings	No
X_Columns	One
Time_Pref	Absolute
Operator	biomech-dyno
Date	2023/04/27
Time	17:41:55.9338632999999876419
***End_of_Header***	
	
Channels	1	
Samples	10	
Date	2023/04/27	
Time	17:52:57.2083377999998455206	
X_Dimension	Time	
X0	0.0000000000000000E+0	
Delta_X	0.010000	
***End_of_Header***		
X_Value	Untitled	Comment
0.000000	24.447222
0.010000	24.447222
0.020000	24.447222
0.030000	24.447222
0.040000	24.447222
0.050000	24.447222
0.060000	24.447222
0.070000	24.447222
0.080000	24.447222
0.090000	24.447222
0.100000	24.447222
0.110000	24.447222
0.120000	24.447222
0.130000	24.447222
0.140000	24.447222
0.150000	24.447222
0.160000	24.447222
0.170000	24.447222
0.180000	24.447222
0.190000	24.447222
0.200000	24.447222
0.210000	24.447222
0.220000	24.447222
0.230000	24.447222
0.240000	24.447222
0.250000	24.447222
0.260000	24.447222
0.270000	24.447222
0.280000	24.447222
0.290000	24.447222
0.300000	24.447222
0.310000	24.447222
0.320000	24.447222
0.330000	24.447222
0.340000	24.447222
0.350000	24.447222
0.360000	24.447222
0.370000	24.447222
0.380000	24.447222
0.390000	24.447222
0.400000	24.447222
0.410000	24.447222
0.420000	24.447222
0.430000	24.447222
0.440000	24.447222
0.450000	24.447222
0.460000	24.447222
0.470000	24.447222
0.480000	24.447222
0.490000	24.447222
0.500000	24.442727
0.510000	24.442727
0.520000	24.442727
0.530000	24.442727
0.540000	24.442727
0.550000	24.442727
0.560000	24.442727
0.570000	24.442727
0.580000	24.442727
0.590000	24.442727
0.600000	24.442727
0.610000	24.442727
0.620000	24.442727
0.630000	24.442727
0.640000	24.442727
0.650000	24.442727
0.660000	24.442727
0.670000	24.442727
0.680000	24.442727
0.690000	24.442727
0.700000	24.442727
0.710000	24.442727
0.720000	24.442727
0.730000	24.442727
0.740000	24.442727
0.750000	24.442727
0.760000	24.442727
0.770000	24.442727
0.780000	24.442727
0.790000	24.442727
0.800000	24.442727
0.810000	24.442727
0.820000	24.442727
0.830000	24.442727
0.840000	24.442727
0.850000	24.442727
0.860000	24.442727
0.870000	24.442727
0.880000	24.442727
0.890000	24.442727
0.900000	24.442727
0.910000	24.442727
0.920000	24.442727
0.930000	24.442727
0.940000	24.442727
0.950000	24.442727
0.960000	24.442727
0.970000	24.442727
0.980000	24.442727
0.990000	24.442727
1.000000	24.463155
1.010000	24.463155
1.020000	24.463155
1.030000	24.463155
1.040000	24.463155
1.050000	24.463155
1.060000	24.463155
1.070000	24.463155
1.080000	24.463155
1.090000	24.463155
1.100000	24.463155
1.110000	24.463155
1.120000	24.463155
1.130000	24.463155
1.140000	24.463155
1.150000	24.463155
1.160000	24.463155
1.170000	24.463155
1.180000	24.463155
1.190000	24.463155
1.200000	24.463155
1.210000	24.463155
1.220000	24.463155
1.230000	24.463155
1.240000	24.463155
1.250000	24.463155
1.260000	24.463155
1.270000	24.463155
1.280000	24.463155
1.290000	24.463155
1.300000	24.463155
1.310000	24.463155
1.320000	24.463155
1.330000	24.463155
1.340000	24.463155
1.350000	24.463155
1.360000	24.463155
1.370000	24.463155
1.380000	24.463155
1.390000	24.463155
1.400000	24.463155
1.410000	24.463155
1.420000	24.463155
1.430000	24.463155
1.440000	24.463155
1.450000	24.463155
1.460000	24.463155
1.470000	24.463155
1.480000	24.463155
1.490000	24.463155
1.500000	24.519487
1.510000	24.519487
1.520000	24.519487
1.530000	24.519487
1.540000	24.519487
1.550000	24.519487
1.560000	24.519487
1.570000	24.519487
1.580000	24.519487
1.590000	24.519487
1.600000	24.519487
1.610000	24.519487
1.620000	24.519487
1.630000	24.519487
1.640000	24.519487
1.650000	24.519487
1.660000	24.519487
1.670000	24.519487
1.680000	24.519487
1.690000	24.519487
1.700000	24.519487
1.710000	24.519487
1.720000	24.519487
1.730000	24.519487
1.740000	24.519487
1.750000	24.519487
1.760000	24.519487
1.770000	24.519487
1.780000	24.519487
1.790000	24.519487
1.800000	24.519487
1.810000	24.519487
1.820000	24.519487
1.830000	24.519487
1.840000	24.519487
1.850000	24.519487
1.860000	24.519487
1.870000	24.519487
1.880000	24.519487
1.890000	24.519487
1.900000	24.519487
1.910000	24.519487
1.920000	24.519487
1.930000	24.519487
1.940000	24.519487
1.950000	24.519487
1.960000	24.519487
1.970000	24.519487
1.980000	24.519487
1.990000	24.519487
2.000000	24.604830
2.010000	24.604830
2.020000	24.604830
2.030000	24.604830
2.040000	24.604830
2.050000	24.604830
2.060000	24.604830
2.070000	24.604830
2.080000	24.604830
2.090000	24.604830
2.100000	24.604830
2.110000	24.604830
2.120000	24.604830
2.130000	24.604830
2.140000	24.604830
2.150000	24.604830
2.160000	24.604830
2.170000	24.604830
2.180000	24.604830
2.190000	24.604830
2.200000	24.604830
2.210000	24.604830
2.220000	24.604830
2.230000	24.604830
2.240000	24.604830
2.250000	24.604830
2.260000	24.604830
2.270000	24.604830
2.280000	24.604830
2.290000	24.604830
2.300000	24.604830
2.310000	24.604830
2.320000	24.604830
2.330000	24.604830
2.340000	24.604830
2.350000	24.604830
2.360000	24.604830
2.370000	24.604830
2.380000	24.604830
2.390000	24.604830
2.400000	24.604830
2.410000	24.604830
2.420000	24.604830
2.430000	24.604830
2.440000	24.604830
2.450000	24.604830
2.460000	24.604830
2.470000	24.604830
2.480000	24.604830
2.490000	24.604830
2.500000	24.712129
2.510000	24.712129
2.520000	24.712129
2.530000	24.712129
2.540000	24.712129
2.550000	24.712129
2.560000	24.712129
2.570000	24.712129
2.580000	24.712129
2.590000	24.712129
2.600000	24.712129
2.610000	24.712129
2.620000	24.712129
2.630000	24.712129
2.640000	24.712129
2.650000	24.712129
2.660000	24.712129
2.670000	24.712129
2.680000	24.712129
2.690000	24.712129
2.700000	24.712129
2.710000	24.712129
2.720000	24.712129
2.730000	24.712129
2.740000	24.712129
2.750000	24.712129
2.760000	24.712129
2.770000	24.712129
2.780000	24.712129
2.790000	24.712129
2.800000	24.712129
2.810000	24.712129
2.820000	24.712129
2.830000	24.712129
2.840000	24.712129
2.850000	24.712129
2.860000	24.712129
2.870000	24.712129
2.880000	24.712129
2.890000	24.712129
2.900000	24.712129
2.910000	24.712129
2.920000	24.712129
2.930000	24.712129
2.940000	24.712129
2.950000	24.712129
2.960000	24.712129
2.970000	24.712129
2.980000	24.712129
2.990000	24.712129
3.000000	24.829178
3.010000	24.829178
3.020000	24.829178
3.030000	24.829178
3.040000	24.829178
3.050000	24.829178
3.060000	24.829178
3.070000	24.829178
3.080000	24.829178
3.090000	24.829178
3.100000	24.829178
3.110000	24.829178
3.120000	24.829178
3.130000	24.829178
3.140000	24.829178
3.150000	24.829178
3.160000	24.829178
3.170000	24.829178
3.180000	24.829178
3.190000	24.829178
3.200000	24.829178
3.210000	24.829178
3.220000	24.829178
3.230000	24.829178
3.240000	24.829178
3.250000	24.829178
3.260000	24.829178
3.270000	24.829178
3.280000	24.829178
3.290000	24.829178
3.300000	24.829178
3.310000	24.829178
3.320000	24.829178
3.330000	24.829178
3.340000	24.829178
3.350000	24.829178
3.360000	24.829178
3.370000	24.829178
3.380000	24.829178
3.390000	24.829178
3.400000	24.829178
3.410000	24.829178
3.420000	24.829178
3.430000	24.829178
3.440000	24.829178
3.450000	24.829178
3.460000	24.829178
3.470000	24.829178
3.480000	24.829178
3.490000	24.829178
3.500000	24.929185
3.510000	24.929185
3.520000	24.929185
3.530000	24.929185
3.540000	24.929185
3.550000	24.929185
3.560000	24.929185
3.570000	24.929185
3.580000	24.929185
3.590000	24.929185
3.600000	24.929185
3.610000	24.929185
3.620000	24.929185
3.630000	24.929185
3.640000	24.929185
3.650000	24.929185
3.660000	24.929185
3.670000	24.929185
3.680000	24.929185
3.690000	24.929185
3.700000	24.929185
3.710000	24.929185
3.720000	24.929185
3.730000	24.929185
3.740000	24.929185
3.750000	24.929185
3.760000	24.929185
3.770000	24.929185
3.780000	24.929185
3.790000	24.929185
3.800000	24.929185
3.810000	24.929185
3.820000	24.929185
3.830000	24.929185
3.840000	24.929185
3.850000	24.929185
3.860000	24.929185
3.870000	24.929185
3.880000	24.929185
3.890000	24.929185
3.900000	24.929185
3.910000	24.929185
3.920000	24.929185
3.930000	24.929185
3.940000	24.929185
3.950000	24.929185
3.960000	24.929185
3.970000	24.929185
3.980000	24.929185
3.990000	24.929185
4.000000	25.004433
4.010000	25.004433
4.020000	25.004433
4.030000	25.004433
4.040000	25.004433
4.050000	25.004433
4.060000	25.004433
4.070000	25.004433
4.080000	25.004433
4.090000	25.004433
4.100000	25.004433
4.110000	25.004433
4.120000	25.004433
4.130000	25.004433
4.140000	25.004433
4.150000	25.004433
4.160000	25.004433
4.170000	25.004433
4.180000	25.004433
4.190000	25.004433
4.200000	25.004433
4.210000	25.004433
4.220000	25.004433
4.230000	25.004433
4.240000	25.004433
4.250000	25.004433
4.260000	25.004433
4.270000	25.004433
4.280000	25.004433
4.290000	25.004433
4.300000	25.004433
4.310000	25.004433
4.320000	25.004433
4.330000	25.004433
4.340000	25.004433
4.350000	25.004433
4.360000	25.004433
4.370000	25.004433
4.380000	25.004433
4.390000	25.004433
4.400000	25.004433
4.410000	25.004433
4.420000	25.004433
4.430000	25.004433
4.440000	25.004433
4.450000	25.004433
4.460000	25.004433
4.470000	25.004433
4.480000	25.004433
4.490000	25.004433
4.500000	25.057848
4.510000	25.057848
4.520000	25.057848
4.530000	25.057848
4.540000	25.057848
4.550000	25.057848
4.560000	25.057848
4.570000	25.057848
4.580000	25.057848
4.590000	25.057848
4.600000	25.057848
4.610000	25.057848
4.620000	25.057848
4.630000	25.057848
4.640000	25.057848
4.650000	25.057848
4.660000	25.057848
4.670000	25.057848
4.680000	25.057848
4.690000	25.057848
4.700000	25.057848
4.710000	25.057848
4.720000	25.057848
4.730000	25.057848
4.740000	25.057848
4.750000	25.057848
4.760000	25.057848
4.770000	25.057848
4.780000	25.057848
4.790000	25.057848
4.800000	25.057848
4.810000	25.057848
4.820000	25.057848
4.830000	25.057848
4.840000	25.057848
4.850000	25.057848
4.860000	25.057848
4.870000	25.057848
4.880000	25.057848
4.890000	25.057848
4.900000	25.057848
4.910000	25.057848
4.920000	25.057848
4.930000	25.057848
4.940000	25.057848
4.950000	25.057848
4.960000	25.057848
4.970000	25.057848
4.980000	25.057848
4.990000	25.057848
5.000000	25.094461
5.010000	25.094461
5.020000	25.094461
5.030000	25.094461
5.040000	25.094461
5.050000	25.094461
5.060000	25.094461
5.070000	25.094461
5.080000	25.094461
5.090000	25.094461
5.100000	25.094461
5.110000	25.094461
5.120000	25.094461
5.130000	25.094461
5.140000	25.094461
5.150000	25.094461
5.160000	25.094461
5.170000	25.094461
5.180000	25.094461
5.190000	25.094461
5.200000	25.094461
5.210000	25.094461
5.220000	25.094461
5.230000	25.094461
5.240000	25.094461
5.250000	25.094461
5.260000	25.094461
5.270000	25.094461
5.280000	25.094461
5.290000	25.094461
5.300000	25.094461
5.310000	25.094461
5.320000	25.094461
5.330000	25.094461
5.340000	25.094461
5.350000	25.094461
5.360000	25.094461
5.370000	25.094461
5.380000	25.094461
5.390000	25.094461
5.400000	25.094461
5.410000	25.094461
5.420000	25.094461
5.430000	25.094461
5.440000	25.094461
5.450000	25.094461
5.460000	25.094461
5.470000	25.094461
5.480000	25.094461
5.490000	25.094461
5.500000	25.118596
5.510000	25.118596
5.520000	25.118596
5.530000	25.118596
5.540000	25.118596
5.550000	25.118596
5.560000	25.118596
5.570000	25.118596
5.580000	25.118596
5.590000	25.118596
5.600000	25.118596
5.610000	25.118596
5.620000	25.118596
5.630000	25.118596
5.640000	25.118596
5.650000	25.118596
5.660000	25.118596
5.670000	25.118596
5.680000	25.118596
5.690000	25.118596
5.700000	25.118596
5.710000	25.118596
5.720000	25.118596
5.730000	25.118596
5.740000	25.118596
5.750000	25.118596
5.760000	25.118596
5.770000	25.118596
5.780000	25.118596
5.790000	25.118596
5.800000	25.118596
5.810000	25.118596
5.820000	25.118596
5.830000	25.118596
5.840000	25.118596
5.850000	25.118596
5.860000	25.118596
5.870000	25.118596
5.880000	25.118596
5.890000	25.118596
5.900000	25.118596
5.910000	25.118596
5.920000	25.118596
5.930000	25.118596
5.940000	25.118596
5.950000	25.118596
5.960000	25.118596
5.970000	25.118596
5.980000	25.118596
5.990000	25.118596
6.000000	25.133300
6.010000	25.133300
6.020000	25.133300
6.030000	25.133300
6.040000	25.133300
6.050000	25.133300
6.060000	25.133300
6.070000	25.133300
6.080000	25.133300
6.090000	25.133300
6.100000	25.133300
6.110000	25.133300
6.120000	25.133300
6.130000	25.133300
6.140000	25.133300
6.150000	25.133300
6.160000	25.133300
6.170000	25.133300
6.180000	25.133300
6.190000	25.133300
6.200000	25.133300
6.210000	25.133300
6.220000	25.133300
6.230000	25.133300
6.240000	25.133300
6.250000	25.133300
6.260000	25.133300
6.270000	25.133300
6.280000	25.133300
6.290000	25.133300
6.300000	25.133300
6.310000	25.133300
6.320000	25.133300
6.330000	25.133300
6.340000	25.133300
6.350000	25.133300
6.360000	25.133300
6.370000	25.133300
6.380000	25.133300
6.390000	25.133300
6.400000	25.133300
6.410000	25.133300
6.420000	25.133300
6.430000	25.133300
6.440000	25.133300
6.450000	25.133300
6.460000	25.133300
6.470000	25.133300
6.480000	25.133300
6.490000	25.133300
6.500000	25.141222
6.510000	25.141222
6.520000	25.141222
6.530000	25.141222
6.540000	25.141222
6.550000	25.141222
6.560000	25.141222
6.570000	25.141222
6.580000	25.141222
6.590000	25.141222
6.600000	25.141222
6.610000	25.141222
6.620000	25.141222
6.630000	25.141222
6.640000	25.141222
6.650000	25.141222
6.660000	25.141222
6.670000	25.141222
6.680000	25.141222
6.690000	25.141222
6.700000	25.141222
6.710000	25.141222
6.720000	25.141222
6.730000	25.141222
6.740000	25.141222
6.750000	25.141222
6.760000	25.141222
6.770000	25.141222
6.780000	25.141222
6.790000	25.141222
6.800000	25.141222
6.810000	25.141222
6.820000	25.141222
6.830000	25.141222
6.840000	25.141222
6.850000	25.141222
6.860000	25.141222
6.870000	25.141222
6.880000	25.141222
6.890000	25.141222
6.900000	25.141222
6.910000	25.141222
6.920000	25.141222
6.930000	25.141222
6.940000	25.141222
6.950000	25.141222
6.960000	25.141222
6.970000	25.141222
6.980000	25.141222
6.990000	25.141222
7.000000	25.143751
7.010000	25.143751
7.020000	25.143751
7.030000	25.143751
7.040000	25.143751
7.050000	25.143751
7.060000	25.143751
7.070000	25.143751
7.080000	25.143751
7.090000	25.143751
7.100000	25.143751
7.110000	25.143751
7.120000	25.143751
7.130000	25.143751
7.140000	25.143751
7.150000	25.143751
7.160000	25.143751
7.170000	25.143751
7.180000	25.143751
7.190000	25.143751
7.200000	25.143751
7.210000	25.143751
7.220000	25.143751
7.230000	25.143751
7.240000	25.143751
7.250000	25.143751
7.260000	25.143751
7.270000	25.143751
7.280000	25.143751
7.290000	25.143751
7.300000	25.143751
7.310000	25.143751
7.320000	25.143751
7.330000	25.143751
7.340000	25.143751
7.350000	25.143751
7.360000	25.143751
7.370000	25.143751
7.380000	25.143751
7.390000	25.143751
7.400000	25.143751
7.410000	25.143751
7.420000	25.143751
7.430000	25.143751
7.440000	25.143751
7.450000	25.143751
7.460000	25.143751
7.470000	25.143751
7.480000	25.143751
7.490000	25.143751
7.500000	25.142254
7.510000	25.142254
7.520000	25.142254
7.530000	25.142254
7.540000	25.142254
7.550000	25.142254
7.560000	25.142254
7.570000	25.142254
7.580000	25.142254
7.590000	25.142254
7.600000	25.142254
7.610000	25.142254
7.620000	25.142254
7.630000	25.142254
7.640000	25.142254
7.650000	25.142254
7.660000	25.142254
7.670000	25.142254
7.680000	25.142254
7.690000	25.142254
7.700000	25.142254
7.710000	25.142254
7.720000	25.142254
7.730000	25.142254
7.740000	25.142254
7.750000	25.142254
7.760000	25.142254
7.770000	25.142254
7.780000	25.142254
7.790000	25.142254
7.800000	25.142254
7.810000	25.142254
7.820000	25.142254
7.830000	25.142254
7.840000	25.142254
7.850000	25.142254
7.860000	25.142254
7.870000	25.142254
7.880000	25.142254
7.890000	25.142254
7.900000	25.142254
7.910000	25.142254
7.920000	25.142254
7.930000	25.142254
7.940000	25.142254
7.950000	25.142254
7.960000	25.142254
7.970000	25.142254
7.980000	25.142254
7.990000	25.142254
8.000000	25.137119
8.010000	25.137119
8.020000	25.137119
8.030000	25.137119
8.040000	25.137119
8.050000	25.137119
8.060000	25.137119
8.070000	25.137119
8.080000	25.137119
8.090000	25.137119
8.100000	25.137119
8.110000	25.137119
8.120000	25.137119
8.130000	25.137119
8.140000	25.137119
8.150000	25.137119
8.160000	25.137119
8.170000	25.137119
8.180000	25.137119
8.190000	25.137119
8.200000	25.137119
8.210000	25.137119
8.220000	25.137119
8.230000	25.137119
8.240000	25.137119
8.250000	25.137119
8.260000	25.137119
8.270000	25.137119
8.280000	25.137119
8.290000	25.137119
8.300000	25.137119
8.310000	25.137119
8.320000	25.137119
8.330000	25.137119
8.340000	25.137119
8.350000	25.137119
8.360000	25.137119
8.370000	25.137119
8.380000	25.137119
8.390000	25.137119
8.400000	25.137119
8.410000	25.137119
8.420000	25.137119
8.430000	25.137119
8.440000	25.137119
8.450000	25.137119
8.460000	25.137119
8.470000	25.137119
8.480000	25.137119
8.490000	25.137119
8.500000	25.129429
8.510000	25.129429
8.520000	25.129429
8.530000	25.129429
8.540000	25.129429
8.550000	25.129429
8.560000	25.129429
8.570000	25.129429
8.580000	25.129429
8.590000	25.129429
8.600000	25.129429
8.610000	25.129429
8.620000	25.129429
8.630000	25.129429
8.640000	25.129429
8.650000	25.129429
8.660000	25.129429
8.670000	25.129429
8.680000	25.129429
8.690000	25.129429
8.700000	25.129429
8.710000	25.129429
8.720000	25.129429
8.730000	25.129429
8.740000	25.129429
8.750000	25.129429
8.760000	25.129429
8.770000	25.129429
8.780000	25.129429
8.790000	25.129429
8.800000	25.129429
8.810000	25.129429
8.820000	25.129429
8.830000	25.129429
8.840000	25.129429
8.850000	25.129429
8.860000	25.129429
8.870000	25.129429
8.880000	25.129429
8.890000	25.129429
8.900000	25.129429
8.910000	25.129429
8.920000	25.129429
8.930000	25.129429
8.940000	25.129429
8.950000	25.129429
8.960000	25.129429
8.970000	25.129429
8.980000	25.129429
8.990000	25.129429
9.000000	25.119697
9.010000	25.119697
9.020000	25.119697
9.030000	25.119697
9.040000	25.119697
9.050000	25.119697
9.060000	25.119697
9.070000	25.119697
9.080000	25.119697
9.090000	25.119697
9.100000	25.119697
9.110000	25.119697
9.120000	25.119697
9.130000	25.119697
9.140000	25.119697
9.150000	25.119697
9.160000	25.119697
9.170000	25.119697
9.180000	25.119697
9.190000	25.119697
9.200000	25.119697
9.210000	25.119697
9.220000	25.119697
9.230000	25.119697
9.240000	25.119697
9.250000	25.119697
9.260000	25.119697
9.270000	25.119697
9.280000	25.119697
9.290000	25.119697
9.300000	25.119697
9.310000	25.119697
9.320000	25.119697
9.330000	25.119697
9.340000	25.119697
9.350000	25.119697
9.360000	25.119697
9.370000	25.119697
9.380000	25.119697
9.390000	25.119697
9.400000	25.119697
9.410000	25.119697
9.420000	25.119697
9.430000	25.119697
9.440000	25.119697
9.450000	25.119697
9.460000	25.119697
9.470000	25.119697
9.480000	25.119697
9.490000	25.119697
9.500000	25.108423
9.510000	25.108423
9.520000	25.108423
9.530000	25.108423
9.540000	25.108423
9.550000	25.108423
9.560000	25.108423
9.570000	25.108423
9.580000	25.108423
9.590000	25.108423
9.600000	25.108423
9.610000	25.108423
9.620000	25.108423
9.630000	25.108423
9.640000	25.108423
9.650000	25.108423
9.660000	25.108423
9.670000	25.108423
9.680000	25.108423
9.690000	25.108423
9.700000	25.108423
9.710000	25.108423
9.720000	25.108423
9.730000	25.108423
9.740000	25.108423
9.750000	25.108423
9.760000	25.108423
9.770000	25.108423
9.780000	25.108423
9.790000	25.108423
9.800000	25.108423
9.810000	25.108423
9.820000	25.108423
9.830000	25.108423
9.840000	25.108423
9.850000	25.108423
9.860000	25.108423
9.870000	25.108423
9.880000	25.108423
9.890000	25.108423
9.900000	25.108423
9.910000	25.108423
9.920000	25.108423
9.930000	25.108423
9.940000	25.108423
9.950000	25.108423
9.960000	25.108423
9.970000	25.108423
9.980000	25.108423
9.990000	25.108423
10.000000	25.096053
10.010000	25.096053
10.020000	25.096053
10.030000	25.096053
10.040000	25.096053
10.050000	25.096053
10.060000	25.096053
10.070000	25.096053
10.080000	25.096053
10.090000	25.096053
10.100000	25.096053
10.110000	25.096053
10.120000	25.096053
10.130000	25.096053
10.140000	25.096053
10.150000	25.096053
10.160000	25.096053
10.170000	25.096053
10.180000	25.096053
10.190000	25.096053
10.200000	25.096053
10.210000	25.096053
10.220000	25.096053
10.230000	25.096053
10.240000	25.096053
10.250000	25.096053
10.260000	25.096053
10.270000	25.096053
10.280000	25.096053
10.290000	25.096053
10.300000	25.096053
10.310000	25.096053
10.320000	25.096053
10.330000	25.096053
10.340000	25.096053
10.350000	25.096053
10.360000	25.096053
10.370000	25.096053
10.380000	25.096053
10.390000	25.096053
10.400000	25.096053
10.410000	25.096053
10.420000	25.096053
10.430000	25.096053
10.440000	25.096053
10.450000	25.096053
10.460000	25.096053
10.470000	25.096053
10.480000	25.096053
10.490000	25.096053
10.500000	25.083224
10.510000	25.083224
10.520000	25.083224
10.530000	25.083224
10.540000	25.083224
10.550000	25.083224
10.560000	25.083224
10.570000	25.083224
10.580000	25.083224
10.590000	25.083224
10.600000	25.083224
10.610000	25.083224
10.620000	25.083224
10.630000	25.083224
10.640000	25.083224
10.650000	25.083224
10.660000	25.083224
10.670000	25.083224
10.680000	25.083224
10.690000	25.083224
10.700000	25.083224
10.710000	25.083224
10.720000	25.083224
10.730000	25.083224
10.740000	25.083224
10.750000	25.083224
10.760000	25.083224
10.770000	25.083224
10.780000	25.083224
10.790000	25.083224
10.800000	25.083224
10.810000	25.083224
10.820000	25.083224
10.830000	25.083224
10.840000	25.083224
10.850000	25.083224
10.860000	25.083224
10.870000	25.083224
10.880000	25.083224
10.890000	25.083224
10.900000	25.083224
10.910000	25.083224
10.920000	25.083224
10.930000	25.083224
10.940000	25.083224
10.950000	25.083224
10.960000	25.083224
10.970000	25.083224
10.980000	25.083224
10.990000	25.083224
11.000000	25.069478
11.010000	25.069478
11.020000	25.069478
11.030000	25.069478
11.040000	25.069478
11.050000	25.069478
11.060000	25.069478
11.070000	25.069478
11.080000	25.069478
11.090000	25.069478
11.100000	25.069478
11.110000	25.069478
11.120000	25.069478
11.130000	25.069478
11.140000	25.069478
11.150000	25.069478
11.160000	25.069478
11.170000	25.069478
11.180000	25.069478
11.190000	25.069478
11.200000	25.069478
11.210000	25.069478
11.220000	25.069478
11.230000	25.069478
11.240000	25.069478
11.250000	25.069478
11.260000	25.069478
11.270000	25.069478
11.280000	25.069478
11.290000	25.069478
11.300000	25.069478
11.310000	25.069478
11.320000	25.069478
11.330000	25.069478
11.340000	25.069478
11.350000	25.069478
11.360000	25.069478
11.370000	25.069478
11.380000	25.069478
11.390000	25.069478
11.400000	25.069478
11.410000	25.069478
11.420000	25.069478
11.430000	25.069478
11.440000	25.069478
11.450000	25.069478
11.460000	25.069478
11.470000	25.069478
11.480000	25.069478
11.490000	25.069478
11.500000	25.055159
11.510000	25.055159
11.520000	25.055159
11.530000	25.055159
11.540000	25.055159
11.550000	25.055159
11.560000	25.055159
11.570000	25.055159
11.580000	25.055159
11.590000	25.055159
11.600000	25.055159
11.610000	25.055159
11.620000	25.055159
11.630000	25.055159
11.640000	25.055159
11.650000	25.055159
11.660000	25.055159
11.670000	25.055159
11.680000	25.055159
11.690000	25.055159
11.700000	25.055159
11.710000	25.055159
11.720000	25.055159
11.730000	25.055159
11.740000	25.055159
11.750000	25.055159
11.760000	25.055159
11.770000	25.055159
11.780000	25.055159
11.790000	25.055159
11.800000	25.055159
11.810000	25.055159
11.820000	25.055159
11.830000	25.055159
11.840000	25.055159
11.850000	25.055159
11.860000	25.055159
11.870000	25.055159
11.880000	25.055159
11.890000	25.055159
11.900000	25.055159
11.910000	25.055159
11.920000	25.055159
11.930000	25.055159
11.940000	25.055159
11.950000	25.055159
11.960000	25.055159
11.970000	25.055159
11.980000	25.055159
11.990000	25.055159
12.000000	25.041500
12.010000	25.041500
12.020000	25.041500
12.030000	25.041500
12.040000	25.041500
12.050000	25.041500
12.060000	25.041500
12.070000	25.041500
12.080000	25.041500
12.090000	25.041500
12.100000	25.041500
12.110000	25.041500
12.120000	25.041500
12.130000	25.041500
12.140000	25.041500
12.150000	25.041500
12.160000	25.041500
12.170000	25.041500
12.180000	25.041500
12.190000	25.041500
12.200000	25.041500
12.210000	25.041500
12.220000	25.041500
12.230000	25.041500
12.240000	25.041500
12.250000	25.041500
12.260000	25.041500
12.270000	25.041500
12.280000	25.041500
12.290000	25.041500
12.300000	25.041500
12.310000	25.041500
12.320000	25.041500
12.330000	25.041500
12.340000	25.041500
12.350000	25.041500
12.360000	25.041500
12.370000	25.041500
12.380000	25.041500
12.390000	25.041500
12.400000	25.041500
12.410000	25.041500
12.420000	25.041500
12.430000	25.041500
12.440000	25.041500
12.450000	25.041500
12.460000	25.041500
12.470000	25.041500
12.480000	25.041500
12.490000	25.041500
12.500000	25.027622
12.510000	25.027622
12.520000	25.027622
12.530000	25.027622
12.540000	25.027622
12.550000	25.027622
12.560000	25.027622
12.570000	25.027622
12.580000	25.027622
12.590000	25.027622
12.600000	25.027622
12.610000	25.027622
12.620000	25.027622
12.630000	25.027622
12.640000	25.027622
12.650000	25.027622
12.660000	25.027622
12.670000	25.027622
12.680000	25.027622
12.690000	25.027622
12.700000	25.027622
12.710000	25.027622
12.720000	25.027622
12.730000	25.027622
12.740000	25.027622
12.750000	25.027622
12.760000	25.027622
12.770000	25.027622
12.780000	25.027622
12.790000	25.027622
12.800000	25.027622
12.810000	25.027622
12.820000	25.027622
12.830000	25.027622
12.840000	25.027622
12.850000	25.027622
12.860000	25.027622
12.870000	25.027622
12.880000	25.027622
12.890000	25.027622
12.900000	25.027622
12.910000	25.027622
12.920000	25.027622
12.930000	25.027622
12.940000	25.027622
12.950000	25.027622
12.960000	25.027622
12.970000	25.027622
12.980000	25.027622
12.990000	25.027622
13.000000	25.013929
13.010000	25.013929
13.020000	25.013929
13.030000	25.013929
13.040000	25.013929
13.050000	25.013929
13.060000	25.013929
13.070000	25.013929
13.080000	25.013929
13.090000	25.013929
13.100000	25.013929
13.110000	25.013929
13.120000	25.013929
13.130000	25.013929
13.140000	25.013929
13.150000	25.013929
13.160000	25.013929
13.170000	25.013929
13.180000	25.013929
13.190000	25.013929
13.200000	25.013929
13.210000	25.013929
13.220000	25.013929
13.230000	25.013929
13.240000	25.013929
13.250000	25.013929
13.260000	25.013929
13.270000	25.013929
13.280000	25.013929
13.290000	25.013929
13.300000	25.013929
13.310000	25.013929
13.320000	25.013929
13.330000	25.013929
13.340000	25.013929
13.350000	25.013929
13.360000	25.013929
13.370000	25.013929
13.380000	25.013929
13.390000	25.013929
13.400000	25.013929
13.410000	25.013929
13.420000	25.013929
13.430000	25.013929
13.440000	25.013929
13.450000	25.013929
13.460000	25.013929
13.470000	25.013929
13.480000	25.013929
13.490000	25.013929
13.500000	25.000586
13.510000	25.000586
13.520000	25.000586
13.530000	25.000586
13.540000	25.000586
13.550000	25.000586
13.560000	25.000586
13.570000	25.000586
13.580000	25.000586
13.590000	25.000586
13.600000	25.000586
13.610000	25.000586
13.620000	25.000586
13.630000	25.000586
13.640000	25.000586
13.650000	25.000586
13.660000	25.000586
13.670000	25.000586
13.680000	25.000586
13.690000	25.000586
13.700000	25.000586
13.710000	25.000586
13.720000	25.000586
13.730000	25.000586
13.740000	25.000586
13.750000	25.000586
13.760000	25.000586
13.770000	25.000586
13.780000	25.000586
13.790000	25.000586
13.800000	25.000586
13.810000	25.000586
13.820000	25.000586
13.830000	25.000586
13.840000	25.000586
13.850000	25.000586
13.860000	25.000586
13.870000	25.000586
13.880000	25.000586
13.890000	25.000586
13.900000	25.000586
13.910000	25.000586
13.920000	25.000586
13.930000	25.000586
13.940000	25.000586
13.950000	25.000586
13.960000	25.000586
13.970000	25.000586
13.980000	25.000586
13.990000	25.000586
14.000000	24.987213
14.010000	24.987213
14.020000	24.987213
14.030000	24.987213
14.040000	24.987213
14.050000	24.987213
14.060000	24.987213
14.070000	24.987213
14.080000	24.987213
14.090000	24.987213
14.100000	24.987213
14.110000	24.987213
14.120000	24.987213
14.130000	24.987213
14.140000	24.987213
14.150000	24.987213
14.160000	24.987213
14.170000	24.987213
14.180000	24.987213
14.190000	24.987213
14.200000	24.987213
14.210000	24.987213
14.220000	24.987213
14.230000	24.987213
14.240000	24.987213
14.250000	24.987213
14.260000	24.987213
14.270000	24.987213
14.280000	24.987213
14.290000	24.987213
14.300000	24.987213
14.310000	24.987213
14.320000	24.987213
14.330000	24.987213
14.340000	24.987213
14.350000	24.987213
14.360000	24.987213
14.370000	24.987213
14.380000	24.987213
14.390000	24.987213
14.400000	24.987213
14.410000	24.987213
14.420000	24.987213
14.430000	24.987213
14.440000	24.987213
14.450000	24.987213
14.460000	24.987213
14.470000	24.987213
14.480000	24.987213
14.490000	24.987213
14.500000	24.973595
14.510000	24.973595
14.520000	24.973595
14.530000	24.973595
14.540000	24.973595
14.550000	24.973595
14.560000	24.973595
14.570000	24.973595
14.580000	24.973595
14.590000	24.973595
14.600000	24.973595
14.610000	24.973595
14.620000	24.973595
14.630000	24.973595
14.640000	24.973595
14.650000	24.973595
14.660000	24.973595
14.670000	24.973595
14.680000	24.973595
14.690000	24.973595
14.700000	24.973595
14.710000	24.973595
14.720000	24.973595
14.730000	24.973595
14.740000	24.973595
14.750000	24.973595
14.760000	24.973595
14.770000	24.973595
14.780000	24.973595
14.790000	24.973595
14.800000	24.973595
14.810000	24.973595
14.820000	24.973595
14.830000	24.973595
14.840000	24.973595
14.850000	24.973595
14.860000	24.973595
14.870000	24.973595
14.880000	24.973595
14.890000	24.973595
14.900000	24.973595
14.910000	24.973595
14.920000	24.973595
14.930000	24.973595
14.940000	24.973595
14.950000	24.973595
14.960000	24.973595
14.970000	24.973595
14.980000	24.973595
14.990000	24.973595
15.000000	24.959956
15.010000	24.959956
15.020000	24.959956
15.030000	24.959956
15.040000	24.959956
15.050000	24.959956
15.060000	24.959956
15.070000	24.959956
15.080000	24.959956
15.090000	24.959956
15.100000	24.959956
15.110000	24.959956
15.120000	24.959956
15.130000	24.959956
15.140000	24.959956
15.150000	24.959956
15.160000	24.959956
15.170000	24.959956
15.180000	24.959956
15.190000	24.959956
15.200000	24.959956
15.210000	24.959956
15.220000	24.959956
15.230000	24.959956
15.240000	24.959956
15.250000	24.959956
15.260000	24.959956
15.270000	24.959956
15.280000	24.959956
15.290000	24.959956
15.300000	24.959956
15.310000	24.959956
15.320000	24.959956
15.330000	24.959956
15.340000	24.959956
15.350000	24.959956
15.360000	24.959956
15.370000	24.959956
15.380000	24.959956
15.390000	24.959956
15.400000	24.959956
15.410000	24.959956
15.420000	24.959956
15.430000	24.959956
15.440000	24.959956
15.450000	24.959956
15.460000	24.959956
15.470000	24.959956
15.480000	24.959956
15.490000	24.959956
15.500000	24.946201
15.510000	24.946201
15.520000	24.946201
15.530000	24.946201
15.540000	24.946201
15.550000	24.946201
15.560000	24.946201
15.570000	24.946201
15.580000	24.946201
15.590000	24.946201
15.600000	24.946201
15.610000	24.946201
15.620000	24.946201
15.630000	24.946201
15.640000	24.946201
15.650000	24.946201
15.660000	24.946201
15.670000	24.946201
15.680000	24.946201
15.690000	24.946201
15.700000	24.946201
15.710000	24.946201
15.720000	24.946201
15.730000	24.946201
15.740000	24.946201
15.750000	24.946201
15.760000	24.946201
15.770000	24.946201
15.780000	24.946201
15.790000	24.946201
15.800000	24.946201
15.810000	24.946201
15.820000	24.946201
15.830000	24.946201
15.840000	24.946201
15.850000	24.946201
15.860000	24.946201
15.870000	24.946201
15.880000	24.946201
15.890000	24.946201
15.900000	24.946201
15.910000	24.946201
15.920000	24.946201
15.930000	24.946201
15.940000	24.946201
15.950000	24.946201
15.960000	24.946201
15.970000	24.946201
15.980000	24.946201
15.990000	24.946201
16.000000	24.932787
16.010000	24.932787
16.020000	24.932787
16.030000	24.932787
16.040000	24.932787
16.050000	24.932787
16.060000	24.932787
16.070000	24.932787
16.080000	24.932787
16.090000	24.932787
16.100000	24.932787
16.110000	24.932787
16.120000	24.932787
16.130000	24.932787
16.140000	24.932787
16.150000	24.932787
16.160000	24.932787
16.170000	24.932787
16.180000	24.932787
16.190000	24.932787
16.200000	24.932787
16.210000	24.932787
16.220000	24.932787
16.230000	24.932787
16.240000	24.932787
16.250000	24.932787
16.260000	24.932787
16.270000	24.932787
16.280000	24.932787
16.290000	24.932787
16.300000	24.932787
16.310000	24.932787
16.320000	24.932787
16.330000	24.932787
16.340000	24.932787
16.350000	24.932787
16.360000	24.932787
16.370000	24.932787
16.380000	24.932787
16.390000	24.932787
16.400000	24.932787
16.410000	24.932787
16.420000	24.932787
16.430000	24.932787
16.440000	24.932787
16.450000	24.932787
16.460000	24.932787
16.470000	24.932787
16.480000	24.932787
16.490000	24.932787
16.500000	24.919378
16.510000	24.919378
16.520000	24.919378
16.530000	24.919378
16.540000	24.919378
16.550000	24.919378
16.560000	24.919378
16.570000	24.919378
16.580000	24.919378
16.590000	24.919378
16.600000	24.919378
16.610000	24.919378
16.620000	24.919378
16.630000	24.919378
16.640000	24.919378
16.650000	24.919378
16.660000	24.919378
16.670000	24.919378
16.680000	24.919378
16.690000	24.919378
16.700000	24.919378
16.710000	24.919378
16.720000	24.919378
16.730000	24.919378
16.740000	24.919378
16.750000	24.919378
16.760000	24.919378
16.770000	24.919378
16.780000	24.919378
16.790000	24.919378
16.800000	24.919378
16.810000	24.919378
16.820000	24.919378
16.830000	24.919378
16.840000	24.919378
16.850000	24.919378
16.860000	24.919378
16.870000	24.919378
16.880000	24.919378
16.890000	24.919378
16.900000	24.919378
16.910000	24.919378
16.920000	24.919378
16.930000	24.919378
16.940000	24.919378
16.950000	24.919378
16.960000	24.919378
16.970000	24.919378
16.980000	24.919378
16.990000	24.919378
17.000000	24.905309
17.010000	24.905309
17.020000	24.905309
17.030000	24.905309
17.040000	24.905309
17.050000	24.905309
17.060000	24.905309
17.070000	24.905309
17.080000	24.905309
17.090000	24.905309
17.100000	24.905309
17.110000	24.905309
17.120000	24.905309
17.130000	24.905309
17.140000	24.905309
17.150000	24.905309
17.160000	24.905309
17.170000	24.905309
17.180000	24.905309
17.190000	24.905309
17.200000	24.905309
17.210000	24.905309
17.220000	24.905309
17.230000	24.905309
17.240000	24.905309
17.250000	24.905309
17.260000	24.905309
17.270000	24.905309
17.280000	24.905309
17.290000	24.905309
17.300000	24.905309
17.310000	24.905309
17.320000	24.905309
17.330000	24.905309
17.340000	24.905309
17.350000	24.905309
17.360000	24.905309
17.370000	24.905309
17.380000	24.905309
17.390000	24.905309
17.400000	24.905309
17.410000	24.905309
17.420000	24.905309
17.430000	24.905309
17.440000	24.905309
17.450000	24.905309
17.460000	24.905309
17.470000	24.905309
17.480000	24.905309
17.490000	24.905309
