LabVIEW Measurement	
Writer_Version	2
Reader_Version	2
Separator	Tab
Decimal_Separator	.
Multi_Headings	No
X_Columns	One
Time_Pref	Absolute
Operator	biomech-dyno
Date	2023/04/27
Time	17:41:55.9338632999999876419
***End_of_Header***	
	
Channels	1	
Samples	10	
Date	2023/04/27	
Time	19:39:11.695457099999593293	
X_Dimension	Time	
X0	0.0000000000000000E+0	
Delta_X	0.010000	
***End_of_Header***		
X_Value	Untitled	Comment
0.000000	25.096148
0.010000	25.096148
0.020000	25.096148
0.030000	25.096148
0.040000	25.096148
0.050000	25.096148
0.060000	25.096148
0.070000	25.096148
0.080000	25.096148
0.090000	25.096148
0.100000	25.096148
0.110000	25.096148
0.120000	25.096148
0.130000	25.096148
0.140000	25.096148
0.150000	25.096148
0.160000	25.096148
0.170000	25.096148
0.180000	25.096148
0.190000	25.096148
0.200000	25.096148
0.210000	25.096148
0.220000	25.096148
0.230000	25.096148
0.240000	25.096148
0.250000	25.096148
0.260000	25.096148
0.270000	25.096148
0.280000	25.096148
0.290000	25.096148
0.300000	25.096148
0.310000	25.096148
0.320000	25.096148
0.330000	25.096148
0.340000	25.096148
0.350000	25.096148
0.360000	25.096148
0.370000	25.096148
0.380000	25.096148
0.390000	25.096148
0.400000	25.096148
0.410000	25.096148
0.420000	25.096148
0.430000	25.096148
0.440000	25.096148
0.450000	25.096148
0.460000	25.096148
0.470000	25.096148
0.480000	25.096148
0.490000	25.096148
0.500000	25.139880
0.510000	25.139880
0.520000	25.139880
0.530000	25.139880
0.540000	25.139880
0.550000	25.139880
0.560000	25.139880
0.570000	25.139880
0.580000	25.139880
0.590000	25.139880
0.600000	25.139880
0.610000	25.139880
0.620000	25.139880
0.630000	25.139880
0.640000	25.139880
0.650000	25.139880
0.660000	25.139880
0.670000	25.139880
0.680000	25.139880
0.690000	25.139880
0.700000	25.139880
0.710000	25.139880
0.720000	25.139880
0.730000	25.139880
0.740000	25.139880
0.750000	25.139880
0.760000	25.139880
0.770000	25.139880
0.780000	25.139880
0.790000	25.139880
0.800000	25.139880
0.810000	25.139880
0.820000	25.139880
0.830000	25.139880
0.840000	25.139880
0.850000	25.139880
0.860000	25.139880
0.870000	25.139880
0.880000	25.139880
0.890000	25.139880
0.900000	25.139880
0.910000	25.139880
0.920000	25.139880
0.930000	25.139880
0.940000	25.139880
0.950000	25.139880
0.960000	25.139880
0.970000	25.139880
0.980000	25.139880
0.990000	25.139880
1.000000	25.525286
1.010000	25.525286
1.020000	25.525286
1.030000	25.525286
1.040000	25.525286
1.050000	25.525286
1.060000	25.525286
1.070000	25.525286
1.080000	25.525286
1.090000	25.525286
1.100000	25.525286
1.110000	25.525286
1.120000	25.525286
1.130000	25.525286
1.140000	25.525286
1.150000	25.525286
1.160000	25.525286
1.170000	25.525286
1.180000	25.525286
1.190000	25.525286
1.200000	25.525286
1.210000	25.525286
1.220000	25.525286
1.230000	25.525286
1.240000	25.525286
1.250000	25.525286
1.260000	25.525286
1.270000	25.525286
1.280000	25.525286
1.290000	25.525286
1.300000	25.525286
1.310000	25.525286
1.320000	25.525286
1.330000	25.525286
1.340000	25.525286
1.350000	25.525286
1.360000	25.525286
1.370000	25.525286
1.380000	25.525286
1.390000	25.525286
1.400000	25.525286
1.410000	25.525286
1.420000	25.525286
1.430000	25.525286
1.440000	25.525286
1.450000	25.525286
1.460000	25.525286
1.470000	25.525286
1.480000	25.525286
1.490000	25.525286
1.500000	26.426547
1.510000	26.426547
1.520000	26.426547
1.530000	26.426547
1.540000	26.426547
1.550000	26.426547
1.560000	26.426547
1.570000	26.426547
1.580000	26.426547
1.590000	26.426547
1.600000	26.426547
1.610000	26.426547
1.620000	26.426547
1.630000	26.426547
1.640000	26.426547
1.650000	26.426547
1.660000	26.426547
1.670000	26.426547
1.680000	26.426547
1.690000	26.426547
1.700000	26.426547
1.710000	26.426547
1.720000	26.426547
1.730000	26.426547
1.740000	26.426547
1.750000	26.426547
1.760000	26.426547
1.770000	26.426547
1.780000	26.426547
1.790000	26.426547
1.800000	26.426547
1.810000	26.426547
1.820000	26.426547
1.830000	26.426547
1.840000	26.426547
1.850000	26.426547
1.860000	26.426547
1.870000	26.426547
1.880000	26.426547
1.890000	26.426547
1.900000	26.426547
1.910000	26.426547
1.920000	26.426547
1.930000	26.426547
1.940000	26.426547
1.950000	26.426547
1.960000	26.426547
1.970000	26.426547
1.980000	26.426547
1.990000	26.426547
2.000000	27.745882
2.010000	27.745882
2.020000	27.745882
2.030000	27.745882
2.040000	27.745882
2.050000	27.745882
2.060000	27.745882
2.070000	27.745882
2.080000	27.745882
2.090000	27.745882
2.100000	27.745882
2.110000	27.745882
2.120000	27.745882
2.130000	27.745882
2.140000	27.745882
2.150000	27.745882
2.160000	27.745882
2.170000	27.745882
2.180000	27.745882
2.190000	27.745882
2.200000	27.745882
2.210000	27.745882
2.220000	27.745882
2.230000	27.745882
2.240000	27.745882
2.250000	27.745882
2.260000	27.745882
2.270000	27.745882
2.280000	27.745882
2.290000	27.745882
2.300000	27.745882
2.310000	27.745882
2.320000	27.745882
2.330000	27.745882
2.340000	27.745882
2.350000	27.745882
2.360000	27.745882
2.370000	27.745882
2.380000	27.745882
2.390000	27.745882
2.400000	27.745882
2.410000	27.745882
2.420000	27.745882
2.430000	27.745882
2.440000	27.745882
2.450000	27.745882
2.460000	27.745882
2.470000	27.745882
2.480000	27.745882
2.490000	27.745882
2.500000	29.375751
2.510000	29.375751
2.520000	29.375751
2.530000	29.375751
2.540000	29.375751
2.550000	29.375751
2.560000	29.375751
2.570000	29.375751
2.580000	29.375751
2.590000	29.375751
2.600000	29.375751
2.610000	29.375751
2.620000	29.375751
2.630000	29.375751
2.640000	29.375751
2.650000	29.375751
2.660000	29.375751
2.670000	29.375751
2.680000	29.375751
2.690000	29.375751
2.700000	29.375751
2.710000	29.375751
2.720000	29.375751
2.730000	29.375751
2.740000	29.375751
2.750000	29.375751
2.760000	29.375751
2.770000	29.375751
2.780000	29.375751
2.790000	29.375751
2.800000	29.375751
2.810000	29.375751
2.820000	29.375751
2.830000	29.375751
2.840000	29.375751
2.850000	29.375751
2.860000	29.375751
2.870000	29.375751
2.880000	29.375751
2.890000	29.375751
2.900000	29.375751
2.910000	29.375751
2.920000	29.375751
2.930000	29.375751
2.940000	29.375751
2.950000	29.375751
2.960000	29.375751
2.970000	29.375751
2.980000	29.375751
2.990000	29.375751
3.000000	31.211424
3.010000	31.211424
3.020000	31.211424
3.030000	31.211424
3.040000	31.211424
3.050000	31.211424
3.060000	31.211424
3.070000	31.211424
3.080000	31.211424
3.090000	31.211424
3.100000	31.211424
3.110000	31.211424
3.120000	31.211424
3.130000	31.211424
3.140000	31.211424
3.150000	31.211424
3.160000	31.211424
3.170000	31.211424
3.180000	31.211424
3.190000	31.211424
3.200000	31.211424
3.210000	31.211424
3.220000	31.211424
3.230000	31.211424
3.240000	31.211424
3.250000	31.211424
3.260000	31.211424
3.270000	31.211424
3.280000	31.211424
3.290000	31.211424
3.300000	31.211424
3.310000	31.211424
3.320000	31.211424
3.330000	31.211424
3.340000	31.211424
3.350000	31.211424
3.360000	31.211424
3.370000	31.211424
3.380000	31.211424
3.390000	31.211424
3.400000	31.211424
3.410000	31.211424
3.420000	31.211424
3.430000	31.211424
3.440000	31.211424
3.450000	31.211424
3.460000	31.211424
3.470000	31.211424
3.480000	31.211424
3.490000	31.211424
3.500000	32.843630
3.510000	32.843630
3.520000	32.843630
3.530000	32.843630
3.540000	32.843630
3.550000	32.843630
3.560000	32.843630
3.570000	32.843630
3.580000	32.843630
3.590000	32.843630
3.600000	32.843630
3.610000	32.843630
3.620000	32.843630
3.630000	32.843630
3.640000	32.843630
3.650000	32.843630
3.660000	32.843630
3.670000	32.843630
3.680000	32.843630
3.690000	32.843630
3.700000	32.843630
3.710000	32.843630
3.720000	32.843630
3.730000	32.843630
3.740000	32.843630
3.750000	32.843630
3.760000	32.843630
3.770000	32.843630
3.780000	32.843630
3.790000	32.843630
3.800000	32.843630
3.810000	32.843630
3.820000	32.843630
3.830000	32.843630
3.840000	32.843630
3.850000	32.843630
3.860000	32.843630
3.870000	32.843630
3.880000	32.843630
3.890000	32.843630
3.900000	32.843630
3.910000	32.843630
3.920000	32.843630
3.930000	32.843630
3.940000	32.843630
3.950000	32.843630
3.960000	32.843630
3.970000	32.843630
3.980000	32.843630
3.990000	32.843630
4.000000	34.053906
4.010000	34.053906
4.020000	34.053906
4.030000	34.053906
4.040000	34.053906
4.050000	34.053906
4.060000	34.053906
4.070000	34.053906
4.080000	34.053906
4.090000	34.053906
4.100000	34.053906
4.110000	34.053906
4.120000	34.053906
4.130000	34.053906
4.140000	34.053906
4.150000	34.053906
4.160000	34.053906
4.170000	34.053906
4.180000	34.053906
4.190000	34.053906
4.200000	34.053906
4.210000	34.053906
4.220000	34.053906
4.230000	34.053906
4.240000	34.053906
4.250000	34.053906
4.260000	34.053906
4.270000	34.053906
4.280000	34.053906
4.290000	34.053906
4.300000	34.053906
4.310000	34.053906
4.320000	34.053906
4.330000	34.053906
4.340000	34.053906
4.350000	34.053906
4.360000	34.053906
4.370000	34.053906
4.380000	34.053906
4.390000	34.053906
4.400000	34.053906
4.410000	34.053906
4.420000	34.053906
4.430000	34.053906
4.440000	34.053906
4.450000	34.053906
4.460000	34.053906
4.470000	34.053906
4.480000	34.053906
4.490000	34.053906
4.500000	34.906835
4.510000	34.906835
4.520000	34.906835
4.530000	34.906835
4.540000	34.906835
4.550000	34.906835
4.560000	34.906835
4.570000	34.906835
4.580000	34.906835
4.590000	34.906835
4.600000	34.906835
4.610000	34.906835
4.620000	34.906835
4.630000	34.906835
4.640000	34.906835
4.650000	34.906835
4.660000	34.906835
4.670000	34.906835
4.680000	34.906835
4.690000	34.906835
4.700000	34.906835
4.710000	34.906835
4.720000	34.906835
4.730000	34.906835
4.740000	34.906835
4.750000	34.906835
4.760000	34.906835
4.770000	34.906835
4.780000	34.906835
4.790000	34.906835
4.800000	34.906835
4.810000	34.906835
4.820000	34.906835
4.830000	34.906835
4.840000	34.906835
4.850000	34.906835
4.860000	34.906835
4.870000	34.906835
4.880000	34.906835
4.890000	34.906835
4.900000	34.906835
4.910000	34.906835
4.920000	34.906835
4.930000	34.906835
4.940000	34.906835
4.950000	34.906835
4.960000	34.906835
4.970000	34.906835
4.980000	34.906835
4.990000	34.906835
5.000000	35.486377
5.010000	35.486377
5.020000	35.486377
5.030000	35.486377
5.040000	35.486377
5.050000	35.486377
5.060000	35.486377
5.070000	35.486377
5.080000	35.486377
5.090000	35.486377
5.100000	35.486377
5.110000	35.486377
5.120000	35.486377
5.130000	35.486377
5.140000	35.486377
5.150000	35.486377
5.160000	35.486377
5.170000	35.486377
5.180000	35.486377
5.190000	35.486377
5.200000	35.486377
5.210000	35.486377
5.220000	35.486377
5.230000	35.486377
5.240000	35.486377
5.250000	35.486377
5.260000	35.486377
5.270000	35.486377
5.280000	35.486377
5.290000	35.486377
5.300000	35.486377
5.310000	35.486377
5.320000	35.486377
5.330000	35.486377
5.340000	35.486377
5.350000	35.486377
5.360000	35.486377
5.370000	35.486377
5.380000	35.486377
5.390000	35.486377
5.400000	35.486377
5.410000	35.486377
5.420000	35.486377
5.430000	35.486377
5.440000	35.486377
5.450000	35.486377
5.460000	35.486377
5.470000	35.486377
5.480000	35.486377
5.490000	35.486377
5.500000	35.863308
5.510000	35.863308
5.520000	35.863308
5.530000	35.863308
5.540000	35.863308
5.550000	35.863308
5.560000	35.863308
5.570000	35.863308
5.580000	35.863308
5.590000	35.863308
5.600000	35.863308
5.610000	35.863308
5.620000	35.863308
5.630000	35.863308
5.640000	35.863308
5.650000	35.863308
5.660000	35.863308
5.670000	35.863308
5.680000	35.863308
5.690000	35.863308
5.700000	35.863308
5.710000	35.863308
5.720000	35.863308
5.730000	35.863308
5.740000	35.863308
5.750000	35.863308
5.760000	35.863308
5.770000	35.863308
5.780000	35.863308
5.790000	35.863308
5.800000	35.863308
5.810000	35.863308
5.820000	35.863308
5.830000	35.863308
5.840000	35.863308
5.850000	35.863308
5.860000	35.863308
5.870000	35.863308
5.880000	35.863308
5.890000	35.863308
5.900000	35.863308
5.910000	35.863308
5.920000	35.863308
5.930000	35.863308
5.940000	35.863308
5.950000	35.863308
5.960000	35.863308
5.970000	35.863308
5.980000	35.863308
5.990000	35.863308
6.000000	36.090967
6.010000	36.090967
6.020000	36.090967
6.030000	36.090967
6.040000	36.090967
6.050000	36.090967
6.060000	36.090967
6.070000	36.090967
6.080000	36.090967
6.090000	36.090967
6.100000	36.090967
6.110000	36.090967
6.120000	36.090967
6.130000	36.090967
6.140000	36.090967
6.150000	36.090967
6.160000	36.090967
6.170000	36.090967
6.180000	36.090967
6.190000	36.090967
6.200000	36.090967
6.210000	36.090967
6.220000	36.090967
6.230000	36.090967
6.240000	36.090967
6.250000	36.090967
6.260000	36.090967
6.270000	36.090967
6.280000	36.090967
6.290000	36.090967
6.300000	36.090967
6.310000	36.090967
6.320000	36.090967
6.330000	36.090967
6.340000	36.090967
6.350000	36.090967
6.360000	36.090967
6.370000	36.090967
6.380000	36.090967
6.390000	36.090967
6.400000	36.090967
6.410000	36.090967
6.420000	36.090967
6.430000	36.090967
6.440000	36.090967
6.450000	36.090967
6.460000	36.090967
6.470000	36.090967
6.480000	36.090967
6.490000	36.090967
6.500000	36.209573
6.510000	36.209573
6.520000	36.209573
6.530000	36.209573
6.540000	36.209573
6.550000	36.209573
6.560000	36.209573
6.570000	36.209573
6.580000	36.209573
6.590000	36.209573
6.600000	36.209573
6.610000	36.209573
6.620000	36.209573
6.630000	36.209573
6.640000	36.209573
6.650000	36.209573
6.660000	36.209573
6.670000	36.209573
6.680000	36.209573
6.690000	36.209573
6.700000	36.209573
6.710000	36.209573
6.720000	36.209573
6.730000	36.209573
6.740000	36.209573
6.750000	36.209573
6.760000	36.209573
6.770000	36.209573
6.780000	36.209573
6.790000	36.209573
6.800000	36.209573
6.810000	36.209573
6.820000	36.209573
6.830000	36.209573
6.840000	36.209573
6.850000	36.209573
6.860000	36.209573
6.870000	36.209573
6.880000	36.209573
6.890000	36.209573
6.900000	36.209573
6.910000	36.209573
6.920000	36.209573
6.930000	36.209573
6.940000	36.209573
6.950000	36.209573
6.960000	36.209573
6.970000	36.209573
6.980000	36.209573
6.990000	36.209573
7.000000	36.241139
7.010000	36.241139
7.020000	36.241139
7.030000	36.241139
7.040000	36.241139
7.050000	36.241139
7.060000	36.241139
7.070000	36.241139
7.080000	36.241139
7.090000	36.241139
7.100000	36.241139
7.110000	36.241139
7.120000	36.241139
7.130000	36.241139
7.140000	36.241139
7.150000	36.241139
7.160000	36.241139
7.170000	36.241139
7.180000	36.241139
7.190000	36.241139
7.200000	36.241139
7.210000	36.241139
7.220000	36.241139
7.230000	36.241139
7.240000	36.241139
7.250000	36.241139
7.260000	36.241139
7.270000	36.241139
7.280000	36.241139
7.290000	36.241139
7.300000	36.241139
7.310000	36.241139
7.320000	36.241139
7.330000	36.241139
7.340000	36.241139
7.350000	36.241139
7.360000	36.241139
7.370000	36.241139
7.380000	36.241139
7.390000	36.241139
7.400000	36.241139
7.410000	36.241139
7.420000	36.241139
7.430000	36.241139
7.440000	36.241139
7.450000	36.241139
7.460000	36.241139
7.470000	36.241139
7.480000	36.241139
7.490000	36.241139
7.500000	36.206418
7.510000	36.206418
7.520000	36.206418
7.530000	36.206418
7.540000	36.206418
7.550000	36.206418
7.560000	36.206418
7.570000	36.206418
7.580000	36.206418
7.590000	36.206418
7.600000	36.206418
7.610000	36.206418
7.620000	36.206418
7.630000	36.206418
7.640000	36.206418
7.650000	36.206418
7.660000	36.206418
7.670000	36.206418
7.680000	36.206418
7.690000	36.206418
7.700000	36.206418
7.710000	36.206418
7.720000	36.206418
7.730000	36.206418
7.740000	36.206418
7.750000	36.206418
7.760000	36.206418
7.770000	36.206418
7.780000	36.206418
7.790000	36.206418
7.800000	36.206418
7.810000	36.206418
7.820000	36.206418
7.830000	36.206418
7.840000	36.206418
7.850000	36.206418
7.860000	36.206418
7.870000	36.206418
7.880000	36.206418
7.890000	36.206418
7.900000	36.206418
7.910000	36.206418
7.920000	36.206418
7.930000	36.206418
7.940000	36.206418
7.950000	36.206418
7.960000	36.206418
7.970000	36.206418
7.980000	36.206418
7.990000	36.206418
8.000000	36.122572
8.010000	36.122572
8.020000	36.122572
8.030000	36.122572
8.040000	36.122572
8.050000	36.122572
8.060000	36.122572
8.070000	36.122572
8.080000	36.122572
8.090000	36.122572
8.100000	36.122572
8.110000	36.122572
8.120000	36.122572
8.130000	36.122572
8.140000	36.122572
8.150000	36.122572
8.160000	36.122572
8.170000	36.122572
8.180000	36.122572
8.190000	36.122572
8.200000	36.122572
8.210000	36.122572
8.220000	36.122572
8.230000	36.122572
8.240000	36.122572
8.250000	36.122572
8.260000	36.122572
8.270000	36.122572
8.280000	36.122572
8.290000	36.122572
8.300000	36.122572
8.310000	36.122572
8.320000	36.122572
8.330000	36.122572
8.340000	36.122572
8.350000	36.122572
8.360000	36.122572
8.370000	36.122572
8.380000	36.122572
8.390000	36.122572
8.400000	36.122572
8.410000	36.122572
8.420000	36.122572
8.430000	36.122572
8.440000	36.122572
8.450000	36.122572
8.460000	36.122572
8.470000	36.122572
8.480000	36.122572
8.490000	36.122572
8.500000	36.008202
8.510000	36.008202
8.520000	36.008202
8.530000	36.008202
8.540000	36.008202
8.550000	36.008202
8.560000	36.008202
8.570000	36.008202
8.580000	36.008202
8.590000	36.008202
8.600000	36.008202
8.610000	36.008202
8.620000	36.008202
8.630000	36.008202
8.640000	36.008202
8.650000	36.008202
8.660000	36.008202
8.670000	36.008202
8.680000	36.008202
8.690000	36.008202
8.700000	36.008202
8.710000	36.008202
8.720000	36.008202
8.730000	36.008202
8.740000	36.008202
8.750000	36.008202
8.760000	36.008202
8.770000	36.008202
8.780000	36.008202
8.790000	36.008202
8.800000	36.008202
8.810000	36.008202
8.820000	36.008202
8.830000	36.008202
8.840000	36.008202
8.850000	36.008202
8.860000	36.008202
8.870000	36.008202
8.880000	36.008202
8.890000	36.008202
8.900000	36.008202
8.910000	36.008202
8.920000	36.008202
8.930000	36.008202
8.940000	36.008202
8.950000	36.008202
8.960000	36.008202
8.970000	36.008202
8.980000	36.008202
8.990000	36.008202
9.000000	35.871234
9.010000	35.871234
9.020000	35.871234
9.030000	35.871234
9.040000	35.871234
9.050000	35.871234
9.060000	35.871234
9.070000	35.871234
9.080000	35.871234
9.090000	35.871234
9.100000	35.871234
9.110000	35.871234
9.120000	35.871234
9.130000	35.871234
9.140000	35.871234
9.150000	35.871234
9.160000	35.871234
9.170000	35.871234
9.180000	35.871234
9.190000	35.871234
9.200000	35.871234
9.210000	35.871234
9.220000	35.871234
9.230000	35.871234
9.240000	35.871234
9.250000	35.871234
9.260000	35.871234
9.270000	35.871234
9.280000	35.871234
9.290000	35.871234
9.300000	35.871234
9.310000	35.871234
9.320000	35.871234
9.330000	35.871234
9.340000	35.871234
9.350000	35.871234
9.360000	35.871234
9.370000	35.871234
9.380000	35.871234
9.390000	35.871234
9.400000	35.871234
9.410000	35.871234
9.420000	35.871234
9.430000	35.871234
9.440000	35.871234
9.450000	35.871234
9.460000	35.871234
9.470000	35.871234
9.480000	35.871234
9.490000	35.871234
9.500000	35.718482
9.510000	35.718482
9.520000	35.718482
9.530000	35.718482
9.540000	35.718482
9.550000	35.718482
9.560000	35.718482
9.570000	35.718482
9.580000	35.718482
9.590000	35.718482
9.600000	35.718482
9.610000	35.718482
9.620000	35.718482
9.630000	35.718482
9.640000	35.718482
9.650000	35.718482
9.660000	35.718482
9.670000	35.718482
9.680000	35.718482
9.690000	35.718482
9.700000	35.718482
9.710000	35.718482
9.720000	35.718482
9.730000	35.718482
9.740000	35.718482
9.750000	35.718482
9.760000	35.718482
9.770000	35.718482
9.780000	35.718482
9.790000	35.718482
9.800000	35.718482
9.810000	35.718482
9.820000	35.718482
9.830000	35.718482
9.840000	35.718482
9.850000	35.718482
9.860000	35.718482
9.870000	35.718482
9.880000	35.718482
9.890000	35.718482
9.900000	35.718482
9.910000	35.718482
9.920000	35.718482
9.930000	35.718482
9.940000	35.718482
9.950000	35.718482
9.960000	35.718482
9.970000	35.718482
9.980000	35.718482
9.990000	35.718482
10.000000	35.557832
10.010000	35.557832
10.020000	35.557832
10.030000	35.557832
10.040000	35.557832
10.050000	35.557832
10.060000	35.557832
10.070000	35.557832
10.080000	35.557832
10.090000	35.557832
10.100000	35.557832
10.110000	35.557832
10.120000	35.557832
10.130000	35.557832
10.140000	35.557832
10.150000	35.557832
10.160000	35.557832
10.170000	35.557832
10.180000	35.557832
10.190000	35.557832
10.200000	35.557832
10.210000	35.557832
10.220000	35.557832
10.230000	35.557832
10.240000	35.557832
10.250000	35.557832
10.260000	35.557832
10.270000	35.557832
10.280000	35.557832
10.290000	35.557832
10.300000	35.557832
10.310000	35.557832
10.320000	35.557832
10.330000	35.557832
10.340000	35.557832
10.350000	35.557832
10.360000	35.557832
10.370000	35.557832
10.380000	35.557832
10.390000	35.557832
10.400000	35.557832
10.410000	35.557832
10.420000	35.557832
10.430000	35.557832
10.440000	35.557832
10.450000	35.557832
10.460000	35.557832
10.470000	35.557832
10.480000	35.557832
10.490000	35.557832
10.500000	35.384816
10.510000	35.384816
10.520000	35.384816
10.530000	35.384816
10.540000	35.384816
10.550000	35.384816
10.560000	35.384816
10.570000	35.384816
10.580000	35.384816
10.590000	35.384816
10.600000	35.384816
10.610000	35.384816
10.620000	35.384816
10.630000	35.384816
10.640000	35.384816
10.650000	35.384816
10.660000	35.384816
10.670000	35.384816
10.680000	35.384816
10.690000	35.384816
10.700000	35.384816
10.710000	35.384816
10.720000	35.384816
10.730000	35.384816
10.740000	35.384816
10.750000	35.384816
10.760000	35.384816
10.770000	35.384816
10.780000	35.384816
10.790000	35.384816
10.800000	35.384816
10.810000	35.384816
10.820000	35.384816
10.830000	35.384816
10.840000	35.384816
10.850000	35.384816
10.860000	35.384816
10.870000	35.384816
10.880000	35.384816
10.890000	35.384816
10.900000	35.384816
10.910000	35.384816
10.920000	35.384816
10.930000	35.384816
10.940000	35.384816
10.950000	35.384816
10.960000	35.384816
10.970000	35.384816
10.980000	35.384816
10.990000	35.384816
11.000000	35.203182
11.010000	35.203182
11.020000	35.203182
11.030000	35.203182
11.040000	35.203182
11.050000	35.203182
11.060000	35.203182
11.070000	35.203182
11.080000	35.203182
11.090000	35.203182
11.100000	35.203182
11.110000	35.203182
11.120000	35.203182
11.130000	35.203182
11.140000	35.203182
11.150000	35.203182
11.160000	35.203182
11.170000	35.203182
11.180000	35.203182
11.190000	35.203182
11.200000	35.203182
11.210000	35.203182
11.220000	35.203182
11.230000	35.203182
11.240000	35.203182
11.250000	35.203182
11.260000	35.203182
11.270000	35.203182
11.280000	35.203182
11.290000	35.203182
11.300000	35.203182
11.310000	35.203182
11.320000	35.203182
11.330000	35.203182
11.340000	35.203182
11.350000	35.203182
11.360000	35.203182
11.370000	35.203182
11.380000	35.203182
11.390000	35.203182
11.400000	35.203182
11.410000	35.203182
11.420000	35.203182
11.430000	35.203182
11.440000	35.203182
11.450000	35.203182
11.460000	35.203182
11.470000	35.203182
11.480000	35.203182
11.490000	35.203182
11.500000	35.014662
11.510000	35.014662
11.520000	35.014662
11.530000	35.014662
11.540000	35.014662
11.550000	35.014662
11.560000	35.014662
11.570000	35.014662
11.580000	35.014662
11.590000	35.014662
11.600000	35.014662
11.610000	35.014662
11.620000	35.014662
11.630000	35.014662
11.640000	35.014662
11.650000	35.014662
11.660000	35.014662
11.670000	35.014662
11.680000	35.014662
11.690000	35.014662
11.700000	35.014662
11.710000	35.014662
11.720000	35.014662
11.730000	35.014662
11.740000	35.014662
11.750000	35.014662
11.760000	35.014662
11.770000	35.014662
11.780000	35.014662
11.790000	35.014662
11.800000	35.014662
11.810000	35.014662
11.820000	35.014662
11.830000	35.014662
11.840000	35.014662
11.850000	35.014662
11.860000	35.014662
11.870000	35.014662
11.880000	35.014662
11.890000	35.014662
11.900000	35.014662
11.910000	35.014662
11.920000	35.014662
11.930000	35.014662
11.940000	35.014662
11.950000	35.014662
11.960000	35.014662
11.970000	35.014662
11.980000	35.014662
11.990000	35.014662
12.000000	34.822405
12.010000	34.822405
12.020000	34.822405
12.030000	34.822405
12.040000	34.822405
12.050000	34.822405
12.060000	34.822405
12.070000	34.822405
12.080000	34.822405
12.090000	34.822405
12.100000	34.822405
12.110000	34.822405
12.120000	34.822405
12.130000	34.822405
12.140000	34.822405
12.150000	34.822405
12.160000	34.822405
12.170000	34.822405
12.180000	34.822405
12.190000	34.822405
12.200000	34.822405
12.210000	34.822405
12.220000	34.822405
12.230000	34.822405
12.240000	34.822405
12.250000	34.822405
12.260000	34.822405
12.270000	34.822405
12.280000	34.822405
12.290000	34.822405
12.300000	34.822405
12.310000	34.822405
12.320000	34.822405
12.330000	34.822405
12.340000	34.822405
12.350000	34.822405
12.360000	34.822405
12.370000	34.822405
12.380000	34.822405
12.390000	34.822405
12.400000	34.822405
12.410000	34.822405
12.420000	34.822405
12.430000	34.822405
12.440000	34.822405
12.450000	34.822405
12.460000	34.822405
12.470000	34.822405
12.480000	34.822405
12.490000	34.822405
12.500000	34.630907
12.510000	34.630907
12.520000	34.630907
12.530000	34.630907
12.540000	34.630907
12.550000	34.630907
12.560000	34.630907
12.570000	34.630907
12.580000	34.630907
12.590000	34.630907
12.600000	34.630907
12.610000	34.630907
12.620000	34.630907
12.630000	34.630907
12.640000	34.630907
12.650000	34.630907
12.660000	34.630907
12.670000	34.630907
12.680000	34.630907
12.690000	34.630907
12.700000	34.630907
12.710000	34.630907
12.720000	34.630907
12.730000	34.630907
12.740000	34.630907
12.750000	34.630907
12.760000	34.630907
12.770000	34.630907
12.780000	34.630907
12.790000	34.630907
12.800000	34.630907
12.810000	34.630907
12.820000	34.630907
12.830000	34.630907
12.840000	34.630907
12.850000	34.630907
12.860000	34.630907
12.870000	34.630907
12.880000	34.630907
12.890000	34.630907
12.900000	34.630907
12.910000	34.630907
12.920000	34.630907
12.930000	34.630907
12.940000	34.630907
12.950000	34.630907
12.960000	34.630907
12.970000	34.630907
12.980000	34.630907
12.990000	34.630907
13.000000	34.439657
13.010000	34.439657
13.020000	34.439657
13.030000	34.439657
13.040000	34.439657
13.050000	34.439657
13.060000	34.439657
13.070000	34.439657
13.080000	34.439657
13.090000	34.439657
13.100000	34.439657
13.110000	34.439657
13.120000	34.439657
13.130000	34.439657
13.140000	34.439657
13.150000	34.439657
13.160000	34.439657
13.170000	34.439657
13.180000	34.439657
13.190000	34.439657
13.200000	34.439657
13.210000	34.439657
13.220000	34.439657
13.230000	34.439657
13.240000	34.439657
13.250000	34.439657
13.260000	34.439657
13.270000	34.439657
13.280000	34.439657
13.290000	34.439657
13.300000	34.439657
13.310000	34.439657
13.320000	34.439657
13.330000	34.439657
13.340000	34.439657
13.350000	34.439657
13.360000	34.439657
13.370000	34.439657
13.380000	34.439657
13.390000	34.439657
13.400000	34.439657
13.410000	34.439657
13.420000	34.439657
13.430000	34.439657
13.440000	34.439657
13.450000	34.439657
13.460000	34.439657
13.470000	34.439657
13.480000	34.439657
13.490000	34.439657
13.500000	34.245400
13.510000	34.245400
13.520000	34.245400
13.530000	34.245400
13.540000	34.245400
13.550000	34.245400
13.560000	34.245400
13.570000	34.245400
13.580000	34.245400
13.590000	34.245400
13.600000	34.245400
13.610000	34.245400
13.620000	34.245400
13.630000	34.245400
13.640000	34.245400
13.650000	34.245400
13.660000	34.245400
13.670000	34.245400
13.680000	34.245400
13.690000	34.245400
13.700000	34.245400
13.710000	34.245400
13.720000	34.245400
13.730000	34.245400
13.740000	34.245400
13.750000	34.245400
13.760000	34.245400
13.770000	34.245400
13.780000	34.245400
13.790000	34.245400
13.800000	34.245400
13.810000	34.245400
13.820000	34.245400
13.830000	34.245400
13.840000	34.245400
13.850000	34.245400
13.860000	34.245400
13.870000	34.245400
13.880000	34.245400
13.890000	34.245400
13.900000	34.245400
13.910000	34.245400
13.920000	34.245400
13.930000	34.245400
13.940000	34.245400
13.950000	34.245400
13.960000	34.245400
13.970000	34.245400
13.980000	34.245400
13.990000	34.245400
14.000000	34.054201
14.010000	34.054201
14.020000	34.054201
14.030000	34.054201
14.040000	34.054201
14.050000	34.054201
14.060000	34.054201
14.070000	34.054201
14.080000	34.054201
14.090000	34.054201
14.100000	34.054201
14.110000	34.054201
14.120000	34.054201
14.130000	34.054201
14.140000	34.054201
14.150000	34.054201
14.160000	34.054201
14.170000	34.054201
14.180000	34.054201
14.190000	34.054201
14.200000	34.054201
14.210000	34.054201
14.220000	34.054201
14.230000	34.054201
14.240000	34.054201
14.250000	34.054201
14.260000	34.054201
14.270000	34.054201
14.280000	34.054201
14.290000	34.054201
14.300000	34.054201
14.310000	34.054201
14.320000	34.054201
14.330000	34.054201
14.340000	34.054201
14.350000	34.054201
14.360000	34.054201
14.370000	34.054201
14.380000	34.054201
14.390000	34.054201
14.400000	34.054201
14.410000	34.054201
14.420000	34.054201
14.430000	34.054201
14.440000	34.054201
14.450000	34.054201
14.460000	34.054201
14.470000	34.054201
14.480000	34.054201
14.490000	34.054201
14.500000	33.869324
14.510000	33.869324
14.520000	33.869324
14.530000	33.869324
14.540000	33.869324
14.550000	33.869324
14.560000	33.869324
14.570000	33.869324
14.580000	33.869324
14.590000	33.869324
14.600000	33.869324
14.610000	33.869324
14.620000	33.869324
14.630000	33.869324
14.640000	33.869324
14.650000	33.869324
14.660000	33.869324
14.670000	33.869324
14.680000	33.869324
14.690000	33.869324
14.700000	33.869324
14.710000	33.869324
14.720000	33.869324
14.730000	33.869324
14.740000	33.869324
14.750000	33.869324
14.760000	33.869324
14.770000	33.869324
14.780000	33.869324
14.790000	33.869324
14.800000	33.869324
14.810000	33.869324
14.820000	33.869324
14.830000	33.869324
14.840000	33.869324
14.850000	33.869324
14.860000	33.869324
14.870000	33.869324
14.880000	33.869324
14.890000	33.869324
14.900000	33.869324
14.910000	33.869324
14.920000	33.869324
14.930000	33.869324
14.940000	33.869324
14.950000	33.869324
14.960000	33.869324
14.970000	33.869324
14.980000	33.869324
14.990000	33.869324
15.000000	33.685420
15.010000	33.685420
15.020000	33.685420
15.030000	33.685420
15.040000	33.685420
15.050000	33.685420
15.060000	33.685420
15.070000	33.685420
15.080000	33.685420
15.090000	33.685420
15.100000	33.685420
15.110000	33.685420
15.120000	33.685420
15.130000	33.685420
15.140000	33.685420
15.150000	33.685420
15.160000	33.685420
15.170000	33.685420
15.180000	33.685420
15.190000	33.685420
15.200000	33.685420
15.210000	33.685420
15.220000	33.685420
15.230000	33.685420
15.240000	33.685420
15.250000	33.685420
15.260000	33.685420
15.270000	33.685420
15.280000	33.685420
15.290000	33.685420
15.300000	33.685420
15.310000	33.685420
15.320000	33.685420
15.330000	33.685420
15.340000	33.685420
15.350000	33.685420
15.360000	33.685420
15.370000	33.685420
15.380000	33.685420
15.390000	33.685420
15.400000	33.685420
15.410000	33.685420
15.420000	33.685420
15.430000	33.685420
15.440000	33.685420
15.450000	33.685420
15.460000	33.685420
15.470000	33.685420
15.480000	33.685420
15.490000	33.685420
15.500000	33.504172
15.510000	33.504172
15.520000	33.504172
15.530000	33.504172
15.540000	33.504172
15.550000	33.504172
15.560000	33.504172
15.570000	33.504172
15.580000	33.504172
15.590000	33.504172
15.600000	33.504172
15.610000	33.504172
15.620000	33.504172
15.630000	33.504172
15.640000	33.504172
15.650000	33.504172
15.660000	33.504172
15.670000	33.504172
15.680000	33.504172
15.690000	33.504172
15.700000	33.504172
15.710000	33.504172
15.720000	33.504172
15.730000	33.504172
15.740000	33.504172
15.750000	33.504172
15.760000	33.504172
15.770000	33.504172
15.780000	33.504172
15.790000	33.504172
15.800000	33.504172
15.810000	33.504172
15.820000	33.504172
15.830000	33.504172
15.840000	33.504172
15.850000	33.504172
15.860000	33.504172
15.870000	33.504172
15.880000	33.504172
15.890000	33.504172
15.900000	33.504172
15.910000	33.504172
15.920000	33.504172
15.930000	33.504172
15.940000	33.504172
15.950000	33.504172
15.960000	33.504172
15.970000	33.504172
15.980000	33.504172
15.990000	33.504172
16.000000	33.327474
16.010000	33.327474
16.020000	33.327474
16.030000	33.327474
16.040000	33.327474
16.050000	33.327474
16.060000	33.327474
16.070000	33.327474
16.080000	33.327474
16.090000	33.327474
16.100000	33.327474
16.110000	33.327474
16.120000	33.327474
16.130000	33.327474
16.140000	33.327474
16.150000	33.327474
16.160000	33.327474
16.170000	33.327474
16.180000	33.327474
16.190000	33.327474
16.200000	33.327474
16.210000	33.327474
16.220000	33.327474
16.230000	33.327474
16.240000	33.327474
16.250000	33.327474
16.260000	33.327474
16.270000	33.327474
16.280000	33.327474
16.290000	33.327474
16.300000	33.327474
16.310000	33.327474
16.320000	33.327474
16.330000	33.327474
16.340000	33.327474
16.350000	33.327474
16.360000	33.327474
16.370000	33.327474
16.380000	33.327474
16.390000	33.327474
16.400000	33.327474
16.410000	33.327474
16.420000	33.327474
16.430000	33.327474
16.440000	33.327474
16.450000	33.327474
16.460000	33.327474
16.470000	33.327474
16.480000	33.327474
16.490000	33.327474
16.500000	33.155037
16.510000	33.155037
16.520000	33.155037
16.530000	33.155037
16.540000	33.155037
16.550000	33.155037
16.560000	33.155037
16.570000	33.155037
16.580000	33.155037
16.590000	33.155037
16.600000	33.155037
16.610000	33.155037
16.620000	33.155037
16.630000	33.155037
16.640000	33.155037
16.650000	33.155037
16.660000	33.155037
16.670000	33.155037
16.680000	33.155037
16.690000	33.155037
16.700000	33.155037
16.710000	33.155037
16.720000	33.155037
16.730000	33.155037
16.740000	33.155037
16.750000	33.155037
16.760000	33.155037
16.770000	33.155037
16.780000	33.155037
16.790000	33.155037
16.800000	33.155037
16.810000	33.155037
16.820000	33.155037
16.830000	33.155037
16.840000	33.155037
16.850000	33.155037
16.860000	33.155037
16.870000	33.155037
16.880000	33.155037
16.890000	33.155037
16.900000	33.155037
16.910000	33.155037
16.920000	33.155037
16.930000	33.155037
16.940000	33.155037
16.950000	33.155037
16.960000	33.155037
16.970000	33.155037
16.980000	33.155037
16.990000	33.155037
17.000000	32.994705
17.010000	32.994705
17.020000	32.994705
17.030000	32.994705
17.040000	32.994705
17.050000	32.994705
17.060000	32.994705
17.070000	32.994705
17.080000	32.994705
17.090000	32.994705
17.100000	32.994705
17.110000	32.994705
17.120000	32.994705
17.130000	32.994705
17.140000	32.994705
17.150000	32.994705
17.160000	32.994705
17.170000	32.994705
17.180000	32.994705
17.190000	32.994705
17.200000	32.994705
17.210000	32.994705
17.220000	32.994705
17.230000	32.994705
17.240000	32.994705
17.250000	32.994705
17.260000	32.994705
17.270000	32.994705
17.280000	32.994705
17.290000	32.994705
17.300000	32.994705
17.310000	32.994705
17.320000	32.994705
17.330000	32.994705
17.340000	32.994705
17.350000	32.994705
17.360000	32.994705
17.370000	32.994705
17.380000	32.994705
17.390000	32.994705
17.400000	32.994705
17.410000	32.994705
17.420000	32.994705
17.430000	32.994705
17.440000	32.994705
17.450000	32.994705
17.460000	32.994705
17.470000	32.994705
17.480000	32.994705
17.490000	32.994705
