LabVIEW Measurement	
Writer_Version	2
Reader_Version	2
Separator	Tab
Decimal_Separator	.
Multi_Headings	No
X_Columns	One
Time_Pref	Absolute
Operator	biomech-dyno
Date	2023/04/27
Time	17:41:55.9338632999999876419
***End_of_Header***	
	
Channels	1	
Samples	10	
Date	2023/04/27	
Time	19:35:14.4340478999997286492	
X_Dimension	Time	
X0	0.0000000000000000E+0	
Delta_X	0.010000	
***End_of_Header***		
X_Value	Untitled	Comment
0.000000	24.724711
0.010000	24.724711
0.020000	24.724711
0.030000	24.724711
0.040000	24.724711
0.050000	24.724711
0.060000	24.724711
0.070000	24.724711
0.080000	24.724711
0.090000	24.724711
0.100000	24.724711
0.110000	24.724711
0.120000	24.724711
0.130000	24.724711
0.140000	24.724711
0.150000	24.724711
0.160000	24.724711
0.170000	24.724711
0.180000	24.724711
0.190000	24.724711
0.200000	24.724711
0.210000	24.724711
0.220000	24.724711
0.230000	24.724711
0.240000	24.724711
0.250000	24.724711
0.260000	24.724711
0.270000	24.724711
0.280000	24.724711
0.290000	24.724711
0.300000	24.724711
0.310000	24.724711
0.320000	24.724711
0.330000	24.724711
0.340000	24.724711
0.350000	24.724711
0.360000	24.724711
0.370000	24.724711
0.380000	24.724711
0.390000	24.724711
0.400000	24.724711
0.410000	24.724711
0.420000	24.724711
0.430000	24.724711
0.440000	24.724711
0.450000	24.724711
0.460000	24.724711
0.470000	24.724711
0.480000	24.724711
0.490000	24.724711
0.500000	24.735468
0.510000	24.735468
0.520000	24.735468
0.530000	24.735468
0.540000	24.735468
0.550000	24.735468
0.560000	24.735468
0.570000	24.735468
0.580000	24.735468
0.590000	24.735468
0.600000	24.735468
0.610000	24.735468
0.620000	24.735468
0.630000	24.735468
0.640000	24.735468
0.650000	24.735468
0.660000	24.735468
0.670000	24.735468
0.680000	24.735468
0.690000	24.735468
0.700000	24.735468
0.710000	24.735468
0.720000	24.735468
0.730000	24.735468
0.740000	24.735468
0.750000	24.735468
0.760000	24.735468
0.770000	24.735468
0.780000	24.735468
0.790000	24.735468
0.800000	24.735468
0.810000	24.735468
0.820000	24.735468
0.830000	24.735468
0.840000	24.735468
0.850000	24.735468
0.860000	24.735468
0.870000	24.735468
0.880000	24.735468
0.890000	24.735468
0.900000	24.735468
0.910000	24.735468
0.920000	24.735468
0.930000	24.735468
0.940000	24.735468
0.950000	24.735468
0.960000	24.735468
0.970000	24.735468
0.980000	24.735468
0.990000	24.735468
1.000000	24.772639
1.010000	24.772639
1.020000	24.772639
1.030000	24.772639
1.040000	24.772639
1.050000	24.772639
1.060000	24.772639
1.070000	24.772639
1.080000	24.772639
1.090000	24.772639
1.100000	24.772639
1.110000	24.772639
1.120000	24.772639
1.130000	24.772639
1.140000	24.772639
1.150000	24.772639
1.160000	24.772639
1.170000	24.772639
1.180000	24.772639
1.190000	24.772639
1.200000	24.772639
1.210000	24.772639
1.220000	24.772639
1.230000	24.772639
1.240000	24.772639
1.250000	24.772639
1.260000	24.772639
1.270000	24.772639
1.280000	24.772639
1.290000	24.772639
1.300000	24.772639
1.310000	24.772639
1.320000	24.772639
1.330000	24.772639
1.340000	24.772639
1.350000	24.772639
1.360000	24.772639
1.370000	24.772639
1.380000	24.772639
1.390000	24.772639
1.400000	24.772639
1.410000	24.772639
1.420000	24.772639
1.430000	24.772639
1.440000	24.772639
1.450000	24.772639
1.460000	24.772639
1.470000	24.772639
1.480000	24.772639
1.490000	24.772639
1.500000	24.850470
1.510000	24.850470
1.520000	24.850470
1.530000	24.850470
1.540000	24.850470
1.550000	24.850470
1.560000	24.850470
1.570000	24.850470
1.580000	24.850470
1.590000	24.850470
1.600000	24.850470
1.610000	24.850470
1.620000	24.850470
1.630000	24.850470
1.640000	24.850470
1.650000	24.850470
1.660000	24.850470
1.670000	24.850470
1.680000	24.850470
1.690000	24.850470
1.700000	24.850470
1.710000	24.850470
1.720000	24.850470
1.730000	24.850470
1.740000	24.850470
1.750000	24.850470
1.760000	24.850470
1.770000	24.850470
1.780000	24.850470
1.790000	24.850470
1.800000	24.850470
1.810000	24.850470
1.820000	24.850470
1.830000	24.850470
1.840000	24.850470
1.850000	24.850470
1.860000	24.850470
1.870000	24.850470
1.880000	24.850470
1.890000	24.850470
1.900000	24.850470
1.910000	24.850470
1.920000	24.850470
1.930000	24.850470
1.940000	24.850470
1.950000	24.850470
1.960000	24.850470
1.970000	24.850470
1.980000	24.850470
1.990000	24.850470
2.000000	24.960664
2.010000	24.960664
2.020000	24.960664
2.030000	24.960664
2.040000	24.960664
2.050000	24.960664
2.060000	24.960664
2.070000	24.960664
2.080000	24.960664
2.090000	24.960664
2.100000	24.960664
2.110000	24.960664
2.120000	24.960664
2.130000	24.960664
2.140000	24.960664
2.150000	24.960664
2.160000	24.960664
2.170000	24.960664
2.180000	24.960664
2.190000	24.960664
2.200000	24.960664
2.210000	24.960664
2.220000	24.960664
2.230000	24.960664
2.240000	24.960664
2.250000	24.960664
2.260000	24.960664
2.270000	24.960664
2.280000	24.960664
2.290000	24.960664
2.300000	24.960664
2.310000	24.960664
2.320000	24.960664
2.330000	24.960664
2.340000	24.960664
2.350000	24.960664
2.360000	24.960664
2.370000	24.960664
2.380000	24.960664
2.390000	24.960664
2.400000	24.960664
2.410000	24.960664
2.420000	24.960664
2.430000	24.960664
2.440000	24.960664
2.450000	24.960664
2.460000	24.960664
2.470000	24.960664
2.480000	24.960664
2.490000	24.960664
2.500000	25.094719
2.510000	25.094719
2.520000	25.094719
2.530000	25.094719
2.540000	25.094719
2.550000	25.094719
2.560000	25.094719
2.570000	25.094719
2.580000	25.094719
2.590000	25.094719
2.600000	25.094719
2.610000	25.094719
2.620000	25.094719
2.630000	25.094719
2.640000	25.094719
2.650000	25.094719
2.660000	25.094719
2.670000	25.094719
2.680000	25.094719
2.690000	25.094719
2.700000	25.094719
2.710000	25.094719
2.720000	25.094719
2.730000	25.094719
2.740000	25.094719
2.750000	25.094719
2.760000	25.094719
2.770000	25.094719
2.780000	25.094719
2.790000	25.094719
2.800000	25.094719
2.810000	25.094719
2.820000	25.094719
2.830000	25.094719
2.840000	25.094719
2.850000	25.094719
2.860000	25.094719
2.870000	25.094719
2.880000	25.094719
2.890000	25.094719
2.900000	25.094719
2.910000	25.094719
2.920000	25.094719
2.930000	25.094719
2.940000	25.094719
2.950000	25.094719
2.960000	25.094719
2.970000	25.094719
2.980000	25.094719
2.990000	25.094719
3.000000	25.236301
3.010000	25.236301
3.020000	25.236301
3.030000	25.236301
3.040000	25.236301
3.050000	25.236301
3.060000	25.236301
3.070000	25.236301
3.080000	25.236301
3.090000	25.236301
3.100000	25.236301
3.110000	25.236301
3.120000	25.236301
3.130000	25.236301
3.140000	25.236301
3.150000	25.236301
3.160000	25.236301
3.170000	25.236301
3.180000	25.236301
3.190000	25.236301
3.200000	25.236301
3.210000	25.236301
3.220000	25.236301
3.230000	25.236301
3.240000	25.236301
3.250000	25.236301
3.260000	25.236301
3.270000	25.236301
3.280000	25.236301
3.290000	25.236301
3.300000	25.236301
3.310000	25.236301
3.320000	25.236301
3.330000	25.236301
3.340000	25.236301
3.350000	25.236301
3.360000	25.236301
3.370000	25.236301
3.380000	25.236301
3.390000	25.236301
3.400000	25.236301
3.410000	25.236301
3.420000	25.236301
3.430000	25.236301
3.440000	25.236301
3.450000	25.236301
3.460000	25.236301
3.470000	25.236301
3.480000	25.236301
3.490000	25.236301
3.500000	25.353123
3.510000	25.353123
3.520000	25.353123
3.530000	25.353123
3.540000	25.353123
3.550000	25.353123
3.560000	25.353123
3.570000	25.353123
3.580000	25.353123
3.590000	25.353123
3.600000	25.353123
3.610000	25.353123
3.620000	25.353123
3.630000	25.353123
3.640000	25.353123
3.650000	25.353123
3.660000	25.353123
3.670000	25.353123
3.680000	25.353123
3.690000	25.353123
3.700000	25.353123
3.710000	25.353123
3.720000	25.353123
3.730000	25.353123
3.740000	25.353123
3.750000	25.353123
3.760000	25.353123
3.770000	25.353123
3.780000	25.353123
3.790000	25.353123
3.800000	25.353123
3.810000	25.353123
3.820000	25.353123
3.830000	25.353123
3.840000	25.353123
3.850000	25.353123
3.860000	25.353123
3.870000	25.353123
3.880000	25.353123
3.890000	25.353123
3.900000	25.353123
3.910000	25.353123
3.920000	25.353123
3.930000	25.353123
3.940000	25.353123
3.950000	25.353123
3.960000	25.353123
3.970000	25.353123
3.980000	25.353123
3.990000	25.353123
4.000000	25.439652
4.010000	25.439652
4.020000	25.439652
4.030000	25.439652
4.040000	25.439652
4.050000	25.439652
4.060000	25.439652
4.070000	25.439652
4.080000	25.439652
4.090000	25.439652
4.100000	25.439652
4.110000	25.439652
4.120000	25.439652
4.130000	25.439652
4.140000	25.439652
4.150000	25.439652
4.160000	25.439652
4.170000	25.439652
4.180000	25.439652
4.190000	25.439652
4.200000	25.439652
4.210000	25.439652
4.220000	25.439652
4.230000	25.439652
4.240000	25.439652
4.250000	25.439652
4.260000	25.439652
4.270000	25.439652
4.280000	25.439652
4.290000	25.439652
4.300000	25.439652
4.310000	25.439652
4.320000	25.439652
4.330000	25.439652
4.340000	25.439652
4.350000	25.439652
4.360000	25.439652
4.370000	25.439652
4.380000	25.439652
4.390000	25.439652
4.400000	25.439652
4.410000	25.439652
4.420000	25.439652
4.430000	25.439652
4.440000	25.439652
4.450000	25.439652
4.460000	25.439652
4.470000	25.439652
4.480000	25.439652
4.490000	25.439652
4.500000	25.499234
4.510000	25.499234
4.520000	25.499234
4.530000	25.499234
4.540000	25.499234
4.550000	25.499234
4.560000	25.499234
4.570000	25.499234
4.580000	25.499234
4.590000	25.499234
4.600000	25.499234
4.610000	25.499234
4.620000	25.499234
4.630000	25.499234
4.640000	25.499234
4.650000	25.499234
4.660000	25.499234
4.670000	25.499234
4.680000	25.499234
4.690000	25.499234
4.700000	25.499234
4.710000	25.499234
4.720000	25.499234
4.730000	25.499234
4.740000	25.499234
4.750000	25.499234
4.760000	25.499234
4.770000	25.499234
4.780000	25.499234
4.790000	25.499234
4.800000	25.499234
4.810000	25.499234
4.820000	25.499234
4.830000	25.499234
4.840000	25.499234
4.850000	25.499234
4.860000	25.499234
4.870000	25.499234
4.880000	25.499234
4.890000	25.499234
4.900000	25.499234
4.910000	25.499234
4.920000	25.499234
4.930000	25.499234
4.940000	25.499234
4.950000	25.499234
4.960000	25.499234
4.970000	25.499234
4.980000	25.499234
4.990000	25.499234
5.000000	25.540397
5.010000	25.540397
5.020000	25.540397
5.030000	25.540397
5.040000	25.540397
5.050000	25.540397
5.060000	25.540397
5.070000	25.540397
5.080000	25.540397
5.090000	25.540397
5.100000	25.540397
5.110000	25.540397
5.120000	25.540397
5.130000	25.540397
5.140000	25.540397
5.150000	25.540397
5.160000	25.540397
5.170000	25.540397
5.180000	25.540397
5.190000	25.540397
5.200000	25.540397
5.210000	25.540397
5.220000	25.540397
5.230000	25.540397
5.240000	25.540397
5.250000	25.540397
5.260000	25.540397
5.270000	25.540397
5.280000	25.540397
5.290000	25.540397
5.300000	25.540397
5.310000	25.540397
5.320000	25.540397
5.330000	25.540397
5.340000	25.540397
5.350000	25.540397
5.360000	25.540397
5.370000	25.540397
5.380000	25.540397
5.390000	25.540397
5.400000	25.540397
5.410000	25.540397
5.420000	25.540397
5.430000	25.540397
5.440000	25.540397
5.450000	25.540397
5.460000	25.540397
5.470000	25.540397
5.480000	25.540397
5.490000	25.540397
5.500000	25.567015
5.510000	25.567015
5.520000	25.567015
5.530000	25.567015
5.540000	25.567015
5.550000	25.567015
5.560000	25.567015
5.570000	25.567015
5.580000	25.567015
5.590000	25.567015
5.600000	25.567015
5.610000	25.567015
5.620000	25.567015
5.630000	25.567015
5.640000	25.567015
5.650000	25.567015
5.660000	25.567015
5.670000	25.567015
5.680000	25.567015
5.690000	25.567015
5.700000	25.567015
5.710000	25.567015
5.720000	25.567015
5.730000	25.567015
5.740000	25.567015
5.750000	25.567015
5.760000	25.567015
5.770000	25.567015
5.780000	25.567015
5.790000	25.567015
5.800000	25.567015
5.810000	25.567015
5.820000	25.567015
5.830000	25.567015
5.840000	25.567015
5.850000	25.567015
5.860000	25.567015
5.870000	25.567015
5.880000	25.567015
5.890000	25.567015
5.900000	25.567015
5.910000	25.567015
5.920000	25.567015
5.930000	25.567015
5.940000	25.567015
5.950000	25.567015
5.960000	25.567015
5.970000	25.567015
5.980000	25.567015
5.990000	25.567015
6.000000	25.582054
6.010000	25.582054
6.020000	25.582054
6.030000	25.582054
6.040000	25.582054
6.050000	25.582054
6.060000	25.582054
6.070000	25.582054
6.080000	25.582054
6.090000	25.582054
6.100000	25.582054
6.110000	25.582054
6.120000	25.582054
6.130000	25.582054
6.140000	25.582054
6.150000	25.582054
6.160000	25.582054
6.170000	25.582054
6.180000	25.582054
6.190000	25.582054
6.200000	25.582054
6.210000	25.582054
6.220000	25.582054
6.230000	25.582054
6.240000	25.582054
6.250000	25.582054
6.260000	25.582054
6.270000	25.582054
6.280000	25.582054
6.290000	25.582054
6.300000	25.582054
6.310000	25.582054
6.320000	25.582054
6.330000	25.582054
6.340000	25.582054
6.350000	25.582054
6.360000	25.582054
6.370000	25.582054
6.380000	25.582054
6.390000	25.582054
6.400000	25.582054
6.410000	25.582054
6.420000	25.582054
6.430000	25.582054
6.440000	25.582054
6.450000	25.582054
6.460000	25.582054
6.470000	25.582054
6.480000	25.582054
6.490000	25.582054
6.500000	25.587543
6.510000	25.587543
6.520000	25.587543
6.530000	25.587543
6.540000	25.587543
6.550000	25.587543
6.560000	25.587543
6.570000	25.587543
6.580000	25.587543
6.590000	25.587543
6.600000	25.587543
6.610000	25.587543
6.620000	25.587543
6.630000	25.587543
6.640000	25.587543
6.650000	25.587543
6.660000	25.587543
6.670000	25.587543
6.680000	25.587543
6.690000	25.587543
6.700000	25.587543
6.710000	25.587543
6.720000	25.587543
6.730000	25.587543
6.740000	25.587543
6.750000	25.587543
6.760000	25.587543
6.770000	25.587543
6.780000	25.587543
6.790000	25.587543
6.800000	25.587543
6.810000	25.587543
6.820000	25.587543
6.830000	25.587543
6.840000	25.587543
6.850000	25.587543
6.860000	25.587543
6.870000	25.587543
6.880000	25.587543
6.890000	25.587543
6.900000	25.587543
6.910000	25.587543
6.920000	25.587543
6.930000	25.587543
6.940000	25.587543
6.950000	25.587543
6.960000	25.587543
6.970000	25.587543
6.980000	25.587543
6.990000	25.587543
7.000000	25.590628
7.010000	25.590628
7.020000	25.590628
7.030000	25.590628
7.040000	25.590628
7.050000	25.590628
7.060000	25.590628
7.070000	25.590628
7.080000	25.590628
7.090000	25.590628
7.100000	25.590628
7.110000	25.590628
7.120000	25.590628
7.130000	25.590628
7.140000	25.590628
7.150000	25.590628
7.160000	25.590628
7.170000	25.590628
7.180000	25.590628
7.190000	25.590628
7.200000	25.590628
7.210000	25.590628
7.220000	25.590628
7.230000	25.590628
7.240000	25.590628
7.250000	25.590628
7.260000	25.590628
7.270000	25.590628
7.280000	25.590628
7.290000	25.590628
7.300000	25.590628
7.310000	25.590628
7.320000	25.590628
7.330000	25.590628
7.340000	25.590628
7.350000	25.590628
7.360000	25.590628
7.370000	25.590628
7.380000	25.590628
7.390000	25.590628
7.400000	25.590628
7.410000	25.590628
7.420000	25.590628
7.430000	25.590628
7.440000	25.590628
7.450000	25.590628
7.460000	25.590628
7.470000	25.590628
7.480000	25.590628
7.490000	25.590628
7.500000	25.591148
7.510000	25.591148
7.520000	25.591148
7.530000	25.591148
7.540000	25.591148
7.550000	25.591148
7.560000	25.591148
7.570000	25.591148
7.580000	25.591148
7.590000	25.591148
7.600000	25.591148
7.610000	25.591148
7.620000	25.591148
7.630000	25.591148
7.640000	25.591148
7.650000	25.591148
7.660000	25.591148
7.670000	25.591148
7.680000	25.591148
7.690000	25.591148
7.700000	25.591148
7.710000	25.591148
7.720000	25.591148
7.730000	25.591148
7.740000	25.591148
7.750000	25.591148
7.760000	25.591148
7.770000	25.591148
7.780000	25.591148
7.790000	25.591148
7.800000	25.591148
7.810000	25.591148
7.820000	25.591148
7.830000	25.591148
7.840000	25.591148
7.850000	25.591148
7.860000	25.591148
7.870000	25.591148
7.880000	25.591148
7.890000	25.591148
7.900000	25.591148
7.910000	25.591148
7.920000	25.591148
7.930000	25.591148
7.940000	25.591148
7.950000	25.591148
7.960000	25.591148
7.970000	25.591148
7.980000	25.591148
7.990000	25.591148
8.000000	25.587415
8.010000	25.587415
8.020000	25.587415
8.030000	25.587415
8.040000	25.587415
8.050000	25.587415
8.060000	25.587415
8.070000	25.587415
8.080000	25.587415
8.090000	25.587415
8.100000	25.587415
8.110000	25.587415
8.120000	25.587415
8.130000	25.587415
8.140000	25.587415
8.150000	25.587415
8.160000	25.587415
8.170000	25.587415
8.180000	25.587415
8.190000	25.587415
8.200000	25.587415
8.210000	25.587415
8.220000	25.587415
8.230000	25.587415
8.240000	25.587415
8.250000	25.587415
8.260000	25.587415
8.270000	25.587415
8.280000	25.587415
8.290000	25.587415
8.300000	25.587415
8.310000	25.587415
8.320000	25.587415
8.330000	25.587415
8.340000	25.587415
8.350000	25.587415
8.360000	25.587415
8.370000	25.587415
8.380000	25.587415
8.390000	25.587415
8.400000	25.587415
8.410000	25.587415
8.420000	25.587415
8.430000	25.587415
8.440000	25.587415
8.450000	25.587415
8.460000	25.587415
8.470000	25.587415
8.480000	25.587415
8.490000	25.587415
8.500000	25.580255
8.510000	25.580255
8.520000	25.580255
8.530000	25.580255
8.540000	25.580255
8.550000	25.580255
8.560000	25.580255
8.570000	25.580255
8.580000	25.580255
8.590000	25.580255
8.600000	25.580255
8.610000	25.580255
8.620000	25.580255
8.630000	25.580255
8.640000	25.580255
8.650000	25.580255
8.660000	25.580255
8.670000	25.580255
8.680000	25.580255
8.690000	25.580255
8.700000	25.580255
8.710000	25.580255
8.720000	25.580255
8.730000	25.580255
8.740000	25.580255
8.750000	25.580255
8.760000	25.580255
8.770000	25.580255
8.780000	25.580255
8.790000	25.580255
8.800000	25.580255
8.810000	25.580255
8.820000	25.580255
8.830000	25.580255
8.840000	25.580255
8.850000	25.580255
8.860000	25.580255
8.870000	25.580255
8.880000	25.580255
8.890000	25.580255
8.900000	25.580255
8.910000	25.580255
8.920000	25.580255
8.930000	25.580255
8.940000	25.580255
8.950000	25.580255
8.960000	25.580255
8.970000	25.580255
8.980000	25.580255
8.990000	25.580255
9.000000	25.571875
9.010000	25.571875
9.020000	25.571875
9.030000	25.571875
9.040000	25.571875
9.050000	25.571875
9.060000	25.571875
9.070000	25.571875
9.080000	25.571875
9.090000	25.571875
9.100000	25.571875
9.110000	25.571875
9.120000	25.571875
9.130000	25.571875
9.140000	25.571875
9.150000	25.571875
9.160000	25.571875
9.170000	25.571875
9.180000	25.571875
9.190000	25.571875
9.200000	25.571875
9.210000	25.571875
9.220000	25.571875
9.230000	25.571875
9.240000	25.571875
9.250000	25.571875
9.260000	25.571875
9.270000	25.571875
9.280000	25.571875
9.290000	25.571875
9.300000	25.571875
9.310000	25.571875
9.320000	25.571875
9.330000	25.571875
9.340000	25.571875
9.350000	25.571875
9.360000	25.571875
9.370000	25.571875
9.380000	25.571875
9.390000	25.571875
9.400000	25.571875
9.410000	25.571875
9.420000	25.571875
9.430000	25.571875
9.440000	25.571875
9.450000	25.571875
9.460000	25.571875
9.470000	25.571875
9.480000	25.571875
9.490000	25.571875
9.500000	25.562112
9.510000	25.562112
9.520000	25.562112
9.530000	25.562112
9.540000	25.562112
9.550000	25.562112
9.560000	25.562112
9.570000	25.562112
9.580000	25.562112
9.590000	25.562112
9.600000	25.562112
9.610000	25.562112
9.620000	25.562112
9.630000	25.562112
9.640000	25.562112
9.650000	25.562112
9.660000	25.562112
9.670000	25.562112
9.680000	25.562112
9.690000	25.562112
9.700000	25.562112
9.710000	25.562112
9.720000	25.562112
9.730000	25.562112
9.740000	25.562112
9.750000	25.562112
9.760000	25.562112
9.770000	25.562112
9.780000	25.562112
9.790000	25.562112
9.800000	25.562112
9.810000	25.562112
9.820000	25.562112
9.830000	25.562112
9.840000	25.562112
9.850000	25.562112
9.860000	25.562112
9.870000	25.562112
9.880000	25.562112
9.890000	25.562112
9.900000	25.562112
9.910000	25.562112
9.920000	25.562112
9.930000	25.562112
9.940000	25.562112
9.950000	25.562112
9.960000	25.562112
9.970000	25.562112
9.980000	25.562112
9.990000	25.562112
10.000000	25.551290
10.010000	25.551290
10.020000	25.551290
10.030000	25.551290
10.040000	25.551290
10.050000	25.551290
10.060000	25.551290
10.070000	25.551290
10.080000	25.551290
10.090000	25.551290
10.100000	25.551290
10.110000	25.551290
10.120000	25.551290
10.130000	25.551290
10.140000	25.551290
10.150000	25.551290
10.160000	25.551290
10.170000	25.551290
10.180000	25.551290
10.190000	25.551290
10.200000	25.551290
10.210000	25.551290
10.220000	25.551290
10.230000	25.551290
10.240000	25.551290
10.250000	25.551290
10.260000	25.551290
10.270000	25.551290
10.280000	25.551290
10.290000	25.551290
10.300000	25.551290
10.310000	25.551290
10.320000	25.551290
10.330000	25.551290
10.340000	25.551290
10.350000	25.551290
10.360000	25.551290
10.370000	25.551290
10.380000	25.551290
10.390000	25.551290
10.400000	25.551290
10.410000	25.551290
10.420000	25.551290
10.430000	25.551290
10.440000	25.551290
10.450000	25.551290
10.460000	25.551290
10.470000	25.551290
10.480000	25.551290
10.490000	25.551290
10.500000	25.540047
10.510000	25.540047
10.520000	25.540047
10.530000	25.540047
10.540000	25.540047
10.550000	25.540047
10.560000	25.540047
10.570000	25.540047
10.580000	25.540047
10.590000	25.540047
10.600000	25.540047
10.610000	25.540047
10.620000	25.540047
10.630000	25.540047
10.640000	25.540047
10.650000	25.540047
10.660000	25.540047
10.670000	25.540047
10.680000	25.540047
10.690000	25.540047
10.700000	25.540047
10.710000	25.540047
10.720000	25.540047
10.730000	25.540047
10.740000	25.540047
10.750000	25.540047
10.760000	25.540047
10.770000	25.540047
10.780000	25.540047
10.790000	25.540047
10.800000	25.540047
10.810000	25.540047
10.820000	25.540047
10.830000	25.540047
10.840000	25.540047
10.850000	25.540047
10.860000	25.540047
10.870000	25.540047
10.880000	25.540047
10.890000	25.540047
10.900000	25.540047
10.910000	25.540047
10.920000	25.540047
10.930000	25.540047
10.940000	25.540047
10.950000	25.540047
10.960000	25.540047
10.970000	25.540047
10.980000	25.540047
10.990000	25.540047
11.000000	25.528699
11.010000	25.528699
11.020000	25.528699
11.030000	25.528699
11.040000	25.528699
11.050000	25.528699
11.060000	25.528699
11.070000	25.528699
11.080000	25.528699
11.090000	25.528699
11.100000	25.528699
11.110000	25.528699
11.120000	25.528699
11.130000	25.528699
11.140000	25.528699
11.150000	25.528699
11.160000	25.528699
11.170000	25.528699
11.180000	25.528699
11.190000	25.528699
11.200000	25.528699
11.210000	25.528699
11.220000	25.528699
11.230000	25.528699
11.240000	25.528699
11.250000	25.528699
11.260000	25.528699
11.270000	25.528699
11.280000	25.528699
11.290000	25.528699
11.300000	25.528699
11.310000	25.528699
11.320000	25.528699
11.330000	25.528699
11.340000	25.528699
11.350000	25.528699
11.360000	25.528699
11.370000	25.528699
11.380000	25.528699
11.390000	25.528699
11.400000	25.528699
11.410000	25.528699
11.420000	25.528699
11.430000	25.528699
11.440000	25.528699
11.450000	25.528699
11.460000	25.528699
11.470000	25.528699
11.480000	25.528699
11.490000	25.528699
11.500000	25.516461
11.510000	25.516461
11.520000	25.516461
11.530000	25.516461
11.540000	25.516461
11.550000	25.516461
11.560000	25.516461
11.570000	25.516461
11.580000	25.516461
11.590000	25.516461
11.600000	25.516461
11.610000	25.516461
11.620000	25.516461
11.630000	25.516461
11.640000	25.516461
11.650000	25.516461
11.660000	25.516461
11.670000	25.516461
11.680000	25.516461
11.690000	25.516461
11.700000	25.516461
11.710000	25.516461
11.720000	25.516461
11.730000	25.516461
11.740000	25.516461
11.750000	25.516461
11.760000	25.516461
11.770000	25.516461
11.780000	25.516461
11.790000	25.516461
11.800000	25.516461
11.810000	25.516461
11.820000	25.516461
11.830000	25.516461
11.840000	25.516461
11.850000	25.516461
11.860000	25.516461
11.870000	25.516461
11.880000	25.516461
11.890000	25.516461
11.900000	25.516461
11.910000	25.516461
11.920000	25.516461
11.930000	25.516461
11.940000	25.516461
11.950000	25.516461
11.960000	25.516461
11.970000	25.516461
11.980000	25.516461
11.990000	25.516461
12.000000	25.504050
12.010000	25.504050
12.020000	25.504050
12.030000	25.504050
12.040000	25.504050
12.050000	25.504050
12.060000	25.504050
12.070000	25.504050
12.080000	25.504050
12.090000	25.504050
12.100000	25.504050
12.110000	25.504050
12.120000	25.504050
12.130000	25.504050
12.140000	25.504050
12.150000	25.504050
12.160000	25.504050
12.170000	25.504050
12.180000	25.504050
12.190000	25.504050
12.200000	25.504050
12.210000	25.504050
12.220000	25.504050
12.230000	25.504050
12.240000	25.504050
12.250000	25.504050
12.260000	25.504050
12.270000	25.504050
12.280000	25.504050
12.290000	25.504050
12.300000	25.504050
12.310000	25.504050
12.320000	25.504050
12.330000	25.504050
12.340000	25.504050
12.350000	25.504050
12.360000	25.504050
12.370000	25.504050
12.380000	25.504050
12.390000	25.504050
12.400000	25.504050
12.410000	25.504050
12.420000	25.504050
12.430000	25.504050
12.440000	25.504050
12.450000	25.504050
12.460000	25.504050
12.470000	25.504050
12.480000	25.504050
12.490000	25.504050
12.500000	25.491421
12.510000	25.491421
12.520000	25.491421
12.530000	25.491421
12.540000	25.491421
12.550000	25.491421
12.560000	25.491421
12.570000	25.491421
12.580000	25.491421
12.590000	25.491421
12.600000	25.491421
12.610000	25.491421
12.620000	25.491421
12.630000	25.491421
12.640000	25.491421
12.650000	25.491421
12.660000	25.491421
12.670000	25.491421
12.680000	25.491421
12.690000	25.491421
12.700000	25.491421
12.710000	25.491421
12.720000	25.491421
12.730000	25.491421
12.740000	25.491421
12.750000	25.491421
12.760000	25.491421
12.770000	25.491421
12.780000	25.491421
12.790000	25.491421
12.800000	25.491421
12.810000	25.491421
12.820000	25.491421
12.830000	25.491421
12.840000	25.491421
12.850000	25.491421
12.860000	25.491421
12.870000	25.491421
12.880000	25.491421
12.890000	25.491421
12.900000	25.491421
12.910000	25.491421
12.920000	25.491421
12.930000	25.491421
12.940000	25.491421
12.950000	25.491421
12.960000	25.491421
12.970000	25.491421
12.980000	25.491421
12.990000	25.491421
13.000000	25.478678
13.010000	25.478678
13.020000	25.478678
13.030000	25.478678
13.040000	25.478678
13.050000	25.478678
13.060000	25.478678
13.070000	25.478678
13.080000	25.478678
13.090000	25.478678
13.100000	25.478678
13.110000	25.478678
13.120000	25.478678
13.130000	25.478678
13.140000	25.478678
13.150000	25.478678
13.160000	25.478678
13.170000	25.478678
13.180000	25.478678
13.190000	25.478678
13.200000	25.478678
13.210000	25.478678
13.220000	25.478678
13.230000	25.478678
13.240000	25.478678
13.250000	25.478678
13.260000	25.478678
13.270000	25.478678
13.280000	25.478678
13.290000	25.478678
13.300000	25.478678
13.310000	25.478678
13.320000	25.478678
13.330000	25.478678
13.340000	25.478678
13.350000	25.478678
13.360000	25.478678
13.370000	25.478678
13.380000	25.478678
13.390000	25.478678
13.400000	25.478678
13.410000	25.478678
13.420000	25.478678
13.430000	25.478678
13.440000	25.478678
13.450000	25.478678
13.460000	25.478678
13.470000	25.478678
13.480000	25.478678
13.490000	25.478678
13.500000	25.465608
13.510000	25.465608
13.520000	25.465608
13.530000	25.465608
13.540000	25.465608
13.550000	25.465608
13.560000	25.465608
13.570000	25.465608
13.580000	25.465608
13.590000	25.465608
13.600000	25.465608
13.610000	25.465608
13.620000	25.465608
13.630000	25.465608
13.640000	25.465608
13.650000	25.465608
13.660000	25.465608
13.670000	25.465608
13.680000	25.465608
13.690000	25.465608
13.700000	25.465608
13.710000	25.465608
13.720000	25.465608
13.730000	25.465608
13.740000	25.465608
13.750000	25.465608
13.760000	25.465608
13.770000	25.465608
13.780000	25.465608
13.790000	25.465608
13.800000	25.465608
13.810000	25.465608
13.820000	25.465608
13.830000	25.465608
13.840000	25.465608
13.850000	25.465608
13.860000	25.465608
13.870000	25.465608
13.880000	25.465608
13.890000	25.465608
13.900000	25.465608
13.910000	25.465608
13.920000	25.465608
13.930000	25.465608
13.940000	25.465608
13.950000	25.465608
13.960000	25.465608
13.970000	25.465608
13.980000	25.465608
13.990000	25.465608
14.000000	25.452661
14.010000	25.452661
14.020000	25.452661
14.030000	25.452661
14.040000	25.452661
14.050000	25.452661
14.060000	25.452661
14.070000	25.452661
14.080000	25.452661
14.090000	25.452661
14.100000	25.452661
14.110000	25.452661
14.120000	25.452661
14.130000	25.452661
14.140000	25.452661
14.150000	25.452661
14.160000	25.452661
14.170000	25.452661
14.180000	25.452661
14.190000	25.452661
14.200000	25.452661
14.210000	25.452661
14.220000	25.452661
14.230000	25.452661
14.240000	25.452661
14.250000	25.452661
14.260000	25.452661
14.270000	25.452661
14.280000	25.452661
14.290000	25.452661
14.300000	25.452661
14.310000	25.452661
14.320000	25.452661
14.330000	25.452661
14.340000	25.452661
14.350000	25.452661
14.360000	25.452661
14.370000	25.452661
14.380000	25.452661
14.390000	25.452661
14.400000	25.452661
14.410000	25.452661
14.420000	25.452661
14.430000	25.452661
14.440000	25.452661
14.450000	25.452661
14.460000	25.452661
14.470000	25.452661
14.480000	25.452661
14.490000	25.452661
14.500000	25.438900
14.510000	25.438900
14.520000	25.438900
14.530000	25.438900
14.540000	25.438900
14.550000	25.438900
14.560000	25.438900
14.570000	25.438900
14.580000	25.438900
14.590000	25.438900
14.600000	25.438900
14.610000	25.438900
14.620000	25.438900
14.630000	25.438900
14.640000	25.438900
14.650000	25.438900
14.660000	25.438900
14.670000	25.438900
14.680000	25.438900
14.690000	25.438900
14.700000	25.438900
14.710000	25.438900
14.720000	25.438900
14.730000	25.438900
14.740000	25.438900
14.750000	25.438900
14.760000	25.438900
14.770000	25.438900
14.780000	25.438900
14.790000	25.438900
14.800000	25.438900
14.810000	25.438900
14.820000	25.438900
14.830000	25.438900
14.840000	25.438900
14.850000	25.438900
14.860000	25.438900
14.870000	25.438900
14.880000	25.438900
14.890000	25.438900
14.900000	25.438900
14.910000	25.438900
14.920000	25.438900
14.930000	25.438900
14.940000	25.438900
14.950000	25.438900
14.960000	25.438900
14.970000	25.438900
14.980000	25.438900
14.990000	25.438900
15.000000	25.425340
15.010000	25.425340
15.020000	25.425340
15.030000	25.425340
15.040000	25.425340
15.050000	25.425340
15.060000	25.425340
15.070000	25.425340
15.080000	25.425340
15.090000	25.425340
15.100000	25.425340
15.110000	25.425340
15.120000	25.425340
15.130000	25.425340
15.140000	25.425340
15.150000	25.425340
15.160000	25.425340
15.170000	25.425340
15.180000	25.425340
15.190000	25.425340
15.200000	25.425340
15.210000	25.425340
15.220000	25.425340
15.230000	25.425340
15.240000	25.425340
15.250000	25.425340
15.260000	25.425340
15.270000	25.425340
15.280000	25.425340
15.290000	25.425340
15.300000	25.425340
15.310000	25.425340
15.320000	25.425340
15.330000	25.425340
15.340000	25.425340
15.350000	25.425340
15.360000	25.425340
15.370000	25.425340
15.380000	25.425340
15.390000	25.425340
15.400000	25.425340
15.410000	25.425340
15.420000	25.425340
15.430000	25.425340
15.440000	25.425340
15.450000	25.425340
15.460000	25.425340
15.470000	25.425340
15.480000	25.425340
15.490000	25.425340
15.500000	25.412195
15.510000	25.412195
15.520000	25.412195
15.530000	25.412195
15.540000	25.412195
15.550000	25.412195
15.560000	25.412195
15.570000	25.412195
15.580000	25.412195
15.590000	25.412195
15.600000	25.412195
15.610000	25.412195
15.620000	25.412195
15.630000	25.412195
15.640000	25.412195
15.650000	25.412195
15.660000	25.412195
15.670000	25.412195
15.680000	25.412195
15.690000	25.412195
15.700000	25.412195
15.710000	25.412195
15.720000	25.412195
15.730000	25.412195
15.740000	25.412195
15.750000	25.412195
15.760000	25.412195
15.770000	25.412195
15.780000	25.412195
15.790000	25.412195
15.800000	25.412195
15.810000	25.412195
15.820000	25.412195
15.830000	25.412195
15.840000	25.412195
15.850000	25.412195
15.860000	25.412195
15.870000	25.412195
15.880000	25.412195
15.890000	25.412195
15.900000	25.412195
15.910000	25.412195
15.920000	25.412195
15.930000	25.412195
15.940000	25.412195
15.950000	25.412195
15.960000	25.412195
15.970000	25.412195
15.980000	25.412195
15.990000	25.412195
16.000000	25.398892
16.010000	25.398892
16.020000	25.398892
16.030000	25.398892
16.040000	25.398892
16.050000	25.398892
16.060000	25.398892
16.070000	25.398892
16.080000	25.398892
16.090000	25.398892
16.100000	25.398892
16.110000	25.398892
16.120000	25.398892
16.130000	25.398892
16.140000	25.398892
16.150000	25.398892
16.160000	25.398892
16.170000	25.398892
16.180000	25.398892
16.190000	25.398892
16.200000	25.398892
16.210000	25.398892
16.220000	25.398892
16.230000	25.398892
16.240000	25.398892
16.250000	25.398892
16.260000	25.398892
16.270000	25.398892
16.280000	25.398892
16.290000	25.398892
16.300000	25.398892
16.310000	25.398892
16.320000	25.398892
16.330000	25.398892
16.340000	25.398892
16.350000	25.398892
16.360000	25.398892
16.370000	25.398892
16.380000	25.398892
16.390000	25.398892
16.400000	25.398892
16.410000	25.398892
16.420000	25.398892
16.430000	25.398892
16.440000	25.398892
16.450000	25.398892
16.460000	25.398892
16.470000	25.398892
16.480000	25.398892
16.490000	25.398892
16.500000	25.385543
16.510000	25.385543
16.520000	25.385543
16.530000	25.385543
16.540000	25.385543
16.550000	25.385543
16.560000	25.385543
16.570000	25.385543
16.580000	25.385543
16.590000	25.385543
16.600000	25.385543
16.610000	25.385543
16.620000	25.385543
16.630000	25.385543
16.640000	25.385543
16.650000	25.385543
16.660000	25.385543
16.670000	25.385543
16.680000	25.385543
16.690000	25.385543
16.700000	25.385543
16.710000	25.385543
16.720000	25.385543
16.730000	25.385543
16.740000	25.385543
16.750000	25.385543
16.760000	25.385543
16.770000	25.385543
16.780000	25.385543
16.790000	25.385543
16.800000	25.385543
16.810000	25.385543
16.820000	25.385543
16.830000	25.385543
16.840000	25.385543
16.850000	25.385543
16.860000	25.385543
16.870000	25.385543
16.880000	25.385543
16.890000	25.385543
16.900000	25.385543
16.910000	25.385543
16.920000	25.385543
16.930000	25.385543
16.940000	25.385543
16.950000	25.385543
16.960000	25.385543
16.970000	25.385543
16.980000	25.385543
16.990000	25.385543
17.000000	25.372294
17.010000	25.372294
17.020000	25.372294
17.030000	25.372294
17.040000	25.372294
17.050000	25.372294
17.060000	25.372294
17.070000	25.372294
17.080000	25.372294
17.090000	25.372294
17.100000	25.372294
17.110000	25.372294
17.120000	25.372294
17.130000	25.372294
17.140000	25.372294
17.150000	25.372294
17.160000	25.372294
17.170000	25.372294
17.180000	25.372294
17.190000	25.372294
17.200000	25.372294
17.210000	25.372294
17.220000	25.372294
17.230000	25.372294
17.240000	25.372294
17.250000	25.372294
17.260000	25.372294
17.270000	25.372294
17.280000	25.372294
17.290000	25.372294
17.300000	25.372294
17.310000	25.372294
17.320000	25.372294
17.330000	25.372294
17.340000	25.372294
17.350000	25.372294
17.360000	25.372294
17.370000	25.372294
17.380000	25.372294
17.390000	25.372294
17.400000	25.372294
17.410000	25.372294
17.420000	25.372294
17.430000	25.372294
17.440000	25.372294
17.450000	25.372294
17.460000	25.372294
17.470000	25.372294
17.480000	25.372294
17.490000	25.372294
