LabVIEW Measurement	
Writer_Version	2
Reader_Version	2
Separator	Tab
Decimal_Separator	.
Multi_Headings	No
X_Columns	One
Time_Pref	Absolute
Operator	biomech-dyno
Date	2023/04/27
Time	17:41:55.9338632999999876419
***End_of_Header***	
	
Channels	1	
Samples	10	
Date	2023/04/27	
Time	19:35:49.0416474999999318318	
X_Dimension	Time	
X0	0.0000000000000000E+0	
Delta_X	0.010000	
***End_of_Header***		
X_Value	Untitled	Comment
0.000000	24.711434
0.010000	24.711434
0.020000	24.711434
0.030000	24.711434
0.040000	24.711434
0.050000	24.711434
0.060000	24.711434
0.070000	24.711434
0.080000	24.711434
0.090000	24.711434
0.100000	24.711434
0.110000	24.711434
0.120000	24.711434
0.130000	24.711434
0.140000	24.711434
0.150000	24.711434
0.160000	24.711434
0.170000	24.711434
0.180000	24.711434
0.190000	24.711434
0.200000	24.711434
0.210000	24.711434
0.220000	24.711434
0.230000	24.711434
0.240000	24.711434
0.250000	24.711434
0.260000	24.711434
0.270000	24.711434
0.280000	24.711434
0.290000	24.711434
0.300000	24.711434
0.310000	24.711434
0.320000	24.711434
0.330000	24.711434
0.340000	24.711434
0.350000	24.711434
0.360000	24.711434
0.370000	24.711434
0.380000	24.711434
0.390000	24.711434
0.400000	24.711434
0.410000	24.711434
0.420000	24.711434
0.430000	24.711434
0.440000	24.711434
0.450000	24.711434
0.460000	24.711434
0.470000	24.711434
0.480000	24.711434
0.490000	24.711434
0.500000	24.730124
0.510000	24.730124
0.520000	24.730124
0.530000	24.730124
0.540000	24.730124
0.550000	24.730124
0.560000	24.730124
0.570000	24.730124
0.580000	24.730124
0.590000	24.730124
0.600000	24.730124
0.610000	24.730124
0.620000	24.730124
0.630000	24.730124
0.640000	24.730124
0.650000	24.730124
0.660000	24.730124
0.670000	24.730124
0.680000	24.730124
0.690000	24.730124
0.700000	24.730124
0.710000	24.730124
0.720000	24.730124
0.730000	24.730124
0.740000	24.730124
0.750000	24.730124
0.760000	24.730124
0.770000	24.730124
0.780000	24.730124
0.790000	24.730124
0.800000	24.730124
0.810000	24.730124
0.820000	24.730124
0.830000	24.730124
0.840000	24.730124
0.850000	24.730124
0.860000	24.730124
0.870000	24.730124
0.880000	24.730124
0.890000	24.730124
0.900000	24.730124
0.910000	24.730124
0.920000	24.730124
0.930000	24.730124
0.940000	24.730124
0.950000	24.730124
0.960000	24.730124
0.970000	24.730124
0.980000	24.730124
0.990000	24.730124
1.000000	24.806872
1.010000	24.806872
1.020000	24.806872
1.030000	24.806872
1.040000	24.806872
1.050000	24.806872
1.060000	24.806872
1.070000	24.806872
1.080000	24.806872
1.090000	24.806872
1.100000	24.806872
1.110000	24.806872
1.120000	24.806872
1.130000	24.806872
1.140000	24.806872
1.150000	24.806872
1.160000	24.806872
1.170000	24.806872
1.180000	24.806872
1.190000	24.806872
1.200000	24.806872
1.210000	24.806872
1.220000	24.806872
1.230000	24.806872
1.240000	24.806872
1.250000	24.806872
1.260000	24.806872
1.270000	24.806872
1.280000	24.806872
1.290000	24.806872
1.300000	24.806872
1.310000	24.806872
1.320000	24.806872
1.330000	24.806872
1.340000	24.806872
1.350000	24.806872
1.360000	24.806872
1.370000	24.806872
1.380000	24.806872
1.390000	24.806872
1.400000	24.806872
1.410000	24.806872
1.420000	24.806872
1.430000	24.806872
1.440000	24.806872
1.450000	24.806872
1.460000	24.806872
1.470000	24.806872
1.480000	24.806872
1.490000	24.806872
1.500000	24.974622
1.510000	24.974622
1.520000	24.974622
1.530000	24.974622
1.540000	24.974622
1.550000	24.974622
1.560000	24.974622
1.570000	24.974622
1.580000	24.974622
1.590000	24.974622
1.600000	24.974622
1.610000	24.974622
1.620000	24.974622
1.630000	24.974622
1.640000	24.974622
1.650000	24.974622
1.660000	24.974622
1.670000	24.974622
1.680000	24.974622
1.690000	24.974622
1.700000	24.974622
1.710000	24.974622
1.720000	24.974622
1.730000	24.974622
1.740000	24.974622
1.750000	24.974622
1.760000	24.974622
1.770000	24.974622
1.780000	24.974622
1.790000	24.974622
1.800000	24.974622
1.810000	24.974622
1.820000	24.974622
1.830000	24.974622
1.840000	24.974622
1.850000	24.974622
1.860000	24.974622
1.870000	24.974622
1.880000	24.974622
1.890000	24.974622
1.900000	24.974622
1.910000	24.974622
1.920000	24.974622
1.930000	24.974622
1.940000	24.974622
1.950000	24.974622
1.960000	24.974622
1.970000	24.974622
1.980000	24.974622
1.990000	24.974622
2.000000	25.215600
2.010000	25.215600
2.020000	25.215600
2.030000	25.215600
2.040000	25.215600
2.050000	25.215600
2.060000	25.215600
2.070000	25.215600
2.080000	25.215600
2.090000	25.215600
2.100000	25.215600
2.110000	25.215600
2.120000	25.215600
2.130000	25.215600
2.140000	25.215600
2.150000	25.215600
2.160000	25.215600
2.170000	25.215600
2.180000	25.215600
2.190000	25.215600
2.200000	25.215600
2.210000	25.215600
2.220000	25.215600
2.230000	25.215600
2.240000	25.215600
2.250000	25.215600
2.260000	25.215600
2.270000	25.215600
2.280000	25.215600
2.290000	25.215600
2.300000	25.215600
2.310000	25.215600
2.320000	25.215600
2.330000	25.215600
2.340000	25.215600
2.350000	25.215600
2.360000	25.215600
2.370000	25.215600
2.380000	25.215600
2.390000	25.215600
2.400000	25.215600
2.410000	25.215600
2.420000	25.215600
2.430000	25.215600
2.440000	25.215600
2.450000	25.215600
2.460000	25.215600
2.470000	25.215600
2.480000	25.215600
2.490000	25.215600
2.500000	25.510546
2.510000	25.510546
2.520000	25.510546
2.530000	25.510546
2.540000	25.510546
2.550000	25.510546
2.560000	25.510546
2.570000	25.510546
2.580000	25.510546
2.590000	25.510546
2.600000	25.510546
2.610000	25.510546
2.620000	25.510546
2.630000	25.510546
2.640000	25.510546
2.650000	25.510546
2.660000	25.510546
2.670000	25.510546
2.680000	25.510546
2.690000	25.510546
2.700000	25.510546
2.710000	25.510546
2.720000	25.510546
2.730000	25.510546
2.740000	25.510546
2.750000	25.510546
2.760000	25.510546
2.770000	25.510546
2.780000	25.510546
2.790000	25.510546
2.800000	25.510546
2.810000	25.510546
2.820000	25.510546
2.830000	25.510546
2.840000	25.510546
2.850000	25.510546
2.860000	25.510546
2.870000	25.510546
2.880000	25.510546
2.890000	25.510546
2.900000	25.510546
2.910000	25.510546
2.920000	25.510546
2.930000	25.510546
2.940000	25.510546
2.950000	25.510546
2.960000	25.510546
2.970000	25.510546
2.980000	25.510546
2.990000	25.510546
3.000000	25.825779
3.010000	25.825779
3.020000	25.825779
3.030000	25.825779
3.040000	25.825779
3.050000	25.825779
3.060000	25.825779
3.070000	25.825779
3.080000	25.825779
3.090000	25.825779
3.100000	25.825779
3.110000	25.825779
3.120000	25.825779
3.130000	25.825779
3.140000	25.825779
3.150000	25.825779
3.160000	25.825779
3.170000	25.825779
3.180000	25.825779
3.190000	25.825779
3.200000	25.825779
3.210000	25.825779
3.220000	25.825779
3.230000	25.825779
3.240000	25.825779
3.250000	25.825779
3.260000	25.825779
3.270000	25.825779
3.280000	25.825779
3.290000	25.825779
3.300000	25.825779
3.310000	25.825779
3.320000	25.825779
3.330000	25.825779
3.340000	25.825779
3.350000	25.825779
3.360000	25.825779
3.370000	25.825779
3.380000	25.825779
3.390000	25.825779
3.400000	25.825779
3.410000	25.825779
3.420000	25.825779
3.430000	25.825779
3.440000	25.825779
3.450000	25.825779
3.460000	25.825779
3.470000	25.825779
3.480000	25.825779
3.490000	25.825779
3.500000	26.085320
3.510000	26.085320
3.520000	26.085320
3.530000	26.085320
3.540000	26.085320
3.550000	26.085320
3.560000	26.085320
3.570000	26.085320
3.580000	26.085320
3.590000	26.085320
3.600000	26.085320
3.610000	26.085320
3.620000	26.085320
3.630000	26.085320
3.640000	26.085320
3.650000	26.085320
3.660000	26.085320
3.670000	26.085320
3.680000	26.085320
3.690000	26.085320
3.700000	26.085320
3.710000	26.085320
3.720000	26.085320
3.730000	26.085320
3.740000	26.085320
3.750000	26.085320
3.760000	26.085320
3.770000	26.085320
3.780000	26.085320
3.790000	26.085320
3.800000	26.085320
3.810000	26.085320
3.820000	26.085320
3.830000	26.085320
3.840000	26.085320
3.850000	26.085320
3.860000	26.085320
3.870000	26.085320
3.880000	26.085320
3.890000	26.085320
3.900000	26.085320
3.910000	26.085320
3.920000	26.085320
3.930000	26.085320
3.940000	26.085320
3.950000	26.085320
3.960000	26.085320
3.970000	26.085320
3.980000	26.085320
3.990000	26.085320
4.000000	26.273403
4.010000	26.273403
4.020000	26.273403
4.030000	26.273403
4.040000	26.273403
4.050000	26.273403
4.060000	26.273403
4.070000	26.273403
4.080000	26.273403
4.090000	26.273403
4.100000	26.273403
4.110000	26.273403
4.120000	26.273403
4.130000	26.273403
4.140000	26.273403
4.150000	26.273403
4.160000	26.273403
4.170000	26.273403
4.180000	26.273403
4.190000	26.273403
4.200000	26.273403
4.210000	26.273403
4.220000	26.273403
4.230000	26.273403
4.240000	26.273403
4.250000	26.273403
4.260000	26.273403
4.270000	26.273403
4.280000	26.273403
4.290000	26.273403
4.300000	26.273403
4.310000	26.273403
4.320000	26.273403
4.330000	26.273403
4.340000	26.273403
4.350000	26.273403
4.360000	26.273403
4.370000	26.273403
4.380000	26.273403
4.390000	26.273403
4.400000	26.273403
4.410000	26.273403
4.420000	26.273403
4.430000	26.273403
4.440000	26.273403
4.450000	26.273403
4.460000	26.273403
4.470000	26.273403
4.480000	26.273403
4.490000	26.273403
4.500000	26.400987
4.510000	26.400987
4.520000	26.400987
4.530000	26.400987
4.540000	26.400987
4.550000	26.400987
4.560000	26.400987
4.570000	26.400987
4.580000	26.400987
4.590000	26.400987
4.600000	26.400987
4.610000	26.400987
4.620000	26.400987
4.630000	26.400987
4.640000	26.400987
4.650000	26.400987
4.660000	26.400987
4.670000	26.400987
4.680000	26.400987
4.690000	26.400987
4.700000	26.400987
4.710000	26.400987
4.720000	26.400987
4.730000	26.400987
4.740000	26.400987
4.750000	26.400987
4.760000	26.400987
4.770000	26.400987
4.780000	26.400987
4.790000	26.400987
4.800000	26.400987
4.810000	26.400987
4.820000	26.400987
4.830000	26.400987
4.840000	26.400987
4.850000	26.400987
4.860000	26.400987
4.870000	26.400987
4.880000	26.400987
4.890000	26.400987
4.900000	26.400987
4.910000	26.400987
4.920000	26.400987
4.930000	26.400987
4.940000	26.400987
4.950000	26.400987
4.960000	26.400987
4.970000	26.400987
4.980000	26.400987
4.990000	26.400987
5.000000	26.486328
5.010000	26.486328
5.020000	26.486328
5.030000	26.486328
5.040000	26.486328
5.050000	26.486328
5.060000	26.486328
5.070000	26.486328
5.080000	26.486328
5.090000	26.486328
5.100000	26.486328
5.110000	26.486328
5.120000	26.486328
5.130000	26.486328
5.140000	26.486328
5.150000	26.486328
5.160000	26.486328
5.170000	26.486328
5.180000	26.486328
5.190000	26.486328
5.200000	26.486328
5.210000	26.486328
5.220000	26.486328
5.230000	26.486328
5.240000	26.486328
5.250000	26.486328
5.260000	26.486328
5.270000	26.486328
5.280000	26.486328
5.290000	26.486328
5.300000	26.486328
5.310000	26.486328
5.320000	26.486328
5.330000	26.486328
5.340000	26.486328
5.350000	26.486328
5.360000	26.486328
5.370000	26.486328
5.380000	26.486328
5.390000	26.486328
5.400000	26.486328
5.410000	26.486328
5.420000	26.486328
5.430000	26.486328
5.440000	26.486328
5.450000	26.486328
5.460000	26.486328
5.470000	26.486328
5.480000	26.486328
5.490000	26.486328
5.500000	26.542852
5.510000	26.542852
5.520000	26.542852
5.530000	26.542852
5.540000	26.542852
5.550000	26.542852
5.560000	26.542852
5.570000	26.542852
5.580000	26.542852
5.590000	26.542852
5.600000	26.542852
5.610000	26.542852
5.620000	26.542852
5.630000	26.542852
5.640000	26.542852
5.650000	26.542852
5.660000	26.542852
5.670000	26.542852
5.680000	26.542852
5.690000	26.542852
5.700000	26.542852
5.710000	26.542852
5.720000	26.542852
5.730000	26.542852
5.740000	26.542852
5.750000	26.542852
5.760000	26.542852
5.770000	26.542852
5.780000	26.542852
5.790000	26.542852
5.800000	26.542852
5.810000	26.542852
5.820000	26.542852
5.830000	26.542852
5.840000	26.542852
5.850000	26.542852
5.860000	26.542852
5.870000	26.542852
5.880000	26.542852
5.890000	26.542852
5.900000	26.542852
5.910000	26.542852
5.920000	26.542852
5.930000	26.542852
5.940000	26.542852
5.950000	26.542852
5.960000	26.542852
5.970000	26.542852
5.980000	26.542852
5.990000	26.542852
6.000000	26.576439
6.010000	26.576439
6.020000	26.576439
6.030000	26.576439
6.040000	26.576439
6.050000	26.576439
6.060000	26.576439
6.070000	26.576439
6.080000	26.576439
6.090000	26.576439
6.100000	26.576439
6.110000	26.576439
6.120000	26.576439
6.130000	26.576439
6.140000	26.576439
6.150000	26.576439
6.160000	26.576439
6.170000	26.576439
6.180000	26.576439
6.190000	26.576439
6.200000	26.576439
6.210000	26.576439
6.220000	26.576439
6.230000	26.576439
6.240000	26.576439
6.250000	26.576439
6.260000	26.576439
6.270000	26.576439
6.280000	26.576439
6.290000	26.576439
6.300000	26.576439
6.310000	26.576439
6.320000	26.576439
6.330000	26.576439
6.340000	26.576439
6.350000	26.576439
6.360000	26.576439
6.370000	26.576439
6.380000	26.576439
6.390000	26.576439
6.400000	26.576439
6.410000	26.576439
6.420000	26.576439
6.430000	26.576439
6.440000	26.576439
6.450000	26.576439
6.460000	26.576439
6.470000	26.576439
6.480000	26.576439
6.490000	26.576439
6.500000	26.592966
6.510000	26.592966
6.520000	26.592966
6.530000	26.592966
6.540000	26.592966
6.550000	26.592966
6.560000	26.592966
6.570000	26.592966
6.580000	26.592966
6.590000	26.592966
6.600000	26.592966
6.610000	26.592966
6.620000	26.592966
6.630000	26.592966
6.640000	26.592966
6.650000	26.592966
6.660000	26.592966
6.670000	26.592966
6.680000	26.592966
6.690000	26.592966
6.700000	26.592966
6.710000	26.592966
6.720000	26.592966
6.730000	26.592966
6.740000	26.592966
6.750000	26.592966
6.760000	26.592966
6.770000	26.592966
6.780000	26.592966
6.790000	26.592966
6.800000	26.592966
6.810000	26.592966
6.820000	26.592966
6.830000	26.592966
6.840000	26.592966
6.850000	26.592966
6.860000	26.592966
6.870000	26.592966
6.880000	26.592966
6.890000	26.592966
6.900000	26.592966
6.910000	26.592966
6.920000	26.592966
6.930000	26.592966
6.940000	26.592966
6.950000	26.592966
6.960000	26.592966
6.970000	26.592966
6.980000	26.592966
6.990000	26.592966
7.000000	26.597485
7.010000	26.597485
7.020000	26.597485
7.030000	26.597485
7.040000	26.597485
7.050000	26.597485
7.060000	26.597485
7.070000	26.597485
7.080000	26.597485
7.090000	26.597485
7.100000	26.597485
7.110000	26.597485
7.120000	26.597485
7.130000	26.597485
7.140000	26.597485
7.150000	26.597485
7.160000	26.597485
7.170000	26.597485
7.180000	26.597485
7.190000	26.597485
7.200000	26.597485
7.210000	26.597485
7.220000	26.597485
7.230000	26.597485
7.240000	26.597485
7.250000	26.597485
7.260000	26.597485
7.270000	26.597485
7.280000	26.597485
7.290000	26.597485
7.300000	26.597485
7.310000	26.597485
7.320000	26.597485
7.330000	26.597485
7.340000	26.597485
7.350000	26.597485
7.360000	26.597485
7.370000	26.597485
7.380000	26.597485
7.390000	26.597485
7.400000	26.597485
7.410000	26.597485
7.420000	26.597485
7.430000	26.597485
7.440000	26.597485
7.450000	26.597485
7.460000	26.597485
7.470000	26.597485
7.480000	26.597485
7.490000	26.597485
7.500000	26.592657
7.510000	26.592657
7.520000	26.592657
7.530000	26.592657
7.540000	26.592657
7.550000	26.592657
7.560000	26.592657
7.570000	26.592657
7.580000	26.592657
7.590000	26.592657
7.600000	26.592657
7.610000	26.592657
7.620000	26.592657
7.630000	26.592657
7.640000	26.592657
7.650000	26.592657
7.660000	26.592657
7.670000	26.592657
7.680000	26.592657
7.690000	26.592657
7.700000	26.592657
7.710000	26.592657
7.720000	26.592657
7.730000	26.592657
7.740000	26.592657
7.750000	26.592657
7.760000	26.592657
7.770000	26.592657
7.780000	26.592657
7.790000	26.592657
7.800000	26.592657
7.810000	26.592657
7.820000	26.592657
7.830000	26.592657
7.840000	26.592657
7.850000	26.592657
7.860000	26.592657
7.870000	26.592657
7.880000	26.592657
7.890000	26.592657
7.900000	26.592657
7.910000	26.592657
7.920000	26.592657
7.930000	26.592657
7.940000	26.592657
7.950000	26.592657
7.960000	26.592657
7.970000	26.592657
7.980000	26.592657
7.990000	26.592657
8.000000	26.580701
8.010000	26.580701
8.020000	26.580701
8.030000	26.580701
8.040000	26.580701
8.050000	26.580701
8.060000	26.580701
8.070000	26.580701
8.080000	26.580701
8.090000	26.580701
8.100000	26.580701
8.110000	26.580701
8.120000	26.580701
8.130000	26.580701
8.140000	26.580701
8.150000	26.580701
8.160000	26.580701
8.170000	26.580701
8.180000	26.580701
8.190000	26.580701
8.200000	26.580701
8.210000	26.580701
8.220000	26.580701
8.230000	26.580701
8.240000	26.580701
8.250000	26.580701
8.260000	26.580701
8.270000	26.580701
8.280000	26.580701
8.290000	26.580701
8.300000	26.580701
8.310000	26.580701
8.320000	26.580701
8.330000	26.580701
8.340000	26.580701
8.350000	26.580701
8.360000	26.580701
8.370000	26.580701
8.380000	26.580701
8.390000	26.580701
8.400000	26.580701
8.410000	26.580701
8.420000	26.580701
8.430000	26.580701
8.440000	26.580701
8.450000	26.580701
8.460000	26.580701
8.470000	26.580701
8.480000	26.580701
8.490000	26.580701
8.500000	26.564187
8.510000	26.564187
8.520000	26.564187
8.530000	26.564187
8.540000	26.564187
8.550000	26.564187
8.560000	26.564187
8.570000	26.564187
8.580000	26.564187
8.590000	26.564187
8.600000	26.564187
8.610000	26.564187
8.620000	26.564187
8.630000	26.564187
8.640000	26.564187
8.650000	26.564187
8.660000	26.564187
8.670000	26.564187
8.680000	26.564187
8.690000	26.564187
8.700000	26.564187
8.710000	26.564187
8.720000	26.564187
8.730000	26.564187
8.740000	26.564187
8.750000	26.564187
8.760000	26.564187
8.770000	26.564187
8.780000	26.564187
8.790000	26.564187
8.800000	26.564187
8.810000	26.564187
8.820000	26.564187
8.830000	26.564187
8.840000	26.564187
8.850000	26.564187
8.860000	26.564187
8.870000	26.564187
8.880000	26.564187
8.890000	26.564187
8.900000	26.564187
8.910000	26.564187
8.920000	26.564187
8.930000	26.564187
8.940000	26.564187
8.950000	26.564187
8.960000	26.564187
8.970000	26.564187
8.980000	26.564187
8.990000	26.564187
9.000000	26.543605
9.010000	26.543605
9.020000	26.543605
9.030000	26.543605
9.040000	26.543605
9.050000	26.543605
9.060000	26.543605
9.070000	26.543605
9.080000	26.543605
9.090000	26.543605
9.100000	26.543605
9.110000	26.543605
9.120000	26.543605
9.130000	26.543605
9.140000	26.543605
9.150000	26.543605
9.160000	26.543605
9.170000	26.543605
9.180000	26.543605
9.190000	26.543605
9.200000	26.543605
9.210000	26.543605
9.220000	26.543605
9.230000	26.543605
9.240000	26.543605
9.250000	26.543605
9.260000	26.543605
9.270000	26.543605
9.280000	26.543605
9.290000	26.543605
9.300000	26.543605
9.310000	26.543605
9.320000	26.543605
9.330000	26.543605
9.340000	26.543605
9.350000	26.543605
9.360000	26.543605
9.370000	26.543605
9.380000	26.543605
9.390000	26.543605
9.400000	26.543605
9.410000	26.543605
9.420000	26.543605
9.430000	26.543605
9.440000	26.543605
9.450000	26.543605
9.460000	26.543605
9.470000	26.543605
9.480000	26.543605
9.490000	26.543605
9.500000	26.517894
9.510000	26.517894
9.520000	26.517894
9.530000	26.517894
9.540000	26.517894
9.550000	26.517894
9.560000	26.517894
9.570000	26.517894
9.580000	26.517894
9.590000	26.517894
9.600000	26.517894
9.610000	26.517894
9.620000	26.517894
9.630000	26.517894
9.640000	26.517894
9.650000	26.517894
9.660000	26.517894
9.670000	26.517894
9.680000	26.517894
9.690000	26.517894
9.700000	26.517894
9.710000	26.517894
9.720000	26.517894
9.730000	26.517894
9.740000	26.517894
9.750000	26.517894
9.760000	26.517894
9.770000	26.517894
9.780000	26.517894
9.790000	26.517894
9.800000	26.517894
9.810000	26.517894
9.820000	26.517894
9.830000	26.517894
9.840000	26.517894
9.850000	26.517894
9.860000	26.517894
9.870000	26.517894
9.880000	26.517894
9.890000	26.517894
9.900000	26.517894
9.910000	26.517894
9.920000	26.517894
9.930000	26.517894
9.940000	26.517894
9.950000	26.517894
9.960000	26.517894
9.970000	26.517894
9.980000	26.517894
9.990000	26.517894
10.000000	26.487717
10.010000	26.487717
10.020000	26.487717
10.030000	26.487717
10.040000	26.487717
10.050000	26.487717
10.060000	26.487717
10.070000	26.487717
10.080000	26.487717
10.090000	26.487717
10.100000	26.487717
10.110000	26.487717
10.120000	26.487717
10.130000	26.487717
10.140000	26.487717
10.150000	26.487717
10.160000	26.487717
10.170000	26.487717
10.180000	26.487717
10.190000	26.487717
10.200000	26.487717
10.210000	26.487717
10.220000	26.487717
10.230000	26.487717
10.240000	26.487717
10.250000	26.487717
10.260000	26.487717
10.270000	26.487717
10.280000	26.487717
10.290000	26.487717
10.300000	26.487717
10.310000	26.487717
10.320000	26.487717
10.330000	26.487717
10.340000	26.487717
10.350000	26.487717
10.360000	26.487717
10.370000	26.487717
10.380000	26.487717
10.390000	26.487717
10.400000	26.487717
10.410000	26.487717
10.420000	26.487717
10.430000	26.487717
10.440000	26.487717
10.450000	26.487717
10.460000	26.487717
10.470000	26.487717
10.480000	26.487717
10.490000	26.487717
10.500000	26.458243
10.510000	26.458243
10.520000	26.458243
10.530000	26.458243
10.540000	26.458243
10.550000	26.458243
10.560000	26.458243
10.570000	26.458243
10.580000	26.458243
10.590000	26.458243
10.600000	26.458243
10.610000	26.458243
10.620000	26.458243
10.630000	26.458243
10.640000	26.458243
10.650000	26.458243
10.660000	26.458243
10.670000	26.458243
10.680000	26.458243
10.690000	26.458243
10.700000	26.458243
10.710000	26.458243
10.720000	26.458243
10.730000	26.458243
10.740000	26.458243
10.750000	26.458243
10.760000	26.458243
10.770000	26.458243
10.780000	26.458243
10.790000	26.458243
10.800000	26.458243
10.810000	26.458243
10.820000	26.458243
10.830000	26.458243
10.840000	26.458243
10.850000	26.458243
10.860000	26.458243
10.870000	26.458243
10.880000	26.458243
10.890000	26.458243
10.900000	26.458243
10.910000	26.458243
10.920000	26.458243
10.930000	26.458243
10.940000	26.458243
10.950000	26.458243
10.960000	26.458243
10.970000	26.458243
10.980000	26.458243
10.990000	26.458243
11.000000	26.428190
11.010000	26.428190
11.020000	26.428190
11.030000	26.428190
11.040000	26.428190
11.050000	26.428190
11.060000	26.428190
11.070000	26.428190
11.080000	26.428190
11.090000	26.428190
11.100000	26.428190
11.110000	26.428190
11.120000	26.428190
11.130000	26.428190
11.140000	26.428190
11.150000	26.428190
11.160000	26.428190
11.170000	26.428190
11.180000	26.428190
11.190000	26.428190
11.200000	26.428190
11.210000	26.428190
11.220000	26.428190
11.230000	26.428190
11.240000	26.428190
11.250000	26.428190
11.260000	26.428190
11.270000	26.428190
11.280000	26.428190
11.290000	26.428190
11.300000	26.428190
11.310000	26.428190
11.320000	26.428190
11.330000	26.428190
11.340000	26.428190
11.350000	26.428190
11.360000	26.428190
11.370000	26.428190
11.380000	26.428190
11.390000	26.428190
11.400000	26.428190
11.410000	26.428190
11.420000	26.428190
11.430000	26.428190
11.440000	26.428190
11.450000	26.428190
11.460000	26.428190
11.470000	26.428190
11.480000	26.428190
11.490000	26.428190
11.500000	26.399368
11.510000	26.399368
11.520000	26.399368
11.530000	26.399368
11.540000	26.399368
11.550000	26.399368
11.560000	26.399368
11.570000	26.399368
11.580000	26.399368
11.590000	26.399368
11.600000	26.399368
11.610000	26.399368
11.620000	26.399368
11.630000	26.399368
11.640000	26.399368
11.650000	26.399368
11.660000	26.399368
11.670000	26.399368
11.680000	26.399368
11.690000	26.399368
11.700000	26.399368
11.710000	26.399368
11.720000	26.399368
11.730000	26.399368
11.740000	26.399368
11.750000	26.399368
11.760000	26.399368
11.770000	26.399368
11.780000	26.399368
11.790000	26.399368
11.800000	26.399368
11.810000	26.399368
11.820000	26.399368
11.830000	26.399368
11.840000	26.399368
11.850000	26.399368
11.860000	26.399368
11.870000	26.399368
11.880000	26.399368
11.890000	26.399368
11.900000	26.399368
11.910000	26.399368
11.920000	26.399368
11.930000	26.399368
11.940000	26.399368
11.950000	26.399368
11.960000	26.399368
11.970000	26.399368
11.980000	26.399368
11.990000	26.399368
12.000000	26.369222
12.010000	26.369222
12.020000	26.369222
12.030000	26.369222
12.040000	26.369222
12.050000	26.369222
12.060000	26.369222
12.070000	26.369222
12.080000	26.369222
12.090000	26.369222
12.100000	26.369222
12.110000	26.369222
12.120000	26.369222
12.130000	26.369222
12.140000	26.369222
12.150000	26.369222
12.160000	26.369222
12.170000	26.369222
12.180000	26.369222
12.190000	26.369222
12.200000	26.369222
12.210000	26.369222
12.220000	26.369222
12.230000	26.369222
12.240000	26.369222
12.250000	26.369222
12.260000	26.369222
12.270000	26.369222
12.280000	26.369222
12.290000	26.369222
12.300000	26.369222
12.310000	26.369222
12.320000	26.369222
12.330000	26.369222
12.340000	26.369222
12.350000	26.369222
12.360000	26.369222
12.370000	26.369222
12.380000	26.369222
12.390000	26.369222
12.400000	26.369222
12.410000	26.369222
12.420000	26.369222
12.430000	26.369222
12.440000	26.369222
12.450000	26.369222
12.460000	26.369222
12.470000	26.369222
12.480000	26.369222
12.490000	26.369222
12.500000	26.338461
12.510000	26.338461
12.520000	26.338461
12.530000	26.338461
12.540000	26.338461
12.550000	26.338461
12.560000	26.338461
12.570000	26.338461
12.580000	26.338461
12.590000	26.338461
12.600000	26.338461
12.610000	26.338461
12.620000	26.338461
12.630000	26.338461
12.640000	26.338461
12.650000	26.338461
12.660000	26.338461
12.670000	26.338461
12.680000	26.338461
12.690000	26.338461
12.700000	26.338461
12.710000	26.338461
12.720000	26.338461
12.730000	26.338461
12.740000	26.338461
12.750000	26.338461
12.760000	26.338461
12.770000	26.338461
12.780000	26.338461
12.790000	26.338461
12.800000	26.338461
12.810000	26.338461
12.820000	26.338461
12.830000	26.338461
12.840000	26.338461
12.850000	26.338461
12.860000	26.338461
12.870000	26.338461
12.880000	26.338461
12.890000	26.338461
12.900000	26.338461
12.910000	26.338461
12.920000	26.338461
12.930000	26.338461
12.940000	26.338461
12.950000	26.338461
12.960000	26.338461
12.970000	26.338461
12.980000	26.338461
12.990000	26.338461
13.000000	26.308379
13.010000	26.308379
13.020000	26.308379
13.030000	26.308379
13.040000	26.308379
13.050000	26.308379
13.060000	26.308379
13.070000	26.308379
13.080000	26.308379
13.090000	26.308379
13.100000	26.308379
13.110000	26.308379
13.120000	26.308379
13.130000	26.308379
13.140000	26.308379
13.150000	26.308379
13.160000	26.308379
13.170000	26.308379
13.180000	26.308379
13.190000	26.308379
13.200000	26.308379
13.210000	26.308379
13.220000	26.308379
13.230000	26.308379
13.240000	26.308379
13.250000	26.308379
13.260000	26.308379
13.270000	26.308379
13.280000	26.308379
13.290000	26.308379
13.300000	26.308379
13.310000	26.308379
13.320000	26.308379
13.330000	26.308379
13.340000	26.308379
13.350000	26.308379
13.360000	26.308379
13.370000	26.308379
13.380000	26.308379
13.390000	26.308379
13.400000	26.308379
13.410000	26.308379
13.420000	26.308379
13.430000	26.308379
13.440000	26.308379
13.450000	26.308379
13.460000	26.308379
13.470000	26.308379
13.480000	26.308379
13.490000	26.308379
13.500000	26.278001
13.510000	26.278001
13.520000	26.278001
13.530000	26.278001
13.540000	26.278001
13.550000	26.278001
13.560000	26.278001
13.570000	26.278001
13.580000	26.278001
13.590000	26.278001
13.600000	26.278001
13.610000	26.278001
13.620000	26.278001
13.630000	26.278001
13.640000	26.278001
13.650000	26.278001
13.660000	26.278001
13.670000	26.278001
13.680000	26.278001
13.690000	26.278001
13.700000	26.278001
13.710000	26.278001
13.720000	26.278001
13.730000	26.278001
13.740000	26.278001
13.750000	26.278001
13.760000	26.278001
13.770000	26.278001
13.780000	26.278001
13.790000	26.278001
13.800000	26.278001
13.810000	26.278001
13.820000	26.278001
13.830000	26.278001
13.840000	26.278001
13.850000	26.278001
13.860000	26.278001
13.870000	26.278001
13.880000	26.278001
13.890000	26.278001
13.900000	26.278001
13.910000	26.278001
13.920000	26.278001
13.930000	26.278001
13.940000	26.278001
13.950000	26.278001
13.960000	26.278001
13.970000	26.278001
13.980000	26.278001
13.990000	26.278001
14.000000	26.248119
14.010000	26.248119
14.020000	26.248119
14.030000	26.248119
14.040000	26.248119
14.050000	26.248119
14.060000	26.248119
14.070000	26.248119
14.080000	26.248119
14.090000	26.248119
14.100000	26.248119
14.110000	26.248119
14.120000	26.248119
14.130000	26.248119
14.140000	26.248119
14.150000	26.248119
14.160000	26.248119
14.170000	26.248119
14.180000	26.248119
14.190000	26.248119
14.200000	26.248119
14.210000	26.248119
14.220000	26.248119
14.230000	26.248119
14.240000	26.248119
14.250000	26.248119
14.260000	26.248119
14.270000	26.248119
14.280000	26.248119
14.290000	26.248119
14.300000	26.248119
14.310000	26.248119
14.320000	26.248119
14.330000	26.248119
14.340000	26.248119
14.350000	26.248119
14.360000	26.248119
14.370000	26.248119
14.380000	26.248119
14.390000	26.248119
14.400000	26.248119
14.410000	26.248119
14.420000	26.248119
14.430000	26.248119
14.440000	26.248119
14.450000	26.248119
14.460000	26.248119
14.470000	26.248119
14.480000	26.248119
14.490000	26.248119
14.500000	26.218942
14.510000	26.218942
14.520000	26.218942
14.530000	26.218942
14.540000	26.218942
14.550000	26.218942
14.560000	26.218942
14.570000	26.218942
14.580000	26.218942
14.590000	26.218942
14.600000	26.218942
14.610000	26.218942
14.620000	26.218942
14.630000	26.218942
14.640000	26.218942
14.650000	26.218942
14.660000	26.218942
14.670000	26.218942
14.680000	26.218942
14.690000	26.218942
14.700000	26.218942
14.710000	26.218942
14.720000	26.218942
14.730000	26.218942
14.740000	26.218942
14.750000	26.218942
14.760000	26.218942
14.770000	26.218942
14.780000	26.218942
14.790000	26.218942
14.800000	26.218942
14.810000	26.218942
14.820000	26.218942
14.830000	26.218942
14.840000	26.218942
14.850000	26.218942
14.860000	26.218942
14.870000	26.218942
14.880000	26.218942
14.890000	26.218942
14.900000	26.218942
14.910000	26.218942
14.920000	26.218942
14.930000	26.218942
14.940000	26.218942
14.950000	26.218942
14.960000	26.218942
14.970000	26.218942
14.980000	26.218942
14.990000	26.218942
15.000000	26.188949
15.010000	26.188949
15.020000	26.188949
15.030000	26.188949
15.040000	26.188949
15.050000	26.188949
15.060000	26.188949
15.070000	26.188949
15.080000	26.188949
15.090000	26.188949
15.100000	26.188949
15.110000	26.188949
15.120000	26.188949
15.130000	26.188949
15.140000	26.188949
15.150000	26.188949
15.160000	26.188949
15.170000	26.188949
15.180000	26.188949
15.190000	26.188949
15.200000	26.188949
15.210000	26.188949
15.220000	26.188949
15.230000	26.188949
15.240000	26.188949
15.250000	26.188949
15.260000	26.188949
15.270000	26.188949
15.280000	26.188949
15.290000	26.188949
15.300000	26.188949
15.310000	26.188949
15.320000	26.188949
15.330000	26.188949
15.340000	26.188949
15.350000	26.188949
15.360000	26.188949
15.370000	26.188949
15.380000	26.188949
15.390000	26.188949
15.400000	26.188949
15.410000	26.188949
15.420000	26.188949
15.430000	26.188949
15.440000	26.188949
15.450000	26.188949
15.460000	26.188949
15.470000	26.188949
15.480000	26.188949
15.490000	26.188949
15.500000	26.158567
15.510000	26.158567
15.520000	26.158567
15.530000	26.158567
15.540000	26.158567
15.550000	26.158567
15.560000	26.158567
15.570000	26.158567
15.580000	26.158567
15.590000	26.158567
15.600000	26.158567
15.610000	26.158567
15.620000	26.158567
15.630000	26.158567
15.640000	26.158567
15.650000	26.158567
15.660000	26.158567
15.670000	26.158567
15.680000	26.158567
15.690000	26.158567
15.700000	26.158567
15.710000	26.158567
15.720000	26.158567
15.730000	26.158567
15.740000	26.158567
15.750000	26.158567
15.760000	26.158567
15.770000	26.158567
15.780000	26.158567
15.790000	26.158567
15.800000	26.158567
15.810000	26.158567
15.820000	26.158567
15.830000	26.158567
15.840000	26.158567
15.850000	26.158567
15.860000	26.158567
15.870000	26.158567
15.880000	26.158567
15.890000	26.158567
15.900000	26.158567
15.910000	26.158567
15.920000	26.158567
15.930000	26.158567
15.940000	26.158567
15.950000	26.158567
15.960000	26.158567
15.970000	26.158567
15.980000	26.158567
15.990000	26.158567
16.000000	26.129389
16.010000	26.129389
16.020000	26.129389
16.030000	26.129389
16.040000	26.129389
16.050000	26.129389
16.060000	26.129389
16.070000	26.129389
16.080000	26.129389
16.090000	26.129389
16.100000	26.129389
16.110000	26.129389
16.120000	26.129389
16.130000	26.129389
16.140000	26.129389
16.150000	26.129389
16.160000	26.129389
16.170000	26.129389
16.180000	26.129389
16.190000	26.129389
16.200000	26.129389
16.210000	26.129389
16.220000	26.129389
16.230000	26.129389
16.240000	26.129389
16.250000	26.129389
16.260000	26.129389
16.270000	26.129389
16.280000	26.129389
16.290000	26.129389
16.300000	26.129389
16.310000	26.129389
16.320000	26.129389
16.330000	26.129389
16.340000	26.129389
16.350000	26.129389
16.360000	26.129389
16.370000	26.129389
16.380000	26.129389
16.390000	26.129389
16.400000	26.129389
16.410000	26.129389
16.420000	26.129389
16.430000	26.129389
16.440000	26.129389
16.450000	26.129389
16.460000	26.129389
16.470000	26.129389
16.480000	26.129389
16.490000	26.129389
16.500000	26.101332
16.510000	26.101332
16.520000	26.101332
16.530000	26.101332
16.540000	26.101332
16.550000	26.101332
16.560000	26.101332
16.570000	26.101332
16.580000	26.101332
16.590000	26.101332
16.600000	26.101332
16.610000	26.101332
16.620000	26.101332
16.630000	26.101332
16.640000	26.101332
16.650000	26.101332
16.660000	26.101332
16.670000	26.101332
16.680000	26.101332
16.690000	26.101332
16.700000	26.101332
16.710000	26.101332
16.720000	26.101332
16.730000	26.101332
16.740000	26.101332
16.750000	26.101332
16.760000	26.101332
16.770000	26.101332
16.780000	26.101332
16.790000	26.101332
16.800000	26.101332
16.810000	26.101332
16.820000	26.101332
16.830000	26.101332
16.840000	26.101332
16.850000	26.101332
16.860000	26.101332
16.870000	26.101332
16.880000	26.101332
16.890000	26.101332
16.900000	26.101332
16.910000	26.101332
16.920000	26.101332
16.930000	26.101332
16.940000	26.101332
16.950000	26.101332
16.960000	26.101332
16.970000	26.101332
16.980000	26.101332
16.990000	26.101332
17.000000	26.073961
17.010000	26.073961
17.020000	26.073961
17.030000	26.073961
17.040000	26.073961
17.050000	26.073961
17.060000	26.073961
17.070000	26.073961
17.080000	26.073961
17.090000	26.073961
17.100000	26.073961
17.110000	26.073961
17.120000	26.073961
17.130000	26.073961
17.140000	26.073961
17.150000	26.073961
17.160000	26.073961
17.170000	26.073961
17.180000	26.073961
17.190000	26.073961
17.200000	26.073961
17.210000	26.073961
17.220000	26.073961
17.230000	26.073961
17.240000	26.073961
17.250000	26.073961
17.260000	26.073961
17.270000	26.073961
17.280000	26.073961
17.290000	26.073961
17.300000	26.073961
17.310000	26.073961
17.320000	26.073961
17.330000	26.073961
17.340000	26.073961
17.350000	26.073961
17.360000	26.073961
17.370000	26.073961
17.380000	26.073961
17.390000	26.073961
17.400000	26.073961
17.410000	26.073961
17.420000	26.073961
17.430000	26.073961
17.440000	26.073961
17.450000	26.073961
17.460000	26.073961
17.470000	26.073961
17.480000	26.073961
17.490000	26.073961
