LabVIEW Measurement	
Writer_Version	2
Reader_Version	2
Separator	Tab
Decimal_Separator	.
Multi_Headings	No
X_Columns	One
Time_Pref	Absolute
Operator	biomech-dyno
Date	2023/04/27
Time	17:41:55.9338632999999876419
***End_of_Header***	
	
Channels	1	
Samples	10	
Date	2023/04/27	
Time	19:34:06.9166101999999965754	
X_Dimension	Time	
X0	0.0000000000000000E+0	
Delta_X	0.010000	
***End_of_Header***		
X_Value	Untitled	Comment
0.000000	25.173329
0.010000	25.173329
0.020000	25.173329
0.030000	25.173329
0.040000	25.173329
0.050000	25.173329
0.060000	25.173329
0.070000	25.173329
0.080000	25.173329
0.090000	25.173329
0.100000	25.173329
0.110000	25.173329
0.120000	25.173329
0.130000	25.173329
0.140000	25.173329
0.150000	25.173329
0.160000	25.173329
0.170000	25.173329
0.180000	25.173329
0.190000	25.173329
0.200000	25.173329
0.210000	25.173329
0.220000	25.173329
0.230000	25.173329
0.240000	25.173329
0.250000	25.173329
0.260000	25.173329
0.270000	25.173329
0.280000	25.173329
0.290000	25.173329
0.300000	25.173329
0.310000	25.173329
0.320000	25.173329
0.330000	25.173329
0.340000	25.173329
0.350000	25.173329
0.360000	25.173329
0.370000	25.173329
0.380000	25.173329
0.390000	25.173329
0.400000	25.173329
0.410000	25.173329
0.420000	25.173329
0.430000	25.173329
0.440000	25.173329
0.450000	25.173329
0.460000	25.173329
0.470000	25.173329
0.480000	25.173329
0.490000	25.173329
0.500000	25.189649
0.510000	25.189649
0.520000	25.189649
0.530000	25.189649
0.540000	25.189649
0.550000	25.189649
0.560000	25.189649
0.570000	25.189649
0.580000	25.189649
0.590000	25.189649
0.600000	25.189649
0.610000	25.189649
0.620000	25.189649
0.630000	25.189649
0.640000	25.189649
0.650000	25.189649
0.660000	25.189649
0.670000	25.189649
0.680000	25.189649
0.690000	25.189649
0.700000	25.189649
0.710000	25.189649
0.720000	25.189649
0.730000	25.189649
0.740000	25.189649
0.750000	25.189649
0.760000	25.189649
0.770000	25.189649
0.780000	25.189649
0.790000	25.189649
0.800000	25.189649
0.810000	25.189649
0.820000	25.189649
0.830000	25.189649
0.840000	25.189649
0.850000	25.189649
0.860000	25.189649
0.870000	25.189649
0.880000	25.189649
0.890000	25.189649
0.900000	25.189649
0.910000	25.189649
0.920000	25.189649
0.930000	25.189649
0.940000	25.189649
0.950000	25.189649
0.960000	25.189649
0.970000	25.189649
0.980000	25.189649
0.990000	25.189649
1.000000	25.204675
1.010000	25.204675
1.020000	25.204675
1.030000	25.204675
1.040000	25.204675
1.050000	25.204675
1.060000	25.204675
1.070000	25.204675
1.080000	25.204675
1.090000	25.204675
1.100000	25.204675
1.110000	25.204675
1.120000	25.204675
1.130000	25.204675
1.140000	25.204675
1.150000	25.204675
1.160000	25.204675
1.170000	25.204675
1.180000	25.204675
1.190000	25.204675
1.200000	25.204675
1.210000	25.204675
1.220000	25.204675
1.230000	25.204675
1.240000	25.204675
1.250000	25.204675
1.260000	25.204675
1.270000	25.204675
1.280000	25.204675
1.290000	25.204675
1.300000	25.204675
1.310000	25.204675
1.320000	25.204675
1.330000	25.204675
1.340000	25.204675
1.350000	25.204675
1.360000	25.204675
1.370000	25.204675
1.380000	25.204675
1.390000	25.204675
1.400000	25.204675
1.410000	25.204675
1.420000	25.204675
1.430000	25.204675
1.440000	25.204675
1.450000	25.204675
1.460000	25.204675
1.470000	25.204675
1.480000	25.204675
1.490000	25.204675
1.500000	25.217197
1.510000	25.217197
1.520000	25.217197
1.530000	25.217197
1.540000	25.217197
1.550000	25.217197
1.560000	25.217197
1.570000	25.217197
1.580000	25.217197
1.590000	25.217197
1.600000	25.217197
1.610000	25.217197
1.620000	25.217197
1.630000	25.217197
1.640000	25.217197
1.650000	25.217197
1.660000	25.217197
1.670000	25.217197
1.680000	25.217197
1.690000	25.217197
1.700000	25.217197
1.710000	25.217197
1.720000	25.217197
1.730000	25.217197
1.740000	25.217197
1.750000	25.217197
1.760000	25.217197
1.770000	25.217197
1.780000	25.217197
1.790000	25.217197
1.800000	25.217197
1.810000	25.217197
1.820000	25.217197
1.830000	25.217197
1.840000	25.217197
1.850000	25.217197
1.860000	25.217197
1.870000	25.217197
1.880000	25.217197
1.890000	25.217197
1.900000	25.217197
1.910000	25.217197
1.920000	25.217197
1.930000	25.217197
1.940000	25.217197
1.950000	25.217197
1.960000	25.217197
1.970000	25.217197
1.980000	25.217197
1.990000	25.217197
2.000000	25.228755
2.010000	25.228755
2.020000	25.228755
2.030000	25.228755
2.040000	25.228755
2.050000	25.228755
2.060000	25.228755
2.070000	25.228755
2.080000	25.228755
2.090000	25.228755
2.100000	25.228755
2.110000	25.228755
2.120000	25.228755
2.130000	25.228755
2.140000	25.228755
2.150000	25.228755
2.160000	25.228755
2.170000	25.228755
2.180000	25.228755
2.190000	25.228755
2.200000	25.228755
2.210000	25.228755
2.220000	25.228755
2.230000	25.228755
2.240000	25.228755
2.250000	25.228755
2.260000	25.228755
2.270000	25.228755
2.280000	25.228755
2.290000	25.228755
2.300000	25.228755
2.310000	25.228755
2.320000	25.228755
2.330000	25.228755
2.340000	25.228755
2.350000	25.228755
2.360000	25.228755
2.370000	25.228755
2.380000	25.228755
2.390000	25.228755
2.400000	25.228755
2.410000	25.228755
2.420000	25.228755
2.430000	25.228755
2.440000	25.228755
2.450000	25.228755
2.460000	25.228755
2.470000	25.228755
2.480000	25.228755
2.490000	25.228755
2.500000	25.239478
2.510000	25.239478
2.520000	25.239478
2.530000	25.239478
2.540000	25.239478
2.550000	25.239478
2.560000	25.239478
2.570000	25.239478
2.580000	25.239478
2.590000	25.239478
2.600000	25.239478
2.610000	25.239478
2.620000	25.239478
2.630000	25.239478
2.640000	25.239478
2.650000	25.239478
2.660000	25.239478
2.670000	25.239478
2.680000	25.239478
2.690000	25.239478
2.700000	25.239478
2.710000	25.239478
2.720000	25.239478
2.730000	25.239478
2.740000	25.239478
2.750000	25.239478
2.760000	25.239478
2.770000	25.239478
2.780000	25.239478
2.790000	25.239478
2.800000	25.239478
2.810000	25.239478
2.820000	25.239478
2.830000	25.239478
2.840000	25.239478
2.850000	25.239478
2.860000	25.239478
2.870000	25.239478
2.880000	25.239478
2.890000	25.239478
2.900000	25.239478
2.910000	25.239478
2.920000	25.239478
2.930000	25.239478
2.940000	25.239478
2.950000	25.239478
2.960000	25.239478
2.970000	25.239478
2.980000	25.239478
2.990000	25.239478
3.000000	25.249708
3.010000	25.249708
3.020000	25.249708
3.030000	25.249708
3.040000	25.249708
3.050000	25.249708
3.060000	25.249708
3.070000	25.249708
3.080000	25.249708
3.090000	25.249708
3.100000	25.249708
3.110000	25.249708
3.120000	25.249708
3.130000	25.249708
3.140000	25.249708
3.150000	25.249708
3.160000	25.249708
3.170000	25.249708
3.180000	25.249708
3.190000	25.249708
3.200000	25.249708
3.210000	25.249708
3.220000	25.249708
3.230000	25.249708
3.240000	25.249708
3.250000	25.249708
3.260000	25.249708
3.270000	25.249708
3.280000	25.249708
3.290000	25.249708
3.300000	25.249708
3.310000	25.249708
3.320000	25.249708
3.330000	25.249708
3.340000	25.249708
3.350000	25.249708
3.360000	25.249708
3.370000	25.249708
3.380000	25.249708
3.390000	25.249708
3.400000	25.249708
3.410000	25.249708
3.420000	25.249708
3.430000	25.249708
3.440000	25.249708
3.450000	25.249708
3.460000	25.249708
3.470000	25.249708
3.480000	25.249708
3.490000	25.249708
3.500000	25.255329
3.510000	25.255329
3.520000	25.255329
3.530000	25.255329
3.540000	25.255329
3.550000	25.255329
3.560000	25.255329
3.570000	25.255329
3.580000	25.255329
3.590000	25.255329
3.600000	25.255329
3.610000	25.255329
3.620000	25.255329
3.630000	25.255329
3.640000	25.255329
3.650000	25.255329
3.660000	25.255329
3.670000	25.255329
3.680000	25.255329
3.690000	25.255329
3.700000	25.255329
3.710000	25.255329
3.720000	25.255329
3.730000	25.255329
3.740000	25.255329
3.750000	25.255329
3.760000	25.255329
3.770000	25.255329
3.780000	25.255329
3.790000	25.255329
3.800000	25.255329
3.810000	25.255329
3.820000	25.255329
3.830000	25.255329
3.840000	25.255329
3.850000	25.255329
3.860000	25.255329
3.870000	25.255329
3.880000	25.255329
3.890000	25.255329
3.900000	25.255329
3.910000	25.255329
3.920000	25.255329
3.930000	25.255329
3.940000	25.255329
3.950000	25.255329
3.960000	25.255329
3.970000	25.255329
3.980000	25.255329
3.990000	25.255329
4.000000	25.253767
4.010000	25.253767
4.020000	25.253767
4.030000	25.253767
4.040000	25.253767
4.050000	25.253767
4.060000	25.253767
4.070000	25.253767
4.080000	25.253767
4.090000	25.253767
4.100000	25.253767
4.110000	25.253767
4.120000	25.253767
4.130000	25.253767
4.140000	25.253767
4.150000	25.253767
4.160000	25.253767
4.170000	25.253767
4.180000	25.253767
4.190000	25.253767
4.200000	25.253767
4.210000	25.253767
4.220000	25.253767
4.230000	25.253767
4.240000	25.253767
4.250000	25.253767
4.260000	25.253767
4.270000	25.253767
4.280000	25.253767
4.290000	25.253767
4.300000	25.253767
4.310000	25.253767
4.320000	25.253767
4.330000	25.253767
4.340000	25.253767
4.350000	25.253767
4.360000	25.253767
4.370000	25.253767
4.380000	25.253767
4.390000	25.253767
4.400000	25.253767
4.410000	25.253767
4.420000	25.253767
4.430000	25.253767
4.440000	25.253767
4.450000	25.253767
4.460000	25.253767
4.470000	25.253767
4.480000	25.253767
4.490000	25.253767
4.500000	25.250378
4.510000	25.250378
4.520000	25.250378
4.530000	25.250378
4.540000	25.250378
4.550000	25.250378
4.560000	25.250378
4.570000	25.250378
4.580000	25.250378
4.590000	25.250378
4.600000	25.250378
4.610000	25.250378
4.620000	25.250378
4.630000	25.250378
4.640000	25.250378
4.650000	25.250378
4.660000	25.250378
4.670000	25.250378
4.680000	25.250378
4.690000	25.250378
4.700000	25.250378
4.710000	25.250378
4.720000	25.250378
4.730000	25.250378
4.740000	25.250378
4.750000	25.250378
4.760000	25.250378
4.770000	25.250378
4.780000	25.250378
4.790000	25.250378
4.800000	25.250378
4.810000	25.250378
4.820000	25.250378
4.830000	25.250378
4.840000	25.250378
4.850000	25.250378
4.860000	25.250378
4.870000	25.250378
4.880000	25.250378
4.890000	25.250378
4.900000	25.250378
4.910000	25.250378
4.920000	25.250378
4.930000	25.250378
4.940000	25.250378
4.950000	25.250378
4.960000	25.250378
4.970000	25.250378
4.980000	25.250378
4.990000	25.250378
5.000000	25.247880
5.010000	25.247880
5.020000	25.247880
5.030000	25.247880
5.040000	25.247880
5.050000	25.247880
5.060000	25.247880
5.070000	25.247880
5.080000	25.247880
5.090000	25.247880
5.100000	25.247880
5.110000	25.247880
5.120000	25.247880
5.130000	25.247880
5.140000	25.247880
5.150000	25.247880
5.160000	25.247880
5.170000	25.247880
5.180000	25.247880
5.190000	25.247880
5.200000	25.247880
5.210000	25.247880
5.220000	25.247880
5.230000	25.247880
5.240000	25.247880
5.250000	25.247880
5.260000	25.247880
5.270000	25.247880
5.280000	25.247880
5.290000	25.247880
5.300000	25.247880
5.310000	25.247880
5.320000	25.247880
5.330000	25.247880
5.340000	25.247880
5.350000	25.247880
5.360000	25.247880
5.370000	25.247880
5.380000	25.247880
5.390000	25.247880
5.400000	25.247880
5.410000	25.247880
5.420000	25.247880
5.430000	25.247880
5.440000	25.247880
5.450000	25.247880
5.460000	25.247880
5.470000	25.247880
5.480000	25.247880
5.490000	25.247880
5.500000	25.246825
5.510000	25.246825
5.520000	25.246825
5.530000	25.246825
5.540000	25.246825
5.550000	25.246825
5.560000	25.246825
5.570000	25.246825
5.580000	25.246825
5.590000	25.246825
5.600000	25.246825
5.610000	25.246825
5.620000	25.246825
5.630000	25.246825
5.640000	25.246825
5.650000	25.246825
5.660000	25.246825
5.670000	25.246825
5.680000	25.246825
5.690000	25.246825
5.700000	25.246825
5.710000	25.246825
5.720000	25.246825
5.730000	25.246825
5.740000	25.246825
5.750000	25.246825
5.760000	25.246825
5.770000	25.246825
5.780000	25.246825
5.790000	25.246825
5.800000	25.246825
5.810000	25.246825
5.820000	25.246825
5.830000	25.246825
5.840000	25.246825
5.850000	25.246825
5.860000	25.246825
5.870000	25.246825
5.880000	25.246825
5.890000	25.246825
5.900000	25.246825
5.910000	25.246825
5.920000	25.246825
5.930000	25.246825
5.940000	25.246825
5.950000	25.246825
5.960000	25.246825
5.970000	25.246825
5.980000	25.246825
5.990000	25.246825
6.000000	25.247091
6.010000	25.247091
6.020000	25.247091
6.030000	25.247091
6.040000	25.247091
6.050000	25.247091
6.060000	25.247091
6.070000	25.247091
6.080000	25.247091
6.090000	25.247091
6.100000	25.247091
6.110000	25.247091
6.120000	25.247091
6.130000	25.247091
6.140000	25.247091
6.150000	25.247091
6.160000	25.247091
6.170000	25.247091
6.180000	25.247091
6.190000	25.247091
6.200000	25.247091
6.210000	25.247091
6.220000	25.247091
6.230000	25.247091
6.240000	25.247091
6.250000	25.247091
6.260000	25.247091
6.270000	25.247091
6.280000	25.247091
6.290000	25.247091
6.300000	25.247091
6.310000	25.247091
6.320000	25.247091
6.330000	25.247091
6.340000	25.247091
6.350000	25.247091
6.360000	25.247091
6.370000	25.247091
6.380000	25.247091
6.390000	25.247091
6.400000	25.247091
6.410000	25.247091
6.420000	25.247091
6.430000	25.247091
6.440000	25.247091
6.450000	25.247091
6.460000	25.247091
6.470000	25.247091
6.480000	25.247091
6.490000	25.247091
6.500000	25.248172
6.510000	25.248172
6.520000	25.248172
6.530000	25.248172
6.540000	25.248172
6.550000	25.248172
6.560000	25.248172
6.570000	25.248172
6.580000	25.248172
6.590000	25.248172
6.600000	25.248172
6.610000	25.248172
6.620000	25.248172
6.630000	25.248172
6.640000	25.248172
6.650000	25.248172
6.660000	25.248172
6.670000	25.248172
6.680000	25.248172
6.690000	25.248172
6.700000	25.248172
6.710000	25.248172
6.720000	25.248172
6.730000	25.248172
6.740000	25.248172
6.750000	25.248172
6.760000	25.248172
6.770000	25.248172
6.780000	25.248172
6.790000	25.248172
6.800000	25.248172
6.810000	25.248172
6.820000	25.248172
6.830000	25.248172
6.840000	25.248172
6.850000	25.248172
6.860000	25.248172
6.870000	25.248172
6.880000	25.248172
6.890000	25.248172
6.900000	25.248172
6.910000	25.248172
6.920000	25.248172
6.930000	25.248172
6.940000	25.248172
6.950000	25.248172
6.960000	25.248172
6.970000	25.248172
6.980000	25.248172
6.990000	25.248172
7.000000	25.247700
7.010000	25.247700
7.020000	25.247700
7.030000	25.247700
7.040000	25.247700
7.050000	25.247700
7.060000	25.247700
7.070000	25.247700
7.080000	25.247700
7.090000	25.247700
7.100000	25.247700
7.110000	25.247700
7.120000	25.247700
7.130000	25.247700
7.140000	25.247700
7.150000	25.247700
7.160000	25.247700
7.170000	25.247700
7.180000	25.247700
7.190000	25.247700
7.200000	25.247700
7.210000	25.247700
7.220000	25.247700
7.230000	25.247700
7.240000	25.247700
7.250000	25.247700
7.260000	25.247700
7.270000	25.247700
7.280000	25.247700
7.290000	25.247700
7.300000	25.247700
7.310000	25.247700
7.320000	25.247700
7.330000	25.247700
7.340000	25.247700
7.350000	25.247700
7.360000	25.247700
7.370000	25.247700
7.380000	25.247700
7.390000	25.247700
7.400000	25.247700
7.410000	25.247700
7.420000	25.247700
7.430000	25.247700
7.440000	25.247700
7.450000	25.247700
7.460000	25.247700
7.470000	25.247700
7.480000	25.247700
7.490000	25.247700
7.500000	25.249477
7.510000	25.249477
7.520000	25.249477
7.530000	25.249477
7.540000	25.249477
7.550000	25.249477
7.560000	25.249477
7.570000	25.249477
7.580000	25.249477
7.590000	25.249477
7.600000	25.249477
7.610000	25.249477
7.620000	25.249477
7.630000	25.249477
7.640000	25.249477
7.650000	25.249477
7.660000	25.249477
7.670000	25.249477
7.680000	25.249477
7.690000	25.249477
7.700000	25.249477
7.710000	25.249477
7.720000	25.249477
7.730000	25.249477
7.740000	25.249477
7.750000	25.249477
7.760000	25.249477
7.770000	25.249477
7.780000	25.249477
7.790000	25.249477
7.800000	25.249477
7.810000	25.249477
7.820000	25.249477
7.830000	25.249477
7.840000	25.249477
7.850000	25.249477
7.860000	25.249477
7.870000	25.249477
7.880000	25.249477
7.890000	25.249477
7.900000	25.249477
7.910000	25.249477
7.920000	25.249477
7.930000	25.249477
7.940000	25.249477
7.950000	25.249477
7.960000	25.249477
7.970000	25.249477
7.980000	25.249477
7.990000	25.249477
8.000000	25.254128
8.010000	25.254128
8.020000	25.254128
8.030000	25.254128
8.040000	25.254128
8.050000	25.254128
8.060000	25.254128
8.070000	25.254128
8.080000	25.254128
8.090000	25.254128
8.100000	25.254128
8.110000	25.254128
8.120000	25.254128
8.130000	25.254128
8.140000	25.254128
8.150000	25.254128
8.160000	25.254128
8.170000	25.254128
8.180000	25.254128
8.190000	25.254128
8.200000	25.254128
8.210000	25.254128
8.220000	25.254128
8.230000	25.254128
8.240000	25.254128
8.250000	25.254128
8.260000	25.254128
8.270000	25.254128
8.280000	25.254128
8.290000	25.254128
8.300000	25.254128
8.310000	25.254128
8.320000	25.254128
8.330000	25.254128
8.340000	25.254128
8.350000	25.254128
8.360000	25.254128
8.370000	25.254128
8.380000	25.254128
8.390000	25.254128
8.400000	25.254128
8.410000	25.254128
8.420000	25.254128
8.430000	25.254128
8.440000	25.254128
8.450000	25.254128
8.460000	25.254128
8.470000	25.254128
8.480000	25.254128
8.490000	25.254128
8.500000	25.255578
8.510000	25.255578
8.520000	25.255578
8.530000	25.255578
8.540000	25.255578
8.550000	25.255578
8.560000	25.255578
8.570000	25.255578
8.580000	25.255578
8.590000	25.255578
8.600000	25.255578
8.610000	25.255578
8.620000	25.255578
8.630000	25.255578
8.640000	25.255578
8.650000	25.255578
8.660000	25.255578
8.670000	25.255578
8.680000	25.255578
8.690000	25.255578
8.700000	25.255578
8.710000	25.255578
8.720000	25.255578
8.730000	25.255578
8.740000	25.255578
8.750000	25.255578
8.760000	25.255578
8.770000	25.255578
8.780000	25.255578
8.790000	25.255578
8.800000	25.255578
8.810000	25.255578
8.820000	25.255578
8.830000	25.255578
8.840000	25.255578
8.850000	25.255578
8.860000	25.255578
8.870000	25.255578
8.880000	25.255578
8.890000	25.255578
8.900000	25.255578
8.910000	25.255578
8.920000	25.255578
8.930000	25.255578
8.940000	25.255578
8.950000	25.255578
8.960000	25.255578
8.970000	25.255578
8.980000	25.255578
8.990000	25.255578
9.000000	25.256402
9.010000	25.256402
9.020000	25.256402
9.030000	25.256402
9.040000	25.256402
9.050000	25.256402
9.060000	25.256402
9.070000	25.256402
9.080000	25.256402
9.090000	25.256402
9.100000	25.256402
9.110000	25.256402
9.120000	25.256402
9.130000	25.256402
9.140000	25.256402
9.150000	25.256402
9.160000	25.256402
9.170000	25.256402
9.180000	25.256402
9.190000	25.256402
9.200000	25.256402
9.210000	25.256402
9.220000	25.256402
9.230000	25.256402
9.240000	25.256402
9.250000	25.256402
9.260000	25.256402
9.270000	25.256402
9.280000	25.256402
9.290000	25.256402
9.300000	25.256402
9.310000	25.256402
9.320000	25.256402
9.330000	25.256402
9.340000	25.256402
9.350000	25.256402
9.360000	25.256402
9.370000	25.256402
9.380000	25.256402
9.390000	25.256402
9.400000	25.256402
9.410000	25.256402
9.420000	25.256402
9.430000	25.256402
9.440000	25.256402
9.450000	25.256402
9.460000	25.256402
9.470000	25.256402
9.480000	25.256402
9.490000	25.256402
9.500000	25.257003
9.510000	25.257003
9.520000	25.257003
9.530000	25.257003
9.540000	25.257003
9.550000	25.257003
9.560000	25.257003
9.570000	25.257003
9.580000	25.257003
9.590000	25.257003
9.600000	25.257003
9.610000	25.257003
9.620000	25.257003
9.630000	25.257003
9.640000	25.257003
9.650000	25.257003
9.660000	25.257003
9.670000	25.257003
9.680000	25.257003
9.690000	25.257003
9.700000	25.257003
9.710000	25.257003
9.720000	25.257003
9.730000	25.257003
9.740000	25.257003
9.750000	25.257003
9.760000	25.257003
9.770000	25.257003
9.780000	25.257003
9.790000	25.257003
9.800000	25.257003
9.810000	25.257003
9.820000	25.257003
9.830000	25.257003
9.840000	25.257003
9.850000	25.257003
9.860000	25.257003
9.870000	25.257003
9.880000	25.257003
9.890000	25.257003
9.900000	25.257003
9.910000	25.257003
9.920000	25.257003
9.930000	25.257003
9.940000	25.257003
9.950000	25.257003
9.960000	25.257003
9.970000	25.257003
9.980000	25.257003
9.990000	25.257003
10.000000	25.258298
10.010000	25.258298
10.020000	25.258298
10.030000	25.258298
10.040000	25.258298
10.050000	25.258298
10.060000	25.258298
10.070000	25.258298
10.080000	25.258298
10.090000	25.258298
10.100000	25.258298
10.110000	25.258298
10.120000	25.258298
10.130000	25.258298
10.140000	25.258298
10.150000	25.258298
10.160000	25.258298
10.170000	25.258298
10.180000	25.258298
10.190000	25.258298
10.200000	25.258298
10.210000	25.258298
10.220000	25.258298
10.230000	25.258298
10.240000	25.258298
10.250000	25.258298
10.260000	25.258298
10.270000	25.258298
10.280000	25.258298
10.290000	25.258298
10.300000	25.258298
10.310000	25.258298
10.320000	25.258298
10.330000	25.258298
10.340000	25.258298
10.350000	25.258298
10.360000	25.258298
10.370000	25.258298
10.380000	25.258298
10.390000	25.258298
10.400000	25.258298
10.410000	25.258298
10.420000	25.258298
10.430000	25.258298
10.440000	25.258298
10.450000	25.258298
10.460000	25.258298
10.470000	25.258298
10.480000	25.258298
10.490000	25.258298
10.500000	25.259457
10.510000	25.259457
10.520000	25.259457
10.530000	25.259457
10.540000	25.259457
10.550000	25.259457
10.560000	25.259457
10.570000	25.259457
10.580000	25.259457
10.590000	25.259457
10.600000	25.259457
10.610000	25.259457
10.620000	25.259457
10.630000	25.259457
10.640000	25.259457
10.650000	25.259457
10.660000	25.259457
10.670000	25.259457
10.680000	25.259457
10.690000	25.259457
10.700000	25.259457
10.710000	25.259457
10.720000	25.259457
10.730000	25.259457
10.740000	25.259457
10.750000	25.259457
10.760000	25.259457
10.770000	25.259457
10.780000	25.259457
10.790000	25.259457
10.800000	25.259457
10.810000	25.259457
10.820000	25.259457
10.830000	25.259457
10.840000	25.259457
10.850000	25.259457
10.860000	25.259457
10.870000	25.259457
10.880000	25.259457
10.890000	25.259457
10.900000	25.259457
10.910000	25.259457
10.920000	25.259457
10.930000	25.259457
10.940000	25.259457
10.950000	25.259457
10.960000	25.259457
10.970000	25.259457
10.980000	25.259457
10.990000	25.259457
11.000000	25.260538
11.010000	25.260538
11.020000	25.260538
11.030000	25.260538
11.040000	25.260538
11.050000	25.260538
11.060000	25.260538
11.070000	25.260538
11.080000	25.260538
11.090000	25.260538
11.100000	25.260538
11.110000	25.260538
11.120000	25.260538
11.130000	25.260538
11.140000	25.260538
11.150000	25.260538
11.160000	25.260538
11.170000	25.260538
11.180000	25.260538
11.190000	25.260538
11.200000	25.260538
11.210000	25.260538
11.220000	25.260538
11.230000	25.260538
11.240000	25.260538
11.250000	25.260538
11.260000	25.260538
11.270000	25.260538
11.280000	25.260538
11.290000	25.260538
11.300000	25.260538
11.310000	25.260538
11.320000	25.260538
11.330000	25.260538
11.340000	25.260538
11.350000	25.260538
11.360000	25.260538
11.370000	25.260538
11.380000	25.260538
11.390000	25.260538
11.400000	25.260538
11.410000	25.260538
11.420000	25.260538
11.430000	25.260538
11.440000	25.260538
11.450000	25.260538
11.460000	25.260538
11.470000	25.260538
11.480000	25.260538
11.490000	25.260538
11.500000	25.261070
11.510000	25.261070
11.520000	25.261070
11.530000	25.261070
11.540000	25.261070
11.550000	25.261070
11.560000	25.261070
11.570000	25.261070
11.580000	25.261070
11.590000	25.261070
11.600000	25.261070
11.610000	25.261070
11.620000	25.261070
11.630000	25.261070
11.640000	25.261070
11.650000	25.261070
11.660000	25.261070
11.670000	25.261070
11.680000	25.261070
11.690000	25.261070
11.700000	25.261070
11.710000	25.261070
11.720000	25.261070
11.730000	25.261070
11.740000	25.261070
11.750000	25.261070
11.760000	25.261070
11.770000	25.261070
11.780000	25.261070
11.790000	25.261070
11.800000	25.261070
11.810000	25.261070
11.820000	25.261070
11.830000	25.261070
11.840000	25.261070
11.850000	25.261070
11.860000	25.261070
11.870000	25.261070
11.880000	25.261070
11.890000	25.261070
11.900000	25.261070
11.910000	25.261070
11.920000	25.261070
11.930000	25.261070
11.940000	25.261070
11.950000	25.261070
11.960000	25.261070
11.970000	25.261070
11.980000	25.261070
11.990000	25.261070
12.000000	25.262331
12.010000	25.262331
12.020000	25.262331
12.030000	25.262331
12.040000	25.262331
12.050000	25.262331
12.060000	25.262331
12.070000	25.262331
12.080000	25.262331
12.090000	25.262331
12.100000	25.262331
12.110000	25.262331
12.120000	25.262331
12.130000	25.262331
12.140000	25.262331
12.150000	25.262331
12.160000	25.262331
12.170000	25.262331
12.180000	25.262331
12.190000	25.262331
12.200000	25.262331
12.210000	25.262331
12.220000	25.262331
12.230000	25.262331
12.240000	25.262331
12.250000	25.262331
12.260000	25.262331
12.270000	25.262331
12.280000	25.262331
12.290000	25.262331
12.300000	25.262331
12.310000	25.262331
12.320000	25.262331
12.330000	25.262331
12.340000	25.262331
12.350000	25.262331
12.360000	25.262331
12.370000	25.262331
12.380000	25.262331
12.390000	25.262331
12.400000	25.262331
12.410000	25.262331
12.420000	25.262331
12.430000	25.262331
12.440000	25.262331
12.450000	25.262331
12.460000	25.262331
12.470000	25.262331
12.480000	25.262331
12.490000	25.262331
12.500000	25.265411
12.510000	25.265411
12.520000	25.265411
12.530000	25.265411
12.540000	25.265411
12.550000	25.265411
12.560000	25.265411
12.570000	25.265411
12.580000	25.265411
12.590000	25.265411
12.600000	25.265411
12.610000	25.265411
12.620000	25.265411
12.630000	25.265411
12.640000	25.265411
12.650000	25.265411
12.660000	25.265411
12.670000	25.265411
12.680000	25.265411
12.690000	25.265411
12.700000	25.265411
12.710000	25.265411
12.720000	25.265411
12.730000	25.265411
12.740000	25.265411
12.750000	25.265411
12.760000	25.265411
12.770000	25.265411
12.780000	25.265411
12.790000	25.265411
12.800000	25.265411
12.810000	25.265411
12.820000	25.265411
12.830000	25.265411
12.840000	25.265411
12.850000	25.265411
12.860000	25.265411
12.870000	25.265411
12.880000	25.265411
12.890000	25.265411
12.900000	25.265411
12.910000	25.265411
12.920000	25.265411
12.930000	25.265411
12.940000	25.265411
12.950000	25.265411
12.960000	25.265411
12.970000	25.265411
12.980000	25.265411
12.990000	25.265411
13.000000	25.268637
13.010000	25.268637
13.020000	25.268637
13.030000	25.268637
13.040000	25.268637
13.050000	25.268637
13.060000	25.268637
13.070000	25.268637
13.080000	25.268637
13.090000	25.268637
13.100000	25.268637
13.110000	25.268637
13.120000	25.268637
13.130000	25.268637
13.140000	25.268637
13.150000	25.268637
13.160000	25.268637
13.170000	25.268637
13.180000	25.268637
13.190000	25.268637
13.200000	25.268637
13.210000	25.268637
13.220000	25.268637
13.230000	25.268637
13.240000	25.268637
13.250000	25.268637
13.260000	25.268637
13.270000	25.268637
13.280000	25.268637
13.290000	25.268637
13.300000	25.268637
13.310000	25.268637
13.320000	25.268637
13.330000	25.268637
13.340000	25.268637
13.350000	25.268637
13.360000	25.268637
13.370000	25.268637
13.380000	25.268637
13.390000	25.268637
13.400000	25.268637
13.410000	25.268637
13.420000	25.268637
13.430000	25.268637
13.440000	25.268637
13.450000	25.268637
13.460000	25.268637
13.470000	25.268637
13.480000	25.268637
13.490000	25.268637
13.500000	25.270241
13.510000	25.270241
13.520000	25.270241
13.530000	25.270241
13.540000	25.270241
13.550000	25.270241
13.560000	25.270241
13.570000	25.270241
13.580000	25.270241
13.590000	25.270241
13.600000	25.270241
13.610000	25.270241
13.620000	25.270241
13.630000	25.270241
13.640000	25.270241
13.650000	25.270241
13.660000	25.270241
13.670000	25.270241
13.680000	25.270241
13.690000	25.270241
13.700000	25.270241
13.710000	25.270241
13.720000	25.270241
13.730000	25.270241
13.740000	25.270241
13.750000	25.270241
13.760000	25.270241
13.770000	25.270241
13.780000	25.270241
13.790000	25.270241
13.800000	25.270241
13.810000	25.270241
13.820000	25.270241
13.830000	25.270241
13.840000	25.270241
13.850000	25.270241
13.860000	25.270241
13.870000	25.270241
13.880000	25.270241
13.890000	25.270241
13.900000	25.270241
13.910000	25.270241
13.920000	25.270241
13.930000	25.270241
13.940000	25.270241
13.950000	25.270241
13.960000	25.270241
13.970000	25.270241
13.980000	25.270241
13.990000	25.270241
14.000000	25.271467
14.010000	25.271467
14.020000	25.271467
14.030000	25.271467
14.040000	25.271467
14.050000	25.271467
14.060000	25.271467
14.070000	25.271467
14.080000	25.271467
14.090000	25.271467
14.100000	25.271467
14.110000	25.271467
14.120000	25.271467
14.130000	25.271467
14.140000	25.271467
14.150000	25.271467
14.160000	25.271467
14.170000	25.271467
14.180000	25.271467
14.190000	25.271467
14.200000	25.271467
14.210000	25.271467
14.220000	25.271467
14.230000	25.271467
14.240000	25.271467
14.250000	25.271467
14.260000	25.271467
14.270000	25.271467
14.280000	25.271467
14.290000	25.271467
14.300000	25.271467
14.310000	25.271467
14.320000	25.271467
14.330000	25.271467
14.340000	25.271467
14.350000	25.271467
14.360000	25.271467
14.370000	25.271467
14.380000	25.271467
14.390000	25.271467
14.400000	25.271467
14.410000	25.271467
14.420000	25.271467
14.430000	25.271467
14.440000	25.271467
14.450000	25.271467
14.460000	25.271467
14.470000	25.271467
14.480000	25.271467
14.490000	25.271467
14.500000	25.270575
14.510000	25.270575
14.520000	25.270575
14.530000	25.270575
14.540000	25.270575
14.550000	25.270575
14.560000	25.270575
14.570000	25.270575
14.580000	25.270575
14.590000	25.270575
14.600000	25.270575
14.610000	25.270575
14.620000	25.270575
14.630000	25.270575
14.640000	25.270575
14.650000	25.270575
14.660000	25.270575
14.670000	25.270575
14.680000	25.270575
14.690000	25.270575
14.700000	25.270575
14.710000	25.270575
14.720000	25.270575
14.730000	25.270575
14.740000	25.270575
14.750000	25.270575
14.760000	25.270575
14.770000	25.270575
14.780000	25.270575
14.790000	25.270575
14.800000	25.270575
14.810000	25.270575
14.820000	25.270575
14.830000	25.270575
14.840000	25.270575
14.850000	25.270575
14.860000	25.270575
14.870000	25.270575
14.880000	25.270575
14.890000	25.270575
14.900000	25.270575
14.910000	25.270575
14.920000	25.270575
14.930000	25.270575
14.940000	25.270575
14.950000	25.270575
14.960000	25.270575
14.970000	25.270575
14.980000	25.270575
14.990000	25.270575
15.000000	25.269203
15.010000	25.269203
15.020000	25.269203
15.030000	25.269203
15.040000	25.269203
15.050000	25.269203
15.060000	25.269203
15.070000	25.269203
15.080000	25.269203
15.090000	25.269203
15.100000	25.269203
15.110000	25.269203
15.120000	25.269203
15.130000	25.269203
15.140000	25.269203
15.150000	25.269203
15.160000	25.269203
15.170000	25.269203
15.180000	25.269203
15.190000	25.269203
15.200000	25.269203
15.210000	25.269203
15.220000	25.269203
15.230000	25.269203
15.240000	25.269203
15.250000	25.269203
15.260000	25.269203
15.270000	25.269203
15.280000	25.269203
15.290000	25.269203
15.300000	25.269203
15.310000	25.269203
15.320000	25.269203
15.330000	25.269203
15.340000	25.269203
15.350000	25.269203
15.360000	25.269203
15.370000	25.269203
15.380000	25.269203
15.390000	25.269203
15.400000	25.269203
15.410000	25.269203
15.420000	25.269203
15.430000	25.269203
15.440000	25.269203
15.450000	25.269203
15.460000	25.269203
15.470000	25.269203
15.480000	25.269203
15.490000	25.269203
15.500000	25.268714
15.510000	25.268714
15.520000	25.268714
15.530000	25.268714
15.540000	25.268714
15.550000	25.268714
15.560000	25.268714
15.570000	25.268714
15.580000	25.268714
15.590000	25.268714
15.600000	25.268714
15.610000	25.268714
15.620000	25.268714
15.630000	25.268714
15.640000	25.268714
15.650000	25.268714
15.660000	25.268714
15.670000	25.268714
15.680000	25.268714
15.690000	25.268714
15.700000	25.268714
15.710000	25.268714
15.720000	25.268714
15.730000	25.268714
15.740000	25.268714
15.750000	25.268714
15.760000	25.268714
15.770000	25.268714
15.780000	25.268714
15.790000	25.268714
15.800000	25.268714
15.810000	25.268714
15.820000	25.268714
15.830000	25.268714
15.840000	25.268714
15.850000	25.268714
15.860000	25.268714
15.870000	25.268714
15.880000	25.268714
15.890000	25.268714
15.900000	25.268714
15.910000	25.268714
15.920000	25.268714
15.930000	25.268714
15.940000	25.268714
15.950000	25.268714
15.960000	25.268714
15.970000	25.268714
15.980000	25.268714
15.990000	25.268714
16.000000	25.268920
16.010000	25.268920
16.020000	25.268920
16.030000	25.268920
16.040000	25.268920
16.050000	25.268920
16.060000	25.268920
16.070000	25.268920
16.080000	25.268920
16.090000	25.268920
16.100000	25.268920
16.110000	25.268920
16.120000	25.268920
16.130000	25.268920
16.140000	25.268920
16.150000	25.268920
16.160000	25.268920
16.170000	25.268920
16.180000	25.268920
16.190000	25.268920
16.200000	25.268920
16.210000	25.268920
16.220000	25.268920
16.230000	25.268920
16.240000	25.268920
16.250000	25.268920
16.260000	25.268920
16.270000	25.268920
16.280000	25.268920
16.290000	25.268920
16.300000	25.268920
16.310000	25.268920
16.320000	25.268920
16.330000	25.268920
16.340000	25.268920
16.350000	25.268920
16.360000	25.268920
16.370000	25.268920
16.380000	25.268920
16.390000	25.268920
16.400000	25.268920
16.410000	25.268920
16.420000	25.268920
16.430000	25.268920
16.440000	25.268920
16.450000	25.268920
16.460000	25.268920
16.470000	25.268920
16.480000	25.268920
16.490000	25.268920
16.500000	25.268920
16.510000	25.268920
16.520000	25.268920
16.530000	25.268920
16.540000	25.268920
16.550000	25.268920
16.560000	25.268920
16.570000	25.268920
16.580000	25.268920
16.590000	25.268920
16.600000	25.268920
16.610000	25.268920
16.620000	25.268920
16.630000	25.268920
16.640000	25.268920
16.650000	25.268920
16.660000	25.268920
16.670000	25.268920
16.680000	25.268920
16.690000	25.268920
16.700000	25.268920
16.710000	25.268920
16.720000	25.268920
16.730000	25.268920
16.740000	25.268920
16.750000	25.268920
16.760000	25.268920
16.770000	25.268920
16.780000	25.268920
16.790000	25.268920
16.800000	25.268920
16.810000	25.268920
16.820000	25.268920
16.830000	25.268920
16.840000	25.268920
16.850000	25.268920
16.860000	25.268920
16.870000	25.268920
16.880000	25.268920
16.890000	25.268920
16.900000	25.268920
16.910000	25.268920
16.920000	25.268920
16.930000	25.268920
16.940000	25.268920
16.950000	25.268920
16.960000	25.268920
16.970000	25.268920
16.980000	25.268920
16.990000	25.268920
17.000000	25.268251
17.010000	25.268251
17.020000	25.268251
17.030000	25.268251
17.040000	25.268251
17.050000	25.268251
17.060000	25.268251
17.070000	25.268251
17.080000	25.268251
17.090000	25.268251
17.100000	25.268251
17.110000	25.268251
17.120000	25.268251
17.130000	25.268251
17.140000	25.268251
17.150000	25.268251
17.160000	25.268251
17.170000	25.268251
17.180000	25.268251
17.190000	25.268251
17.200000	25.268251
17.210000	25.268251
17.220000	25.268251
17.230000	25.268251
17.240000	25.268251
17.250000	25.268251
17.260000	25.268251
17.270000	25.268251
17.280000	25.268251
17.290000	25.268251
17.300000	25.268251
17.310000	25.268251
17.320000	25.268251
17.330000	25.268251
17.340000	25.268251
17.350000	25.268251
17.360000	25.268251
17.370000	25.268251
17.380000	25.268251
17.390000	25.268251
17.400000	25.268251
17.410000	25.268251
17.420000	25.268251
17.430000	25.268251
17.440000	25.268251
17.450000	25.268251
17.460000	25.268251
17.470000	25.268251
17.480000	25.268251
17.490000	25.268251
