LabVIEW Measurement	
Writer_Version	2
Reader_Version	2
Separator	Tab
Decimal_Separator	.
Multi_Headings	No
X_Columns	One
Time_Pref	Absolute
Operator	biomech-dyno
Date	2023/04/27
Time	17:41:55.9338632999999876419
***End_of_Header***	
	
Channels	1	
Samples	10	
Date	2023/04/27	
Time	19:49:57.4457407999997225947	
X_Dimension	Time	
X0	0.0000000000000000E+0	
Delta_X	0.010000	
***End_of_Header***		
X_Value	Untitled	Comment
0.000000	25.111591
0.010000	25.111591
0.020000	25.111591
0.030000	25.111591
0.040000	25.111591
0.050000	25.111591
0.060000	25.111591
0.070000	25.111591
0.080000	25.111591
0.090000	25.111591
0.100000	25.111591
0.110000	25.111591
0.120000	25.111591
0.130000	25.111591
0.140000	25.111591
0.150000	25.111591
0.160000	25.111591
0.170000	25.111591
0.180000	25.111591
0.190000	25.111591
0.200000	25.111591
0.210000	25.111591
0.220000	25.111591
0.230000	25.111591
0.240000	25.111591
0.250000	25.111591
0.260000	25.111591
0.270000	25.111591
0.280000	25.111591
0.290000	25.111591
0.300000	25.111591
0.310000	25.111591
0.320000	25.111591
0.330000	25.111591
0.340000	25.111591
0.350000	25.111591
0.360000	25.111591
0.370000	25.111591
0.380000	25.111591
0.390000	25.111591
0.400000	25.111591
0.410000	25.111591
0.420000	25.111591
0.430000	25.111591
0.440000	25.111591
0.450000	25.111591
0.460000	25.111591
0.470000	25.111591
0.480000	25.111591
0.490000	25.111591
0.500000	25.158284
0.510000	25.158284
0.520000	25.158284
0.530000	25.158284
0.540000	25.158284
0.550000	25.158284
0.560000	25.158284
0.570000	25.158284
0.580000	25.158284
0.590000	25.158284
0.600000	25.158284
0.610000	25.158284
0.620000	25.158284
0.630000	25.158284
0.640000	25.158284
0.650000	25.158284
0.660000	25.158284
0.670000	25.158284
0.680000	25.158284
0.690000	25.158284
0.700000	25.158284
0.710000	25.158284
0.720000	25.158284
0.730000	25.158284
0.740000	25.158284
0.750000	25.158284
0.760000	25.158284
0.770000	25.158284
0.780000	25.158284
0.790000	25.158284
0.800000	25.158284
0.810000	25.158284
0.820000	25.158284
0.830000	25.158284
0.840000	25.158284
0.850000	25.158284
0.860000	25.158284
0.870000	25.158284
0.880000	25.158284
0.890000	25.158284
0.900000	25.158284
0.910000	25.158284
0.920000	25.158284
0.930000	25.158284
0.940000	25.158284
0.950000	25.158284
0.960000	25.158284
0.970000	25.158284
0.980000	25.158284
0.990000	25.158284
1.000000	25.553746
1.010000	25.553746
1.020000	25.553746
1.030000	25.553746
1.040000	25.553746
1.050000	25.553746
1.060000	25.553746
1.070000	25.553746
1.080000	25.553746
1.090000	25.553746
1.100000	25.553746
1.110000	25.553746
1.120000	25.553746
1.130000	25.553746
1.140000	25.553746
1.150000	25.553746
1.160000	25.553746
1.170000	25.553746
1.180000	25.553746
1.190000	25.553746
1.200000	25.553746
1.210000	25.553746
1.220000	25.553746
1.230000	25.553746
1.240000	25.553746
1.250000	25.553746
1.260000	25.553746
1.270000	25.553746
1.280000	25.553746
1.290000	25.553746
1.300000	25.553746
1.310000	25.553746
1.320000	25.553746
1.330000	25.553746
1.340000	25.553746
1.350000	25.553746
1.360000	25.553746
1.370000	25.553746
1.380000	25.553746
1.390000	25.553746
1.400000	25.553746
1.410000	25.553746
1.420000	25.553746
1.430000	25.553746
1.440000	25.553746
1.450000	25.553746
1.460000	25.553746
1.470000	25.553746
1.480000	25.553746
1.490000	25.553746
1.500000	26.475787
1.510000	26.475787
1.520000	26.475787
1.530000	26.475787
1.540000	26.475787
1.550000	26.475787
1.560000	26.475787
1.570000	26.475787
1.580000	26.475787
1.590000	26.475787
1.600000	26.475787
1.610000	26.475787
1.620000	26.475787
1.630000	26.475787
1.640000	26.475787
1.650000	26.475787
1.660000	26.475787
1.670000	26.475787
1.680000	26.475787
1.690000	26.475787
1.700000	26.475787
1.710000	26.475787
1.720000	26.475787
1.730000	26.475787
1.740000	26.475787
1.750000	26.475787
1.760000	26.475787
1.770000	26.475787
1.780000	26.475787
1.790000	26.475787
1.800000	26.475787
1.810000	26.475787
1.820000	26.475787
1.830000	26.475787
1.840000	26.475787
1.850000	26.475787
1.860000	26.475787
1.870000	26.475787
1.880000	26.475787
1.890000	26.475787
1.900000	26.475787
1.910000	26.475787
1.920000	26.475787
1.930000	26.475787
1.940000	26.475787
1.950000	26.475787
1.960000	26.475787
1.970000	26.475787
1.980000	26.475787
1.990000	26.475787
2.000000	27.835196
2.010000	27.835196
2.020000	27.835196
2.030000	27.835196
2.040000	27.835196
2.050000	27.835196
2.060000	27.835196
2.070000	27.835196
2.080000	27.835196
2.090000	27.835196
2.100000	27.835196
2.110000	27.835196
2.120000	27.835196
2.130000	27.835196
2.140000	27.835196
2.150000	27.835196
2.160000	27.835196
2.170000	27.835196
2.180000	27.835196
2.190000	27.835196
2.200000	27.835196
2.210000	27.835196
2.220000	27.835196
2.230000	27.835196
2.240000	27.835196
2.250000	27.835196
2.260000	27.835196
2.270000	27.835196
2.280000	27.835196
2.290000	27.835196
2.300000	27.835196
2.310000	27.835196
2.320000	27.835196
2.330000	27.835196
2.340000	27.835196
2.350000	27.835196
2.360000	27.835196
2.370000	27.835196
2.380000	27.835196
2.390000	27.835196
2.400000	27.835196
2.410000	27.835196
2.420000	27.835196
2.430000	27.835196
2.440000	27.835196
2.450000	27.835196
2.460000	27.835196
2.470000	27.835196
2.480000	27.835196
2.490000	27.835196
2.500000	29.517994
2.510000	29.517994
2.520000	29.517994
2.530000	29.517994
2.540000	29.517994
2.550000	29.517994
2.560000	29.517994
2.570000	29.517994
2.580000	29.517994
2.590000	29.517994
2.600000	29.517994
2.610000	29.517994
2.620000	29.517994
2.630000	29.517994
2.640000	29.517994
2.650000	29.517994
2.660000	29.517994
2.670000	29.517994
2.680000	29.517994
2.690000	29.517994
2.700000	29.517994
2.710000	29.517994
2.720000	29.517994
2.730000	29.517994
2.740000	29.517994
2.750000	29.517994
2.760000	29.517994
2.770000	29.517994
2.780000	29.517994
2.790000	29.517994
2.800000	29.517994
2.810000	29.517994
2.820000	29.517994
2.830000	29.517994
2.840000	29.517994
2.850000	29.517994
2.860000	29.517994
2.870000	29.517994
2.880000	29.517994
2.890000	29.517994
2.900000	29.517994
2.910000	29.517994
2.920000	29.517994
2.930000	29.517994
2.940000	29.517994
2.950000	29.517994
2.960000	29.517994
2.970000	29.517994
2.980000	29.517994
2.990000	29.517994
3.000000	31.342560
3.010000	31.342560
3.020000	31.342560
3.030000	31.342560
3.040000	31.342560
3.050000	31.342560
3.060000	31.342560
3.070000	31.342560
3.080000	31.342560
3.090000	31.342560
3.100000	31.342560
3.110000	31.342560
3.120000	31.342560
3.130000	31.342560
3.140000	31.342560
3.150000	31.342560
3.160000	31.342560
3.170000	31.342560
3.180000	31.342560
3.190000	31.342560
3.200000	31.342560
3.210000	31.342560
3.220000	31.342560
3.230000	31.342560
3.240000	31.342560
3.250000	31.342560
3.260000	31.342560
3.270000	31.342560
3.280000	31.342560
3.290000	31.342560
3.300000	31.342560
3.310000	31.342560
3.320000	31.342560
3.330000	31.342560
3.340000	31.342560
3.350000	31.342560
3.360000	31.342560
3.370000	31.342560
3.380000	31.342560
3.390000	31.342560
3.400000	31.342560
3.410000	31.342560
3.420000	31.342560
3.430000	31.342560
3.440000	31.342560
3.450000	31.342560
3.460000	31.342560
3.470000	31.342560
3.480000	31.342560
3.490000	31.342560
3.500000	32.857231
3.510000	32.857231
3.520000	32.857231
3.530000	32.857231
3.540000	32.857231
3.550000	32.857231
3.560000	32.857231
3.570000	32.857231
3.580000	32.857231
3.590000	32.857231
3.600000	32.857231
3.610000	32.857231
3.620000	32.857231
3.630000	32.857231
3.640000	32.857231
3.650000	32.857231
3.660000	32.857231
3.670000	32.857231
3.680000	32.857231
3.690000	32.857231
3.700000	32.857231
3.710000	32.857231
3.720000	32.857231
3.730000	32.857231
3.740000	32.857231
3.750000	32.857231
3.760000	32.857231
3.770000	32.857231
3.780000	32.857231
3.790000	32.857231
3.800000	32.857231
3.810000	32.857231
3.820000	32.857231
3.830000	32.857231
3.840000	32.857231
3.850000	32.857231
3.860000	32.857231
3.870000	32.857231
3.880000	32.857231
3.890000	32.857231
3.900000	32.857231
3.910000	32.857231
3.920000	32.857231
3.930000	32.857231
3.940000	32.857231
3.950000	32.857231
3.960000	32.857231
3.970000	32.857231
3.980000	32.857231
3.990000	32.857231
4.000000	33.981772
4.010000	33.981772
4.020000	33.981772
4.030000	33.981772
4.040000	33.981772
4.050000	33.981772
4.060000	33.981772
4.070000	33.981772
4.080000	33.981772
4.090000	33.981772
4.100000	33.981772
4.110000	33.981772
4.120000	33.981772
4.130000	33.981772
4.140000	33.981772
4.150000	33.981772
4.160000	33.981772
4.170000	33.981772
4.180000	33.981772
4.190000	33.981772
4.200000	33.981772
4.210000	33.981772
4.220000	33.981772
4.230000	33.981772
4.240000	33.981772
4.250000	33.981772
4.260000	33.981772
4.270000	33.981772
4.280000	33.981772
4.290000	33.981772
4.300000	33.981772
4.310000	33.981772
4.320000	33.981772
4.330000	33.981772
4.340000	33.981772
4.350000	33.981772
4.360000	33.981772
4.370000	33.981772
4.380000	33.981772
4.390000	33.981772
4.400000	33.981772
4.410000	33.981772
4.420000	33.981772
4.430000	33.981772
4.440000	33.981772
4.450000	33.981772
4.460000	33.981772
4.470000	33.981772
4.480000	33.981772
4.490000	33.981772
4.500000	34.786386
4.510000	34.786386
4.520000	34.786386
4.530000	34.786386
4.540000	34.786386
4.550000	34.786386
4.560000	34.786386
4.570000	34.786386
4.580000	34.786386
4.590000	34.786386
4.600000	34.786386
4.610000	34.786386
4.620000	34.786386
4.630000	34.786386
4.640000	34.786386
4.650000	34.786386
4.660000	34.786386
4.670000	34.786386
4.680000	34.786386
4.690000	34.786386
4.700000	34.786386
4.710000	34.786386
4.720000	34.786386
4.730000	34.786386
4.740000	34.786386
4.750000	34.786386
4.760000	34.786386
4.770000	34.786386
4.780000	34.786386
4.790000	34.786386
4.800000	34.786386
4.810000	34.786386
4.820000	34.786386
4.830000	34.786386
4.840000	34.786386
4.850000	34.786386
4.860000	34.786386
4.870000	34.786386
4.880000	34.786386
4.890000	34.786386
4.900000	34.786386
4.910000	34.786386
4.920000	34.786386
4.930000	34.786386
4.940000	34.786386
4.950000	34.786386
4.960000	34.786386
4.970000	34.786386
4.980000	34.786386
4.990000	34.786386
5.000000	35.331732
5.010000	35.331732
5.020000	35.331732
5.030000	35.331732
5.040000	35.331732
5.050000	35.331732
5.060000	35.331732
5.070000	35.331732
5.080000	35.331732
5.090000	35.331732
5.100000	35.331732
5.110000	35.331732
5.120000	35.331732
5.130000	35.331732
5.140000	35.331732
5.150000	35.331732
5.160000	35.331732
5.170000	35.331732
5.180000	35.331732
5.190000	35.331732
5.200000	35.331732
5.210000	35.331732
5.220000	35.331732
5.230000	35.331732
5.240000	35.331732
5.250000	35.331732
5.260000	35.331732
5.270000	35.331732
5.280000	35.331732
5.290000	35.331732
5.300000	35.331732
5.310000	35.331732
5.320000	35.331732
5.330000	35.331732
5.340000	35.331732
5.350000	35.331732
5.360000	35.331732
5.370000	35.331732
5.380000	35.331732
5.390000	35.331732
5.400000	35.331732
5.410000	35.331732
5.420000	35.331732
5.430000	35.331732
5.440000	35.331732
5.450000	35.331732
5.460000	35.331732
5.470000	35.331732
5.480000	35.331732
5.490000	35.331732
5.500000	35.681919
5.510000	35.681919
5.520000	35.681919
5.530000	35.681919
5.540000	35.681919
5.550000	35.681919
5.560000	35.681919
5.570000	35.681919
5.580000	35.681919
5.590000	35.681919
5.600000	35.681919
5.610000	35.681919
5.620000	35.681919
5.630000	35.681919
5.640000	35.681919
5.650000	35.681919
5.660000	35.681919
5.670000	35.681919
5.680000	35.681919
5.690000	35.681919
5.700000	35.681919
5.710000	35.681919
5.720000	35.681919
5.730000	35.681919
5.740000	35.681919
5.750000	35.681919
5.760000	35.681919
5.770000	35.681919
5.780000	35.681919
5.790000	35.681919
5.800000	35.681919
5.810000	35.681919
5.820000	35.681919
5.830000	35.681919
5.840000	35.681919
5.850000	35.681919
5.860000	35.681919
5.870000	35.681919
5.880000	35.681919
5.890000	35.681919
5.900000	35.681919
5.910000	35.681919
5.920000	35.681919
5.930000	35.681919
5.940000	35.681919
5.950000	35.681919
5.960000	35.681919
5.970000	35.681919
5.980000	35.681919
5.990000	35.681919
6.000000	35.891627
6.010000	35.891627
6.020000	35.891627
6.030000	35.891627
6.040000	35.891627
6.050000	35.891627
6.060000	35.891627
6.070000	35.891627
6.080000	35.891627
6.090000	35.891627
6.100000	35.891627
6.110000	35.891627
6.120000	35.891627
6.130000	35.891627
6.140000	35.891627
6.150000	35.891627
6.160000	35.891627
6.170000	35.891627
6.180000	35.891627
6.190000	35.891627
6.200000	35.891627
6.210000	35.891627
6.220000	35.891627
6.230000	35.891627
6.240000	35.891627
6.250000	35.891627
6.260000	35.891627
6.270000	35.891627
6.280000	35.891627
6.290000	35.891627
6.300000	35.891627
6.310000	35.891627
6.320000	35.891627
6.330000	35.891627
6.340000	35.891627
6.350000	35.891627
6.360000	35.891627
6.370000	35.891627
6.380000	35.891627
6.390000	35.891627
6.400000	35.891627
6.410000	35.891627
6.420000	35.891627
6.430000	35.891627
6.440000	35.891627
6.450000	35.891627
6.460000	35.891627
6.470000	35.891627
6.480000	35.891627
6.490000	35.891627
6.500000	35.993928
6.510000	35.993928
6.520000	35.993928
6.530000	35.993928
6.540000	35.993928
6.550000	35.993928
6.560000	35.993928
6.570000	35.993928
6.580000	35.993928
6.590000	35.993928
6.600000	35.993928
6.610000	35.993928
6.620000	35.993928
6.630000	35.993928
6.640000	35.993928
6.650000	35.993928
6.660000	35.993928
6.670000	35.993928
6.680000	35.993928
6.690000	35.993928
6.700000	35.993928
6.710000	35.993928
6.720000	35.993928
6.730000	35.993928
6.740000	35.993928
6.750000	35.993928
6.760000	35.993928
6.770000	35.993928
6.780000	35.993928
6.790000	35.993928
6.800000	35.993928
6.810000	35.993928
6.820000	35.993928
6.830000	35.993928
6.840000	35.993928
6.850000	35.993928
6.860000	35.993928
6.870000	35.993928
6.880000	35.993928
6.890000	35.993928
6.900000	35.993928
6.910000	35.993928
6.920000	35.993928
6.930000	35.993928
6.940000	35.993928
6.950000	35.993928
6.960000	35.993928
6.970000	35.993928
6.980000	35.993928
6.990000	35.993928
7.000000	36.012737
7.010000	36.012737
7.020000	36.012737
7.030000	36.012737
7.040000	36.012737
7.050000	36.012737
7.060000	36.012737
7.070000	36.012737
7.080000	36.012737
7.090000	36.012737
7.100000	36.012737
7.110000	36.012737
7.120000	36.012737
7.130000	36.012737
7.140000	36.012737
7.150000	36.012737
7.160000	36.012737
7.170000	36.012737
7.180000	36.012737
7.190000	36.012737
7.200000	36.012737
7.210000	36.012737
7.220000	36.012737
7.230000	36.012737
7.240000	36.012737
7.250000	36.012737
7.260000	36.012737
7.270000	36.012737
7.280000	36.012737
7.290000	36.012737
7.300000	36.012737
7.310000	36.012737
7.320000	36.012737
7.330000	36.012737
7.340000	36.012737
7.350000	36.012737
7.360000	36.012737
7.370000	36.012737
7.380000	36.012737
7.390000	36.012737
7.400000	36.012737
7.410000	36.012737
7.420000	36.012737
7.430000	36.012737
7.440000	36.012737
7.450000	36.012737
7.460000	36.012737
7.470000	36.012737
7.480000	36.012737
7.490000	36.012737
7.500000	35.970089
7.510000	35.970089
7.520000	35.970089
7.530000	35.970089
7.540000	35.970089
7.550000	35.970089
7.560000	35.970089
7.570000	35.970089
7.580000	35.970089
7.590000	35.970089
7.600000	35.970089
7.610000	35.970089
7.620000	35.970089
7.630000	35.970089
7.640000	35.970089
7.650000	35.970089
7.660000	35.970089
7.670000	35.970089
7.680000	35.970089
7.690000	35.970089
7.700000	35.970089
7.710000	35.970089
7.720000	35.970089
7.730000	35.970089
7.740000	35.970089
7.750000	35.970089
7.760000	35.970089
7.770000	35.970089
7.780000	35.970089
7.790000	35.970089
7.800000	35.970089
7.810000	35.970089
7.820000	35.970089
7.830000	35.970089
7.840000	35.970089
7.850000	35.970089
7.860000	35.970089
7.870000	35.970089
7.880000	35.970089
7.890000	35.970089
7.900000	35.970089
7.910000	35.970089
7.920000	35.970089
7.930000	35.970089
7.940000	35.970089
7.950000	35.970089
7.960000	35.970089
7.970000	35.970089
7.980000	35.970089
7.990000	35.970089
8.000000	35.890058
8.010000	35.890058
8.020000	35.890058
8.030000	35.890058
8.040000	35.890058
8.050000	35.890058
8.060000	35.890058
8.070000	35.890058
8.080000	35.890058
8.090000	35.890058
8.100000	35.890058
8.110000	35.890058
8.120000	35.890058
8.130000	35.890058
8.140000	35.890058
8.150000	35.890058
8.160000	35.890058
8.170000	35.890058
8.180000	35.890058
8.190000	35.890058
8.200000	35.890058
8.210000	35.890058
8.220000	35.890058
8.230000	35.890058
8.240000	35.890058
8.250000	35.890058
8.260000	35.890058
8.270000	35.890058
8.280000	35.890058
8.290000	35.890058
8.300000	35.890058
8.310000	35.890058
8.320000	35.890058
8.330000	35.890058
8.340000	35.890058
8.350000	35.890058
8.360000	35.890058
8.370000	35.890058
8.380000	35.890058
8.390000	35.890058
8.400000	35.890058
8.410000	35.890058
8.420000	35.890058
8.430000	35.890058
8.440000	35.890058
8.450000	35.890058
8.460000	35.890058
8.470000	35.890058
8.480000	35.890058
8.490000	35.890058
8.500000	35.776078
8.510000	35.776078
8.520000	35.776078
8.530000	35.776078
8.540000	35.776078
8.550000	35.776078
8.560000	35.776078
8.570000	35.776078
8.580000	35.776078
8.590000	35.776078
8.600000	35.776078
8.610000	35.776078
8.620000	35.776078
8.630000	35.776078
8.640000	35.776078
8.650000	35.776078
8.660000	35.776078
8.670000	35.776078
8.680000	35.776078
8.690000	35.776078
8.700000	35.776078
8.710000	35.776078
8.720000	35.776078
8.730000	35.776078
8.740000	35.776078
8.750000	35.776078
8.760000	35.776078
8.770000	35.776078
8.780000	35.776078
8.790000	35.776078
8.800000	35.776078
8.810000	35.776078
8.820000	35.776078
8.830000	35.776078
8.840000	35.776078
8.850000	35.776078
8.860000	35.776078
8.870000	35.776078
8.880000	35.776078
8.890000	35.776078
8.900000	35.776078
8.910000	35.776078
8.920000	35.776078
8.930000	35.776078
8.940000	35.776078
8.950000	35.776078
8.960000	35.776078
8.970000	35.776078
8.980000	35.776078
8.990000	35.776078
9.000000	35.631873
9.010000	35.631873
9.020000	35.631873
9.030000	35.631873
9.040000	35.631873
9.050000	35.631873
9.060000	35.631873
9.070000	35.631873
9.080000	35.631873
9.090000	35.631873
9.100000	35.631873
9.110000	35.631873
9.120000	35.631873
9.130000	35.631873
9.140000	35.631873
9.150000	35.631873
9.160000	35.631873
9.170000	35.631873
9.180000	35.631873
9.190000	35.631873
9.200000	35.631873
9.210000	35.631873
9.220000	35.631873
9.230000	35.631873
9.240000	35.631873
9.250000	35.631873
9.260000	35.631873
9.270000	35.631873
9.280000	35.631873
9.290000	35.631873
9.300000	35.631873
9.310000	35.631873
9.320000	35.631873
9.330000	35.631873
9.340000	35.631873
9.350000	35.631873
9.360000	35.631873
9.370000	35.631873
9.380000	35.631873
9.390000	35.631873
9.400000	35.631873
9.410000	35.631873
9.420000	35.631873
9.430000	35.631873
9.440000	35.631873
9.450000	35.631873
9.460000	35.631873
9.470000	35.631873
9.480000	35.631873
9.490000	35.631873
9.500000	35.470403
9.510000	35.470403
9.520000	35.470403
9.530000	35.470403
9.540000	35.470403
9.550000	35.470403
9.560000	35.470403
9.570000	35.470403
9.580000	35.470403
9.590000	35.470403
9.600000	35.470403
9.610000	35.470403
9.620000	35.470403
9.630000	35.470403
9.640000	35.470403
9.650000	35.470403
9.660000	35.470403
9.670000	35.470403
9.680000	35.470403
9.690000	35.470403
9.700000	35.470403
9.710000	35.470403
9.720000	35.470403
9.730000	35.470403
9.740000	35.470403
9.750000	35.470403
9.760000	35.470403
9.770000	35.470403
9.780000	35.470403
9.790000	35.470403
9.800000	35.470403
9.810000	35.470403
9.820000	35.470403
9.830000	35.470403
9.840000	35.470403
9.850000	35.470403
9.860000	35.470403
9.870000	35.470403
9.880000	35.470403
9.890000	35.470403
9.900000	35.470403
9.910000	35.470403
9.920000	35.470403
9.930000	35.470403
9.940000	35.470403
9.950000	35.470403
9.960000	35.470403
9.970000	35.470403
9.980000	35.470403
9.990000	35.470403
10.000000	35.298701
10.010000	35.298701
10.020000	35.298701
10.030000	35.298701
10.040000	35.298701
10.050000	35.298701
10.060000	35.298701
10.070000	35.298701
10.080000	35.298701
10.090000	35.298701
10.100000	35.298701
10.110000	35.298701
10.120000	35.298701
10.130000	35.298701
10.140000	35.298701
10.150000	35.298701
10.160000	35.298701
10.170000	35.298701
10.180000	35.298701
10.190000	35.298701
10.200000	35.298701
10.210000	35.298701
10.220000	35.298701
10.230000	35.298701
10.240000	35.298701
10.250000	35.298701
10.260000	35.298701
10.270000	35.298701
10.280000	35.298701
10.290000	35.298701
10.300000	35.298701
10.310000	35.298701
10.320000	35.298701
10.330000	35.298701
10.340000	35.298701
10.350000	35.298701
10.360000	35.298701
10.370000	35.298701
10.380000	35.298701
10.390000	35.298701
10.400000	35.298701
10.410000	35.298701
10.420000	35.298701
10.430000	35.298701
10.440000	35.298701
10.450000	35.298701
10.460000	35.298701
10.470000	35.298701
10.480000	35.298701
10.490000	35.298701
10.500000	35.120425
10.510000	35.120425
10.520000	35.120425
10.530000	35.120425
10.540000	35.120425
10.550000	35.120425
10.560000	35.120425
10.570000	35.120425
10.580000	35.120425
10.590000	35.120425
10.600000	35.120425
10.610000	35.120425
10.620000	35.120425
10.630000	35.120425
10.640000	35.120425
10.650000	35.120425
10.660000	35.120425
10.670000	35.120425
10.680000	35.120425
10.690000	35.120425
10.700000	35.120425
10.710000	35.120425
10.720000	35.120425
10.730000	35.120425
10.740000	35.120425
10.750000	35.120425
10.760000	35.120425
10.770000	35.120425
10.780000	35.120425
10.790000	35.120425
10.800000	35.120425
10.810000	35.120425
10.820000	35.120425
10.830000	35.120425
10.840000	35.120425
10.850000	35.120425
10.860000	35.120425
10.870000	35.120425
10.880000	35.120425
10.890000	35.120425
10.900000	35.120425
10.910000	35.120425
10.920000	35.120425
10.930000	35.120425
10.940000	35.120425
10.950000	35.120425
10.960000	35.120425
10.970000	35.120425
10.980000	35.120425
10.990000	35.120425
11.000000	34.942709
11.010000	34.942709
11.020000	34.942709
11.030000	34.942709
11.040000	34.942709
11.050000	34.942709
11.060000	34.942709
11.070000	34.942709
11.080000	34.942709
11.090000	34.942709
11.100000	34.942709
11.110000	34.942709
11.120000	34.942709
11.130000	34.942709
11.140000	34.942709
11.150000	34.942709
11.160000	34.942709
11.170000	34.942709
11.180000	34.942709
11.190000	34.942709
11.200000	34.942709
11.210000	34.942709
11.220000	34.942709
11.230000	34.942709
11.240000	34.942709
11.250000	34.942709
11.260000	34.942709
11.270000	34.942709
11.280000	34.942709
11.290000	34.942709
11.300000	34.942709
11.310000	34.942709
11.320000	34.942709
11.330000	34.942709
11.340000	34.942709
11.350000	34.942709
11.360000	34.942709
11.370000	34.942709
11.380000	34.942709
11.390000	34.942709
11.400000	34.942709
11.410000	34.942709
11.420000	34.942709
11.430000	34.942709
11.440000	34.942709
11.450000	34.942709
11.460000	34.942709
11.470000	34.942709
11.480000	34.942709
11.490000	34.942709
11.500000	34.763014
11.510000	34.763014
11.520000	34.763014
11.530000	34.763014
11.540000	34.763014
11.550000	34.763014
11.560000	34.763014
11.570000	34.763014
11.580000	34.763014
11.590000	34.763014
11.600000	34.763014
11.610000	34.763014
11.620000	34.763014
11.630000	34.763014
11.640000	34.763014
11.650000	34.763014
11.660000	34.763014
11.670000	34.763014
11.680000	34.763014
11.690000	34.763014
11.700000	34.763014
11.710000	34.763014
11.720000	34.763014
11.730000	34.763014
11.740000	34.763014
11.750000	34.763014
11.760000	34.763014
11.770000	34.763014
11.780000	34.763014
11.790000	34.763014
11.800000	34.763014
11.810000	34.763014
11.820000	34.763014
11.830000	34.763014
11.840000	34.763014
11.850000	34.763014
11.860000	34.763014
11.870000	34.763014
11.880000	34.763014
11.890000	34.763014
11.900000	34.763014
11.910000	34.763014
11.920000	34.763014
11.930000	34.763014
11.940000	34.763014
11.950000	34.763014
11.960000	34.763014
11.970000	34.763014
11.980000	34.763014
11.990000	34.763014
12.000000	34.578077
12.010000	34.578077
12.020000	34.578077
12.030000	34.578077
12.040000	34.578077
12.050000	34.578077
12.060000	34.578077
12.070000	34.578077
12.080000	34.578077
12.090000	34.578077
12.100000	34.578077
12.110000	34.578077
12.120000	34.578077
12.130000	34.578077
12.140000	34.578077
12.150000	34.578077
12.160000	34.578077
12.170000	34.578077
12.180000	34.578077
12.190000	34.578077
12.200000	34.578077
12.210000	34.578077
12.220000	34.578077
12.230000	34.578077
12.240000	34.578077
12.250000	34.578077
12.260000	34.578077
12.270000	34.578077
12.280000	34.578077
12.290000	34.578077
12.300000	34.578077
12.310000	34.578077
12.320000	34.578077
12.330000	34.578077
12.340000	34.578077
12.350000	34.578077
12.360000	34.578077
12.370000	34.578077
12.380000	34.578077
12.390000	34.578077
12.400000	34.578077
12.410000	34.578077
12.420000	34.578077
12.430000	34.578077
12.440000	34.578077
12.450000	34.578077
12.460000	34.578077
12.470000	34.578077
12.480000	34.578077
12.490000	34.578077
12.500000	34.392957
12.510000	34.392957
12.520000	34.392957
12.530000	34.392957
12.540000	34.392957
12.550000	34.392957
12.560000	34.392957
12.570000	34.392957
12.580000	34.392957
12.590000	34.392957
12.600000	34.392957
12.610000	34.392957
12.620000	34.392957
12.630000	34.392957
12.640000	34.392957
12.650000	34.392957
12.660000	34.392957
12.670000	34.392957
12.680000	34.392957
12.690000	34.392957
12.700000	34.392957
12.710000	34.392957
12.720000	34.392957
12.730000	34.392957
12.740000	34.392957
12.750000	34.392957
12.760000	34.392957
12.770000	34.392957
12.780000	34.392957
12.790000	34.392957
12.800000	34.392957
12.810000	34.392957
12.820000	34.392957
12.830000	34.392957
12.840000	34.392957
12.850000	34.392957
12.860000	34.392957
12.870000	34.392957
12.880000	34.392957
12.890000	34.392957
12.900000	34.392957
12.910000	34.392957
12.920000	34.392957
12.930000	34.392957
12.940000	34.392957
12.950000	34.392957
12.960000	34.392957
12.970000	34.392957
12.980000	34.392957
12.990000	34.392957
13.000000	34.206163
13.010000	34.206163
13.020000	34.206163
13.030000	34.206163
13.040000	34.206163
13.050000	34.206163
13.060000	34.206163
13.070000	34.206163
13.080000	34.206163
13.090000	34.206163
13.100000	34.206163
13.110000	34.206163
13.120000	34.206163
13.130000	34.206163
13.140000	34.206163
13.150000	34.206163
13.160000	34.206163
13.170000	34.206163
13.180000	34.206163
13.190000	34.206163
13.200000	34.206163
13.210000	34.206163
13.220000	34.206163
13.230000	34.206163
13.240000	34.206163
13.250000	34.206163
13.260000	34.206163
13.270000	34.206163
13.280000	34.206163
13.290000	34.206163
13.300000	34.206163
13.310000	34.206163
13.320000	34.206163
13.330000	34.206163
13.340000	34.206163
13.350000	34.206163
13.360000	34.206163
13.370000	34.206163
13.380000	34.206163
13.390000	34.206163
13.400000	34.206163
13.410000	34.206163
13.420000	34.206163
13.430000	34.206163
13.440000	34.206163
13.450000	34.206163
13.460000	34.206163
13.470000	34.206163
13.480000	34.206163
13.490000	34.206163
13.500000	34.022444
13.510000	34.022444
13.520000	34.022444
13.530000	34.022444
13.540000	34.022444
13.550000	34.022444
13.560000	34.022444
13.570000	34.022444
13.580000	34.022444
13.590000	34.022444
13.600000	34.022444
13.610000	34.022444
13.620000	34.022444
13.630000	34.022444
13.640000	34.022444
13.650000	34.022444
13.660000	34.022444
13.670000	34.022444
13.680000	34.022444
13.690000	34.022444
13.700000	34.022444
13.710000	34.022444
13.720000	34.022444
13.730000	34.022444
13.740000	34.022444
13.750000	34.022444
13.760000	34.022444
13.770000	34.022444
13.780000	34.022444
13.790000	34.022444
13.800000	34.022444
13.810000	34.022444
13.820000	34.022444
13.830000	34.022444
13.840000	34.022444
13.850000	34.022444
13.860000	34.022444
13.870000	34.022444
13.880000	34.022444
13.890000	34.022444
13.900000	34.022444
13.910000	34.022444
13.920000	34.022444
13.930000	34.022444
13.940000	34.022444
13.950000	34.022444
13.960000	34.022444
13.970000	34.022444
13.980000	34.022444
13.990000	34.022444
14.000000	33.837537
14.010000	33.837537
14.020000	33.837537
14.030000	33.837537
14.040000	33.837537
14.050000	33.837537
14.060000	33.837537
14.070000	33.837537
14.080000	33.837537
14.090000	33.837537
14.100000	33.837537
14.110000	33.837537
14.120000	33.837537
14.130000	33.837537
14.140000	33.837537
14.150000	33.837537
14.160000	33.837537
14.170000	33.837537
14.180000	33.837537
14.190000	33.837537
14.200000	33.837537
14.210000	33.837537
14.220000	33.837537
14.230000	33.837537
14.240000	33.837537
14.250000	33.837537
14.260000	33.837537
14.270000	33.837537
14.280000	33.837537
14.290000	33.837537
14.300000	33.837537
14.310000	33.837537
14.320000	33.837537
14.330000	33.837537
14.340000	33.837537
14.350000	33.837537
14.360000	33.837537
14.370000	33.837537
14.380000	33.837537
14.390000	33.837537
14.400000	33.837537
14.410000	33.837537
14.420000	33.837537
14.430000	33.837537
14.440000	33.837537
14.450000	33.837537
14.460000	33.837537
14.470000	33.837537
14.480000	33.837537
14.490000	33.837537
14.500000	33.657435
14.510000	33.657435
14.520000	33.657435
14.530000	33.657435
14.540000	33.657435
14.550000	33.657435
14.560000	33.657435
14.570000	33.657435
14.580000	33.657435
14.590000	33.657435
14.600000	33.657435
14.610000	33.657435
14.620000	33.657435
14.630000	33.657435
14.640000	33.657435
14.650000	33.657435
14.660000	33.657435
14.670000	33.657435
14.680000	33.657435
14.690000	33.657435
14.700000	33.657435
14.710000	33.657435
14.720000	33.657435
14.730000	33.657435
14.740000	33.657435
14.750000	33.657435
14.760000	33.657435
14.770000	33.657435
14.780000	33.657435
14.790000	33.657435
14.800000	33.657435
14.810000	33.657435
14.820000	33.657435
14.830000	33.657435
14.840000	33.657435
14.850000	33.657435
14.860000	33.657435
14.870000	33.657435
14.880000	33.657435
14.890000	33.657435
14.900000	33.657435
14.910000	33.657435
14.920000	33.657435
14.930000	33.657435
14.940000	33.657435
14.950000	33.657435
14.960000	33.657435
14.970000	33.657435
14.980000	33.657435
14.990000	33.657435
15.000000	33.486945
15.010000	33.486945
15.020000	33.486945
15.030000	33.486945
15.040000	33.486945
15.050000	33.486945
15.060000	33.486945
15.070000	33.486945
15.080000	33.486945
15.090000	33.486945
15.100000	33.486945
15.110000	33.486945
15.120000	33.486945
15.130000	33.486945
15.140000	33.486945
15.150000	33.486945
15.160000	33.486945
15.170000	33.486945
15.180000	33.486945
15.190000	33.486945
15.200000	33.486945
15.210000	33.486945
15.220000	33.486945
15.230000	33.486945
15.240000	33.486945
15.250000	33.486945
15.260000	33.486945
15.270000	33.486945
15.280000	33.486945
15.290000	33.486945
15.300000	33.486945
15.310000	33.486945
15.320000	33.486945
15.330000	33.486945
15.340000	33.486945
15.350000	33.486945
15.360000	33.486945
15.370000	33.486945
15.380000	33.486945
15.390000	33.486945
15.400000	33.486945
15.410000	33.486945
15.420000	33.486945
15.430000	33.486945
15.440000	33.486945
15.450000	33.486945
15.460000	33.486945
15.470000	33.486945
15.480000	33.486945
15.490000	33.486945
15.500000	33.320418
15.510000	33.320418
15.520000	33.320418
15.530000	33.320418
15.540000	33.320418
15.550000	33.320418
15.560000	33.320418
15.570000	33.320418
15.580000	33.320418
15.590000	33.320418
15.600000	33.320418
15.610000	33.320418
15.620000	33.320418
15.630000	33.320418
15.640000	33.320418
15.650000	33.320418
15.660000	33.320418
15.670000	33.320418
15.680000	33.320418
15.690000	33.320418
15.700000	33.320418
15.710000	33.320418
15.720000	33.320418
15.730000	33.320418
15.740000	33.320418
15.750000	33.320418
15.760000	33.320418
15.770000	33.320418
15.780000	33.320418
15.790000	33.320418
15.800000	33.320418
15.810000	33.320418
15.820000	33.320418
15.830000	33.320418
15.840000	33.320418
15.850000	33.320418
15.860000	33.320418
15.870000	33.320418
15.880000	33.320418
15.890000	33.320418
15.900000	33.320418
15.910000	33.320418
15.920000	33.320418
15.930000	33.320418
15.940000	33.320418
15.950000	33.320418
15.960000	33.320418
15.970000	33.320418
15.980000	33.320418
15.990000	33.320418
16.000000	33.155193
16.010000	33.155193
16.020000	33.155193
16.030000	33.155193
16.040000	33.155193
16.050000	33.155193
16.060000	33.155193
16.070000	33.155193
16.080000	33.155193
16.090000	33.155193
16.100000	33.155193
16.110000	33.155193
16.120000	33.155193
16.130000	33.155193
16.140000	33.155193
16.150000	33.155193
16.160000	33.155193
16.170000	33.155193
16.180000	33.155193
16.190000	33.155193
16.200000	33.155193
16.210000	33.155193
16.220000	33.155193
16.230000	33.155193
16.240000	33.155193
16.250000	33.155193
16.260000	33.155193
16.270000	33.155193
16.280000	33.155193
16.290000	33.155193
16.300000	33.155193
16.310000	33.155193
16.320000	33.155193
16.330000	33.155193
16.340000	33.155193
16.350000	33.155193
16.360000	33.155193
16.370000	33.155193
16.380000	33.155193
16.390000	33.155193
16.400000	33.155193
16.410000	33.155193
16.420000	33.155193
16.430000	33.155193
16.440000	33.155193
16.450000	33.155193
16.460000	33.155193
16.470000	33.155193
16.480000	33.155193
16.490000	33.155193
16.500000	32.994166
16.510000	32.994166
16.520000	32.994166
16.530000	32.994166
16.540000	32.994166
16.550000	32.994166
16.560000	32.994166
16.570000	32.994166
16.580000	32.994166
16.590000	32.994166
16.600000	32.994166
16.610000	32.994166
16.620000	32.994166
16.630000	32.994166
16.640000	32.994166
16.650000	32.994166
16.660000	32.994166
16.670000	32.994166
16.680000	32.994166
16.690000	32.994166
16.700000	32.994166
16.710000	32.994166
16.720000	32.994166
16.730000	32.994166
16.740000	32.994166
16.750000	32.994166
16.760000	32.994166
16.770000	32.994166
16.780000	32.994166
16.790000	32.994166
16.800000	32.994166
16.810000	32.994166
16.820000	32.994166
16.830000	32.994166
16.840000	32.994166
16.850000	32.994166
16.860000	32.994166
16.870000	32.994166
16.880000	32.994166
16.890000	32.994166
16.900000	32.994166
16.910000	32.994166
16.920000	32.994166
16.930000	32.994166
16.940000	32.994166
16.950000	32.994166
16.960000	32.994166
16.970000	32.994166
16.980000	32.994166
16.990000	32.994166
17.000000	32.839346
17.010000	32.839346
17.020000	32.839346
17.030000	32.839346
17.040000	32.839346
17.050000	32.839346
17.060000	32.839346
17.070000	32.839346
17.080000	32.839346
17.090000	32.839346
17.100000	32.839346
17.110000	32.839346
17.120000	32.839346
17.130000	32.839346
17.140000	32.839346
17.150000	32.839346
17.160000	32.839346
17.170000	32.839346
17.180000	32.839346
17.190000	32.839346
17.200000	32.839346
17.210000	32.839346
17.220000	32.839346
17.230000	32.839346
17.240000	32.839346
17.250000	32.839346
17.260000	32.839346
17.270000	32.839346
17.280000	32.839346
17.290000	32.839346
17.300000	32.839346
17.310000	32.839346
17.320000	32.839346
17.330000	32.839346
17.340000	32.839346
17.350000	32.839346
17.360000	32.839346
17.370000	32.839346
17.380000	32.839346
17.390000	32.839346
17.400000	32.839346
17.410000	32.839346
17.420000	32.839346
17.430000	32.839346
17.440000	32.839346
17.450000	32.839346
17.460000	32.839346
17.470000	32.839346
17.480000	32.839346
17.490000	32.839346
