LabVIEW Measurement	
Writer_Version	2
Reader_Version	2
Separator	Tab
Decimal_Separator	.
Multi_Headings	No
X_Columns	One
Time_Pref	Absolute
Operator	biomech-dyno
Date	2023/04/27
Time	17:41:55.9338632999999876419
***End_of_Header***	
	
Channels	1	
Samples	10	
Date	2023/04/27	
Time	19:47:58.2939356999998011985	
X_Dimension	Time	
X0	0.0000000000000000E+0	
Delta_X	0.010000	
***End_of_Header***		
X_Value	Untitled	Comment
0.000000	24.974242
0.010000	24.974242
0.020000	24.974242
0.030000	24.974242
0.040000	24.974242
0.050000	24.974242
0.060000	24.974242
0.070000	24.974242
0.080000	24.974242
0.090000	24.974242
0.100000	24.974242
0.110000	24.974242
0.120000	24.974242
0.130000	24.974242
0.140000	24.974242
0.150000	24.974242
0.160000	24.974242
0.170000	24.974242
0.180000	24.974242
0.190000	24.974242
0.200000	24.974242
0.210000	24.974242
0.220000	24.974242
0.230000	24.974242
0.240000	24.974242
0.250000	24.974242
0.260000	24.974242
0.270000	24.974242
0.280000	24.974242
0.290000	24.974242
0.300000	24.974242
0.310000	24.974242
0.320000	24.974242
0.330000	24.974242
0.340000	24.974242
0.350000	24.974242
0.360000	24.974242
0.370000	24.974242
0.380000	24.974242
0.390000	24.974242
0.400000	24.974242
0.410000	24.974242
0.420000	24.974242
0.430000	24.974242
0.440000	24.974242
0.450000	24.974242
0.460000	24.974242
0.470000	24.974242
0.480000	24.974242
0.490000	24.974242
0.500000	25.004847
0.510000	25.004847
0.520000	25.004847
0.530000	25.004847
0.540000	25.004847
0.550000	25.004847
0.560000	25.004847
0.570000	25.004847
0.580000	25.004847
0.590000	25.004847
0.600000	25.004847
0.610000	25.004847
0.620000	25.004847
0.630000	25.004847
0.640000	25.004847
0.650000	25.004847
0.660000	25.004847
0.670000	25.004847
0.680000	25.004847
0.690000	25.004847
0.700000	25.004847
0.710000	25.004847
0.720000	25.004847
0.730000	25.004847
0.740000	25.004847
0.750000	25.004847
0.760000	25.004847
0.770000	25.004847
0.780000	25.004847
0.790000	25.004847
0.800000	25.004847
0.810000	25.004847
0.820000	25.004847
0.830000	25.004847
0.840000	25.004847
0.850000	25.004847
0.860000	25.004847
0.870000	25.004847
0.880000	25.004847
0.890000	25.004847
0.900000	25.004847
0.910000	25.004847
0.920000	25.004847
0.930000	25.004847
0.940000	25.004847
0.950000	25.004847
0.960000	25.004847
0.970000	25.004847
0.980000	25.004847
0.990000	25.004847
1.000000	25.206135
1.010000	25.206135
1.020000	25.206135
1.030000	25.206135
1.040000	25.206135
1.050000	25.206135
1.060000	25.206135
1.070000	25.206135
1.080000	25.206135
1.090000	25.206135
1.100000	25.206135
1.110000	25.206135
1.120000	25.206135
1.130000	25.206135
1.140000	25.206135
1.150000	25.206135
1.160000	25.206135
1.170000	25.206135
1.180000	25.206135
1.190000	25.206135
1.200000	25.206135
1.210000	25.206135
1.220000	25.206135
1.230000	25.206135
1.240000	25.206135
1.250000	25.206135
1.260000	25.206135
1.270000	25.206135
1.280000	25.206135
1.290000	25.206135
1.300000	25.206135
1.310000	25.206135
1.320000	25.206135
1.330000	25.206135
1.340000	25.206135
1.350000	25.206135
1.360000	25.206135
1.370000	25.206135
1.380000	25.206135
1.390000	25.206135
1.400000	25.206135
1.410000	25.206135
1.420000	25.206135
1.430000	25.206135
1.440000	25.206135
1.450000	25.206135
1.460000	25.206135
1.470000	25.206135
1.480000	25.206135
1.490000	25.206135
1.500000	25.666615
1.510000	25.666615
1.520000	25.666615
1.530000	25.666615
1.540000	25.666615
1.550000	25.666615
1.560000	25.666615
1.570000	25.666615
1.580000	25.666615
1.590000	25.666615
1.600000	25.666615
1.610000	25.666615
1.620000	25.666615
1.630000	25.666615
1.640000	25.666615
1.650000	25.666615
1.660000	25.666615
1.670000	25.666615
1.680000	25.666615
1.690000	25.666615
1.700000	25.666615
1.710000	25.666615
1.720000	25.666615
1.730000	25.666615
1.740000	25.666615
1.750000	25.666615
1.760000	25.666615
1.770000	25.666615
1.780000	25.666615
1.790000	25.666615
1.800000	25.666615
1.810000	25.666615
1.820000	25.666615
1.830000	25.666615
1.840000	25.666615
1.850000	25.666615
1.860000	25.666615
1.870000	25.666615
1.880000	25.666615
1.890000	25.666615
1.900000	25.666615
1.910000	25.666615
1.920000	25.666615
1.930000	25.666615
1.940000	25.666615
1.950000	25.666615
1.960000	25.666615
1.970000	25.666615
1.980000	25.666615
1.990000	25.666615
2.000000	26.339913
2.010000	26.339913
2.020000	26.339913
2.030000	26.339913
2.040000	26.339913
2.050000	26.339913
2.060000	26.339913
2.070000	26.339913
2.080000	26.339913
2.090000	26.339913
2.100000	26.339913
2.110000	26.339913
2.120000	26.339913
2.130000	26.339913
2.140000	26.339913
2.150000	26.339913
2.160000	26.339913
2.170000	26.339913
2.180000	26.339913
2.190000	26.339913
2.200000	26.339913
2.210000	26.339913
2.220000	26.339913
2.230000	26.339913
2.240000	26.339913
2.250000	26.339913
2.260000	26.339913
2.270000	26.339913
2.280000	26.339913
2.290000	26.339913
2.300000	26.339913
2.310000	26.339913
2.320000	26.339913
2.330000	26.339913
2.340000	26.339913
2.350000	26.339913
2.360000	26.339913
2.370000	26.339913
2.380000	26.339913
2.390000	26.339913
2.400000	26.339913
2.410000	26.339913
2.420000	26.339913
2.430000	26.339913
2.440000	26.339913
2.450000	26.339913
2.460000	26.339913
2.470000	26.339913
2.480000	26.339913
2.490000	26.339913
2.500000	27.173474
2.510000	27.173474
2.520000	27.173474
2.530000	27.173474
2.540000	27.173474
2.550000	27.173474
2.560000	27.173474
2.570000	27.173474
2.580000	27.173474
2.590000	27.173474
2.600000	27.173474
2.610000	27.173474
2.620000	27.173474
2.630000	27.173474
2.640000	27.173474
2.650000	27.173474
2.660000	27.173474
2.670000	27.173474
2.680000	27.173474
2.690000	27.173474
2.700000	27.173474
2.710000	27.173474
2.720000	27.173474
2.730000	27.173474
2.740000	27.173474
2.750000	27.173474
2.760000	27.173474
2.770000	27.173474
2.780000	27.173474
2.790000	27.173474
2.800000	27.173474
2.810000	27.173474
2.820000	27.173474
2.830000	27.173474
2.840000	27.173474
2.850000	27.173474
2.860000	27.173474
2.870000	27.173474
2.880000	27.173474
2.890000	27.173474
2.900000	27.173474
2.910000	27.173474
2.920000	27.173474
2.930000	27.173474
2.940000	27.173474
2.950000	27.173474
2.960000	27.173474
2.970000	27.173474
2.980000	27.173474
2.990000	27.173474
3.000000	28.071379
3.010000	28.071379
3.020000	28.071379
3.030000	28.071379
3.040000	28.071379
3.050000	28.071379
3.060000	28.071379
3.070000	28.071379
3.080000	28.071379
3.090000	28.071379
3.100000	28.071379
3.110000	28.071379
3.120000	28.071379
3.130000	28.071379
3.140000	28.071379
3.150000	28.071379
3.160000	28.071379
3.170000	28.071379
3.180000	28.071379
3.190000	28.071379
3.200000	28.071379
3.210000	28.071379
3.220000	28.071379
3.230000	28.071379
3.240000	28.071379
3.250000	28.071379
3.260000	28.071379
3.270000	28.071379
3.280000	28.071379
3.290000	28.071379
3.300000	28.071379
3.310000	28.071379
3.320000	28.071379
3.330000	28.071379
3.340000	28.071379
3.350000	28.071379
3.360000	28.071379
3.370000	28.071379
3.380000	28.071379
3.390000	28.071379
3.400000	28.071379
3.410000	28.071379
3.420000	28.071379
3.430000	28.071379
3.440000	28.071379
3.450000	28.071379
3.460000	28.071379
3.470000	28.071379
3.480000	28.071379
3.490000	28.071379
3.500000	28.827219
3.510000	28.827219
3.520000	28.827219
3.530000	28.827219
3.540000	28.827219
3.550000	28.827219
3.560000	28.827219
3.570000	28.827219
3.580000	28.827219
3.590000	28.827219
3.600000	28.827219
3.610000	28.827219
3.620000	28.827219
3.630000	28.827219
3.640000	28.827219
3.650000	28.827219
3.660000	28.827219
3.670000	28.827219
3.680000	28.827219
3.690000	28.827219
3.700000	28.827219
3.710000	28.827219
3.720000	28.827219
3.730000	28.827219
3.740000	28.827219
3.750000	28.827219
3.760000	28.827219
3.770000	28.827219
3.780000	28.827219
3.790000	28.827219
3.800000	28.827219
3.810000	28.827219
3.820000	28.827219
3.830000	28.827219
3.840000	28.827219
3.850000	28.827219
3.860000	28.827219
3.870000	28.827219
3.880000	28.827219
3.890000	28.827219
3.900000	28.827219
3.910000	28.827219
3.920000	28.827219
3.930000	28.827219
3.940000	28.827219
3.950000	28.827219
3.960000	28.827219
3.970000	28.827219
3.980000	28.827219
3.990000	28.827219
4.000000	29.368641
4.010000	29.368641
4.020000	29.368641
4.030000	29.368641
4.040000	29.368641
4.050000	29.368641
4.060000	29.368641
4.070000	29.368641
4.080000	29.368641
4.090000	29.368641
4.100000	29.368641
4.110000	29.368641
4.120000	29.368641
4.130000	29.368641
4.140000	29.368641
4.150000	29.368641
4.160000	29.368641
4.170000	29.368641
4.180000	29.368641
4.190000	29.368641
4.200000	29.368641
4.210000	29.368641
4.220000	29.368641
4.230000	29.368641
4.240000	29.368641
4.250000	29.368641
4.260000	29.368641
4.270000	29.368641
4.280000	29.368641
4.290000	29.368641
4.300000	29.368641
4.310000	29.368641
4.320000	29.368641
4.330000	29.368641
4.340000	29.368641
4.350000	29.368641
4.360000	29.368641
4.370000	29.368641
4.380000	29.368641
4.390000	29.368641
4.400000	29.368641
4.410000	29.368641
4.420000	29.368641
4.430000	29.368641
4.440000	29.368641
4.450000	29.368641
4.460000	29.368641
4.470000	29.368641
4.480000	29.368641
4.490000	29.368641
4.500000	29.743840
4.510000	29.743840
4.520000	29.743840
4.530000	29.743840
4.540000	29.743840
4.550000	29.743840
4.560000	29.743840
4.570000	29.743840
4.580000	29.743840
4.590000	29.743840
4.600000	29.743840
4.610000	29.743840
4.620000	29.743840
4.630000	29.743840
4.640000	29.743840
4.650000	29.743840
4.660000	29.743840
4.670000	29.743840
4.680000	29.743840
4.690000	29.743840
4.700000	29.743840
4.710000	29.743840
4.720000	29.743840
4.730000	29.743840
4.740000	29.743840
4.750000	29.743840
4.760000	29.743840
4.770000	29.743840
4.780000	29.743840
4.790000	29.743840
4.800000	29.743840
4.810000	29.743840
4.820000	29.743840
4.830000	29.743840
4.840000	29.743840
4.850000	29.743840
4.860000	29.743840
4.870000	29.743840
4.880000	29.743840
4.890000	29.743840
4.900000	29.743840
4.910000	29.743840
4.920000	29.743840
4.930000	29.743840
4.940000	29.743840
4.950000	29.743840
4.960000	29.743840
4.970000	29.743840
4.980000	29.743840
4.990000	29.743840
5.000000	29.998532
5.010000	29.998532
5.020000	29.998532
5.030000	29.998532
5.040000	29.998532
5.050000	29.998532
5.060000	29.998532
5.070000	29.998532
5.080000	29.998532
5.090000	29.998532
5.100000	29.998532
5.110000	29.998532
5.120000	29.998532
5.130000	29.998532
5.140000	29.998532
5.150000	29.998532
5.160000	29.998532
5.170000	29.998532
5.180000	29.998532
5.190000	29.998532
5.200000	29.998532
5.210000	29.998532
5.220000	29.998532
5.230000	29.998532
5.240000	29.998532
5.250000	29.998532
5.260000	29.998532
5.270000	29.998532
5.280000	29.998532
5.290000	29.998532
5.300000	29.998532
5.310000	29.998532
5.320000	29.998532
5.330000	29.998532
5.340000	29.998532
5.350000	29.998532
5.360000	29.998532
5.370000	29.998532
5.380000	29.998532
5.390000	29.998532
5.400000	29.998532
5.410000	29.998532
5.420000	29.998532
5.430000	29.998532
5.440000	29.998532
5.450000	29.998532
5.460000	29.998532
5.470000	29.998532
5.480000	29.998532
5.490000	29.998532
5.500000	30.163559
5.510000	30.163559
5.520000	30.163559
5.530000	30.163559
5.540000	30.163559
5.550000	30.163559
5.560000	30.163559
5.570000	30.163559
5.580000	30.163559
5.590000	30.163559
5.600000	30.163559
5.610000	30.163559
5.620000	30.163559
5.630000	30.163559
5.640000	30.163559
5.650000	30.163559
5.660000	30.163559
5.670000	30.163559
5.680000	30.163559
5.690000	30.163559
5.700000	30.163559
5.710000	30.163559
5.720000	30.163559
5.730000	30.163559
5.740000	30.163559
5.750000	30.163559
5.760000	30.163559
5.770000	30.163559
5.780000	30.163559
5.790000	30.163559
5.800000	30.163559
5.810000	30.163559
5.820000	30.163559
5.830000	30.163559
5.840000	30.163559
5.850000	30.163559
5.860000	30.163559
5.870000	30.163559
5.880000	30.163559
5.890000	30.163559
5.900000	30.163559
5.910000	30.163559
5.920000	30.163559
5.930000	30.163559
5.940000	30.163559
5.950000	30.163559
5.960000	30.163559
5.970000	30.163559
5.980000	30.163559
5.990000	30.163559
6.000000	30.261309
6.010000	30.261309
6.020000	30.261309
6.030000	30.261309
6.040000	30.261309
6.050000	30.261309
6.060000	30.261309
6.070000	30.261309
6.080000	30.261309
6.090000	30.261309
6.100000	30.261309
6.110000	30.261309
6.120000	30.261309
6.130000	30.261309
6.140000	30.261309
6.150000	30.261309
6.160000	30.261309
6.170000	30.261309
6.180000	30.261309
6.190000	30.261309
6.200000	30.261309
6.210000	30.261309
6.220000	30.261309
6.230000	30.261309
6.240000	30.261309
6.250000	30.261309
6.260000	30.261309
6.270000	30.261309
6.280000	30.261309
6.290000	30.261309
6.300000	30.261309
6.310000	30.261309
6.320000	30.261309
6.330000	30.261309
6.340000	30.261309
6.350000	30.261309
6.360000	30.261309
6.370000	30.261309
6.380000	30.261309
6.390000	30.261309
6.400000	30.261309
6.410000	30.261309
6.420000	30.261309
6.430000	30.261309
6.440000	30.261309
6.450000	30.261309
6.460000	30.261309
6.470000	30.261309
6.480000	30.261309
6.490000	30.261309
6.500000	30.306150
6.510000	30.306150
6.520000	30.306150
6.530000	30.306150
6.540000	30.306150
6.550000	30.306150
6.560000	30.306150
6.570000	30.306150
6.580000	30.306150
6.590000	30.306150
6.600000	30.306150
6.610000	30.306150
6.620000	30.306150
6.630000	30.306150
6.640000	30.306150
6.650000	30.306150
6.660000	30.306150
6.670000	30.306150
6.680000	30.306150
6.690000	30.306150
6.700000	30.306150
6.710000	30.306150
6.720000	30.306150
6.730000	30.306150
6.740000	30.306150
6.750000	30.306150
6.760000	30.306150
6.770000	30.306150
6.780000	30.306150
6.790000	30.306150
6.800000	30.306150
6.810000	30.306150
6.820000	30.306150
6.830000	30.306150
6.840000	30.306150
6.850000	30.306150
6.860000	30.306150
6.870000	30.306150
6.880000	30.306150
6.890000	30.306150
6.900000	30.306150
6.910000	30.306150
6.920000	30.306150
6.930000	30.306150
6.940000	30.306150
6.950000	30.306150
6.960000	30.306150
6.970000	30.306150
6.980000	30.306150
6.990000	30.306150
7.000000	30.312686
7.010000	30.312686
7.020000	30.312686
7.030000	30.312686
7.040000	30.312686
7.050000	30.312686
7.060000	30.312686
7.070000	30.312686
7.080000	30.312686
7.090000	30.312686
7.100000	30.312686
7.110000	30.312686
7.120000	30.312686
7.130000	30.312686
7.140000	30.312686
7.150000	30.312686
7.160000	30.312686
7.170000	30.312686
7.180000	30.312686
7.190000	30.312686
7.200000	30.312686
7.210000	30.312686
7.220000	30.312686
7.230000	30.312686
7.240000	30.312686
7.250000	30.312686
7.260000	30.312686
7.270000	30.312686
7.280000	30.312686
7.290000	30.312686
7.300000	30.312686
7.310000	30.312686
7.320000	30.312686
7.330000	30.312686
7.340000	30.312686
7.350000	30.312686
7.360000	30.312686
7.370000	30.312686
7.380000	30.312686
7.390000	30.312686
7.400000	30.312686
7.410000	30.312686
7.420000	30.312686
7.430000	30.312686
7.440000	30.312686
7.450000	30.312686
7.460000	30.312686
7.470000	30.312686
7.480000	30.312686
7.490000	30.312686
7.500000	30.290913
7.510000	30.290913
7.520000	30.290913
7.530000	30.290913
7.540000	30.290913
7.550000	30.290913
7.560000	30.290913
7.570000	30.290913
7.580000	30.290913
7.590000	30.290913
7.600000	30.290913
7.610000	30.290913
7.620000	30.290913
7.630000	30.290913
7.640000	30.290913
7.650000	30.290913
7.660000	30.290913
7.670000	30.290913
7.680000	30.290913
7.690000	30.290913
7.700000	30.290913
7.710000	30.290913
7.720000	30.290913
7.730000	30.290913
7.740000	30.290913
7.750000	30.290913
7.760000	30.290913
7.770000	30.290913
7.780000	30.290913
7.790000	30.290913
7.800000	30.290913
7.810000	30.290913
7.820000	30.290913
7.830000	30.290913
7.840000	30.290913
7.850000	30.290913
7.860000	30.290913
7.870000	30.290913
7.880000	30.290913
7.890000	30.290913
7.900000	30.290913
7.910000	30.290913
7.920000	30.290913
7.930000	30.290913
7.940000	30.290913
7.950000	30.290913
7.960000	30.290913
7.970000	30.290913
7.980000	30.290913
7.990000	30.290913
8.000000	30.249758
8.010000	30.249758
8.020000	30.249758
8.030000	30.249758
8.040000	30.249758
8.050000	30.249758
8.060000	30.249758
8.070000	30.249758
8.080000	30.249758
8.090000	30.249758
8.100000	30.249758
8.110000	30.249758
8.120000	30.249758
8.130000	30.249758
8.140000	30.249758
8.150000	30.249758
8.160000	30.249758
8.170000	30.249758
8.180000	30.249758
8.190000	30.249758
8.200000	30.249758
8.210000	30.249758
8.220000	30.249758
8.230000	30.249758
8.240000	30.249758
8.250000	30.249758
8.260000	30.249758
8.270000	30.249758
8.280000	30.249758
8.290000	30.249758
8.300000	30.249758
8.310000	30.249758
8.320000	30.249758
8.330000	30.249758
8.340000	30.249758
8.350000	30.249758
8.360000	30.249758
8.370000	30.249758
8.380000	30.249758
8.390000	30.249758
8.400000	30.249758
8.410000	30.249758
8.420000	30.249758
8.430000	30.249758
8.440000	30.249758
8.450000	30.249758
8.460000	30.249758
8.470000	30.249758
8.480000	30.249758
8.490000	30.249758
8.500000	30.195753
8.510000	30.195753
8.520000	30.195753
8.530000	30.195753
8.540000	30.195753
8.550000	30.195753
8.560000	30.195753
8.570000	30.195753
8.580000	30.195753
8.590000	30.195753
8.600000	30.195753
8.610000	30.195753
8.620000	30.195753
8.630000	30.195753
8.640000	30.195753
8.650000	30.195753
8.660000	30.195753
8.670000	30.195753
8.680000	30.195753
8.690000	30.195753
8.700000	30.195753
8.710000	30.195753
8.720000	30.195753
8.730000	30.195753
8.740000	30.195753
8.750000	30.195753
8.760000	30.195753
8.770000	30.195753
8.780000	30.195753
8.790000	30.195753
8.800000	30.195753
8.810000	30.195753
8.820000	30.195753
8.830000	30.195753
8.840000	30.195753
8.850000	30.195753
8.860000	30.195753
8.870000	30.195753
8.880000	30.195753
8.890000	30.195753
8.900000	30.195753
8.910000	30.195753
8.920000	30.195753
8.930000	30.195753
8.940000	30.195753
8.950000	30.195753
8.960000	30.195753
8.970000	30.195753
8.980000	30.195753
8.990000	30.195753
9.000000	30.127862
9.010000	30.127862
9.020000	30.127862
9.030000	30.127862
9.040000	30.127862
9.050000	30.127862
9.060000	30.127862
9.070000	30.127862
9.080000	30.127862
9.090000	30.127862
9.100000	30.127862
9.110000	30.127862
9.120000	30.127862
9.130000	30.127862
9.140000	30.127862
9.150000	30.127862
9.160000	30.127862
9.170000	30.127862
9.180000	30.127862
9.190000	30.127862
9.200000	30.127862
9.210000	30.127862
9.220000	30.127862
9.230000	30.127862
9.240000	30.127862
9.250000	30.127862
9.260000	30.127862
9.270000	30.127862
9.280000	30.127862
9.290000	30.127862
9.300000	30.127862
9.310000	30.127862
9.320000	30.127862
9.330000	30.127862
9.340000	30.127862
9.350000	30.127862
9.360000	30.127862
9.370000	30.127862
9.380000	30.127862
9.390000	30.127862
9.400000	30.127862
9.410000	30.127862
9.420000	30.127862
9.430000	30.127862
9.440000	30.127862
9.450000	30.127862
9.460000	30.127862
9.470000	30.127862
9.480000	30.127862
9.490000	30.127862
9.500000	30.050403
9.510000	30.050403
9.520000	30.050403
9.530000	30.050403
9.540000	30.050403
9.550000	30.050403
9.560000	30.050403
9.570000	30.050403
9.580000	30.050403
9.590000	30.050403
9.600000	30.050403
9.610000	30.050403
9.620000	30.050403
9.630000	30.050403
9.640000	30.050403
9.650000	30.050403
9.660000	30.050403
9.670000	30.050403
9.680000	30.050403
9.690000	30.050403
9.700000	30.050403
9.710000	30.050403
9.720000	30.050403
9.730000	30.050403
9.740000	30.050403
9.750000	30.050403
9.760000	30.050403
9.770000	30.050403
9.780000	30.050403
9.790000	30.050403
9.800000	30.050403
9.810000	30.050403
9.820000	30.050403
9.830000	30.050403
9.840000	30.050403
9.850000	30.050403
9.860000	30.050403
9.870000	30.050403
9.880000	30.050403
9.890000	30.050403
9.900000	30.050403
9.910000	30.050403
9.920000	30.050403
9.930000	30.050403
9.940000	30.050403
9.950000	30.050403
9.960000	30.050403
9.970000	30.050403
9.980000	30.050403
9.990000	30.050403
10.000000	29.970518
10.010000	29.970518
10.020000	29.970518
10.030000	29.970518
10.040000	29.970518
10.050000	29.970518
10.060000	29.970518
10.070000	29.970518
10.080000	29.970518
10.090000	29.970518
10.100000	29.970518
10.110000	29.970518
10.120000	29.970518
10.130000	29.970518
10.140000	29.970518
10.150000	29.970518
10.160000	29.970518
10.170000	29.970518
10.180000	29.970518
10.190000	29.970518
10.200000	29.970518
10.210000	29.970518
10.220000	29.970518
10.230000	29.970518
10.240000	29.970518
10.250000	29.970518
10.260000	29.970518
10.270000	29.970518
10.280000	29.970518
10.290000	29.970518
10.300000	29.970518
10.310000	29.970518
10.320000	29.970518
10.330000	29.970518
10.340000	29.970518
10.350000	29.970518
10.360000	29.970518
10.370000	29.970518
10.380000	29.970518
10.390000	29.970518
10.400000	29.970518
10.410000	29.970518
10.420000	29.970518
10.430000	29.970518
10.440000	29.970518
10.450000	29.970518
10.460000	29.970518
10.470000	29.970518
10.480000	29.970518
10.490000	29.970518
10.500000	29.885939
10.510000	29.885939
10.520000	29.885939
10.530000	29.885939
10.540000	29.885939
10.550000	29.885939
10.560000	29.885939
10.570000	29.885939
10.580000	29.885939
10.590000	29.885939
10.600000	29.885939
10.610000	29.885939
10.620000	29.885939
10.630000	29.885939
10.640000	29.885939
10.650000	29.885939
10.660000	29.885939
10.670000	29.885939
10.680000	29.885939
10.690000	29.885939
10.700000	29.885939
10.710000	29.885939
10.720000	29.885939
10.730000	29.885939
10.740000	29.885939
10.750000	29.885939
10.760000	29.885939
10.770000	29.885939
10.780000	29.885939
10.790000	29.885939
10.800000	29.885939
10.810000	29.885939
10.820000	29.885939
10.830000	29.885939
10.840000	29.885939
10.850000	29.885939
10.860000	29.885939
10.870000	29.885939
10.880000	29.885939
10.890000	29.885939
10.900000	29.885939
10.910000	29.885939
10.920000	29.885939
10.930000	29.885939
10.940000	29.885939
10.950000	29.885939
10.960000	29.885939
10.970000	29.885939
10.980000	29.885939
10.990000	29.885939
11.000000	29.797969
11.010000	29.797969
11.020000	29.797969
11.030000	29.797969
11.040000	29.797969
11.050000	29.797969
11.060000	29.797969
11.070000	29.797969
11.080000	29.797969
11.090000	29.797969
11.100000	29.797969
11.110000	29.797969
11.120000	29.797969
11.130000	29.797969
11.140000	29.797969
11.150000	29.797969
11.160000	29.797969
11.170000	29.797969
11.180000	29.797969
11.190000	29.797969
11.200000	29.797969
11.210000	29.797969
11.220000	29.797969
11.230000	29.797969
11.240000	29.797969
11.250000	29.797969
11.260000	29.797969
11.270000	29.797969
11.280000	29.797969
11.290000	29.797969
11.300000	29.797969
11.310000	29.797969
11.320000	29.797969
11.330000	29.797969
11.340000	29.797969
11.350000	29.797969
11.360000	29.797969
11.370000	29.797969
11.380000	29.797969
11.390000	29.797969
11.400000	29.797969
11.410000	29.797969
11.420000	29.797969
11.430000	29.797969
11.440000	29.797969
11.450000	29.797969
11.460000	29.797969
11.470000	29.797969
11.480000	29.797969
11.490000	29.797969
11.500000	29.709591
11.510000	29.709591
11.520000	29.709591
11.530000	29.709591
11.540000	29.709591
11.550000	29.709591
11.560000	29.709591
11.570000	29.709591
11.580000	29.709591
11.590000	29.709591
11.600000	29.709591
11.610000	29.709591
11.620000	29.709591
11.630000	29.709591
11.640000	29.709591
11.650000	29.709591
11.660000	29.709591
11.670000	29.709591
11.680000	29.709591
11.690000	29.709591
11.700000	29.709591
11.710000	29.709591
11.720000	29.709591
11.730000	29.709591
11.740000	29.709591
11.750000	29.709591
11.760000	29.709591
11.770000	29.709591
11.780000	29.709591
11.790000	29.709591
11.800000	29.709591
11.810000	29.709591
11.820000	29.709591
11.830000	29.709591
11.840000	29.709591
11.850000	29.709591
11.860000	29.709591
11.870000	29.709591
11.880000	29.709591
11.890000	29.709591
11.900000	29.709591
11.910000	29.709591
11.920000	29.709591
11.930000	29.709591
11.940000	29.709591
11.950000	29.709591
11.960000	29.709591
11.970000	29.709591
11.980000	29.709591
11.990000	29.709591
12.000000	29.619023
12.010000	29.619023
12.020000	29.619023
12.030000	29.619023
12.040000	29.619023
12.050000	29.619023
12.060000	29.619023
12.070000	29.619023
12.080000	29.619023
12.090000	29.619023
12.100000	29.619023
12.110000	29.619023
12.120000	29.619023
12.130000	29.619023
12.140000	29.619023
12.150000	29.619023
12.160000	29.619023
12.170000	29.619023
12.180000	29.619023
12.190000	29.619023
12.200000	29.619023
12.210000	29.619023
12.220000	29.619023
12.230000	29.619023
12.240000	29.619023
12.250000	29.619023
12.260000	29.619023
12.270000	29.619023
12.280000	29.619023
12.290000	29.619023
12.300000	29.619023
12.310000	29.619023
12.320000	29.619023
12.330000	29.619023
12.340000	29.619023
12.350000	29.619023
12.360000	29.619023
12.370000	29.619023
12.380000	29.619023
12.390000	29.619023
12.400000	29.619023
12.410000	29.619023
12.420000	29.619023
12.430000	29.619023
12.440000	29.619023
12.450000	29.619023
12.460000	29.619023
12.470000	29.619023
12.480000	29.619023
12.490000	29.619023
12.500000	29.528765
12.510000	29.528765
12.520000	29.528765
12.530000	29.528765
12.540000	29.528765
12.550000	29.528765
12.560000	29.528765
12.570000	29.528765
12.580000	29.528765
12.590000	29.528765
12.600000	29.528765
12.610000	29.528765
12.620000	29.528765
12.630000	29.528765
12.640000	29.528765
12.650000	29.528765
12.660000	29.528765
12.670000	29.528765
12.680000	29.528765
12.690000	29.528765
12.700000	29.528765
12.710000	29.528765
12.720000	29.528765
12.730000	29.528765
12.740000	29.528765
12.750000	29.528765
12.760000	29.528765
12.770000	29.528765
12.780000	29.528765
12.790000	29.528765
12.800000	29.528765
12.810000	29.528765
12.820000	29.528765
12.830000	29.528765
12.840000	29.528765
12.850000	29.528765
12.860000	29.528765
12.870000	29.528765
12.880000	29.528765
12.890000	29.528765
12.900000	29.528765
12.910000	29.528765
12.920000	29.528765
12.930000	29.528765
12.940000	29.528765
12.950000	29.528765
12.960000	29.528765
12.970000	29.528765
12.980000	29.528765
12.990000	29.528765
13.000000	29.439261
13.010000	29.439261
13.020000	29.439261
13.030000	29.439261
13.040000	29.439261
13.050000	29.439261
13.060000	29.439261
13.070000	29.439261
13.080000	29.439261
13.090000	29.439261
13.100000	29.439261
13.110000	29.439261
13.120000	29.439261
13.130000	29.439261
13.140000	29.439261
13.150000	29.439261
13.160000	29.439261
13.170000	29.439261
13.180000	29.439261
13.190000	29.439261
13.200000	29.439261
13.210000	29.439261
13.220000	29.439261
13.230000	29.439261
13.240000	29.439261
13.250000	29.439261
13.260000	29.439261
13.270000	29.439261
13.280000	29.439261
13.290000	29.439261
13.300000	29.439261
13.310000	29.439261
13.320000	29.439261
13.330000	29.439261
13.340000	29.439261
13.350000	29.439261
13.360000	29.439261
13.370000	29.439261
13.380000	29.439261
13.390000	29.439261
13.400000	29.439261
13.410000	29.439261
13.420000	29.439261
13.430000	29.439261
13.440000	29.439261
13.450000	29.439261
13.460000	29.439261
13.470000	29.439261
13.480000	29.439261
13.490000	29.439261
13.500000	29.351483
13.510000	29.351483
13.520000	29.351483
13.530000	29.351483
13.540000	29.351483
13.550000	29.351483
13.560000	29.351483
13.570000	29.351483
13.580000	29.351483
13.590000	29.351483
13.600000	29.351483
13.610000	29.351483
13.620000	29.351483
13.630000	29.351483
13.640000	29.351483
13.650000	29.351483
13.660000	29.351483
13.670000	29.351483
13.680000	29.351483
13.690000	29.351483
13.700000	29.351483
13.710000	29.351483
13.720000	29.351483
13.730000	29.351483
13.740000	29.351483
13.750000	29.351483
13.760000	29.351483
13.770000	29.351483
13.780000	29.351483
13.790000	29.351483
13.800000	29.351483
13.810000	29.351483
13.820000	29.351483
13.830000	29.351483
13.840000	29.351483
13.850000	29.351483
13.860000	29.351483
13.870000	29.351483
13.880000	29.351483
13.890000	29.351483
13.900000	29.351483
13.910000	29.351483
13.920000	29.351483
13.930000	29.351483
13.940000	29.351483
13.950000	29.351483
13.960000	29.351483
13.970000	29.351483
13.980000	29.351483
13.990000	29.351483
14.000000	29.265167
14.010000	29.265167
14.020000	29.265167
14.030000	29.265167
14.040000	29.265167
14.050000	29.265167
14.060000	29.265167
14.070000	29.265167
14.080000	29.265167
14.090000	29.265167
14.100000	29.265167
14.110000	29.265167
14.120000	29.265167
14.130000	29.265167
14.140000	29.265167
14.150000	29.265167
14.160000	29.265167
14.170000	29.265167
14.180000	29.265167
14.190000	29.265167
14.200000	29.265167
14.210000	29.265167
14.220000	29.265167
14.230000	29.265167
14.240000	29.265167
14.250000	29.265167
14.260000	29.265167
14.270000	29.265167
14.280000	29.265167
14.290000	29.265167
14.300000	29.265167
14.310000	29.265167
14.320000	29.265167
14.330000	29.265167
14.340000	29.265167
14.350000	29.265167
14.360000	29.265167
14.370000	29.265167
14.380000	29.265167
14.390000	29.265167
14.400000	29.265167
14.410000	29.265167
14.420000	29.265167
14.430000	29.265167
14.440000	29.265167
14.450000	29.265167
14.460000	29.265167
14.470000	29.265167
14.480000	29.265167
14.490000	29.265167
14.500000	29.180361
14.510000	29.180361
14.520000	29.180361
14.530000	29.180361
14.540000	29.180361
14.550000	29.180361
14.560000	29.180361
14.570000	29.180361
14.580000	29.180361
14.590000	29.180361
14.600000	29.180361
14.610000	29.180361
14.620000	29.180361
14.630000	29.180361
14.640000	29.180361
14.650000	29.180361
14.660000	29.180361
14.670000	29.180361
14.680000	29.180361
14.690000	29.180361
14.700000	29.180361
14.710000	29.180361
14.720000	29.180361
14.730000	29.180361
14.740000	29.180361
14.750000	29.180361
14.760000	29.180361
14.770000	29.180361
14.780000	29.180361
14.790000	29.180361
14.800000	29.180361
14.810000	29.180361
14.820000	29.180361
14.830000	29.180361
14.840000	29.180361
14.850000	29.180361
14.860000	29.180361
14.870000	29.180361
14.880000	29.180361
14.890000	29.180361
14.900000	29.180361
14.910000	29.180361
14.920000	29.180361
14.930000	29.180361
14.940000	29.180361
14.950000	29.180361
14.960000	29.180361
14.970000	29.180361
14.980000	29.180361
14.990000	29.180361
15.000000	29.097286
15.010000	29.097286
15.020000	29.097286
15.030000	29.097286
15.040000	29.097286
15.050000	29.097286
15.060000	29.097286
15.070000	29.097286
15.080000	29.097286
15.090000	29.097286
15.100000	29.097286
15.110000	29.097286
15.120000	29.097286
15.130000	29.097286
15.140000	29.097286
15.150000	29.097286
15.160000	29.097286
15.170000	29.097286
15.180000	29.097286
15.190000	29.097286
15.200000	29.097286
15.210000	29.097286
15.220000	29.097286
15.230000	29.097286
15.240000	29.097286
15.250000	29.097286
15.260000	29.097286
15.270000	29.097286
15.280000	29.097286
15.290000	29.097286
15.300000	29.097286
15.310000	29.097286
15.320000	29.097286
15.330000	29.097286
15.340000	29.097286
15.350000	29.097286
15.360000	29.097286
15.370000	29.097286
15.380000	29.097286
15.390000	29.097286
15.400000	29.097286
15.410000	29.097286
15.420000	29.097286
15.430000	29.097286
15.440000	29.097286
15.450000	29.097286
15.460000	29.097286
15.470000	29.097286
15.480000	29.097286
15.490000	29.097286
15.500000	29.016548
15.510000	29.016548
15.520000	29.016548
15.530000	29.016548
15.540000	29.016548
15.550000	29.016548
15.560000	29.016548
15.570000	29.016548
15.580000	29.016548
15.590000	29.016548
15.600000	29.016548
15.610000	29.016548
15.620000	29.016548
15.630000	29.016548
15.640000	29.016548
15.650000	29.016548
15.660000	29.016548
15.670000	29.016548
15.680000	29.016548
15.690000	29.016548
15.700000	29.016548
15.710000	29.016548
15.720000	29.016548
15.730000	29.016548
15.740000	29.016548
15.750000	29.016548
15.760000	29.016548
15.770000	29.016548
15.780000	29.016548
15.790000	29.016548
15.800000	29.016548
15.810000	29.016548
15.820000	29.016548
15.830000	29.016548
15.840000	29.016548
15.850000	29.016548
15.860000	29.016548
15.870000	29.016548
15.880000	29.016548
15.890000	29.016548
15.900000	29.016548
15.910000	29.016548
15.920000	29.016548
15.930000	29.016548
15.940000	29.016548
15.950000	29.016548
15.960000	29.016548
15.970000	29.016548
15.980000	29.016548
15.990000	29.016548
16.000000	28.937293
16.010000	28.937293
16.020000	28.937293
16.030000	28.937293
16.040000	28.937293
16.050000	28.937293
16.060000	28.937293
16.070000	28.937293
16.080000	28.937293
16.090000	28.937293
16.100000	28.937293
16.110000	28.937293
16.120000	28.937293
16.130000	28.937293
16.140000	28.937293
16.150000	28.937293
16.160000	28.937293
16.170000	28.937293
16.180000	28.937293
16.190000	28.937293
16.200000	28.937293
16.210000	28.937293
16.220000	28.937293
16.230000	28.937293
16.240000	28.937293
16.250000	28.937293
16.260000	28.937293
16.270000	28.937293
16.280000	28.937293
16.290000	28.937293
16.300000	28.937293
16.310000	28.937293
16.320000	28.937293
16.330000	28.937293
16.340000	28.937293
16.350000	28.937293
16.360000	28.937293
16.370000	28.937293
16.380000	28.937293
16.390000	28.937293
16.400000	28.937293
16.410000	28.937293
16.420000	28.937293
16.430000	28.937293
16.440000	28.937293
16.450000	28.937293
16.460000	28.937293
16.470000	28.937293
16.480000	28.937293
16.490000	28.937293
16.500000	28.857719
16.510000	28.857719
16.520000	28.857719
16.530000	28.857719
16.540000	28.857719
16.550000	28.857719
16.560000	28.857719
16.570000	28.857719
16.580000	28.857719
16.590000	28.857719
16.600000	28.857719
16.610000	28.857719
16.620000	28.857719
16.630000	28.857719
16.640000	28.857719
16.650000	28.857719
16.660000	28.857719
16.670000	28.857719
16.680000	28.857719
16.690000	28.857719
16.700000	28.857719
16.710000	28.857719
16.720000	28.857719
16.730000	28.857719
16.740000	28.857719
16.750000	28.857719
16.760000	28.857719
16.770000	28.857719
16.780000	28.857719
16.790000	28.857719
16.800000	28.857719
16.810000	28.857719
16.820000	28.857719
16.830000	28.857719
16.840000	28.857719
16.850000	28.857719
16.860000	28.857719
16.870000	28.857719
16.880000	28.857719
16.890000	28.857719
16.900000	28.857719
16.910000	28.857719
16.920000	28.857719
16.930000	28.857719
16.940000	28.857719
16.950000	28.857719
16.960000	28.857719
16.970000	28.857719
16.980000	28.857719
16.990000	28.857719
17.000000	28.779242
17.010000	28.779242
17.020000	28.779242
17.030000	28.779242
17.040000	28.779242
17.050000	28.779242
17.060000	28.779242
17.070000	28.779242
17.080000	28.779242
17.090000	28.779242
17.100000	28.779242
17.110000	28.779242
17.120000	28.779242
17.130000	28.779242
17.140000	28.779242
17.150000	28.779242
17.160000	28.779242
17.170000	28.779242
17.180000	28.779242
17.190000	28.779242
17.200000	28.779242
17.210000	28.779242
17.220000	28.779242
17.230000	28.779242
17.240000	28.779242
17.250000	28.779242
17.260000	28.779242
17.270000	28.779242
17.280000	28.779242
17.290000	28.779242
17.300000	28.779242
17.310000	28.779242
17.320000	28.779242
17.330000	28.779242
17.340000	28.779242
17.350000	28.779242
17.360000	28.779242
17.370000	28.779242
17.380000	28.779242
17.390000	28.779242
17.400000	28.779242
17.410000	28.779242
17.420000	28.779242
17.430000	28.779242
17.440000	28.779242
17.450000	28.779242
17.460000	28.779242
17.470000	28.779242
17.480000	28.779242
17.490000	28.779242
