LabVIEW Measurement	
Writer_Version	2
Reader_Version	2
Separator	Tab
Decimal_Separator	.
Multi_Headings	No
X_Columns	One
Time_Pref	Absolute
Operator	biomech-dyno
Date	2023/05/01
Time	15:28:10.3296671999997826969
***End_of_Header***	
	
Channels	1	
Samples	10	
Date	2023/05/01	
Time	16:02:51.5839679999996510214	
X_Dimension	Time	
X0	0.0000000000000000E+0	
Delta_X	0.010000	
***End_of_Header***		
X_Value	Untitled	Comment
0.000000	24.238342
0.010000	24.238342
0.020000	24.238342
0.030000	24.238342
0.040000	24.238342
0.050000	24.238342
0.060000	24.238342
0.070000	24.238342
0.080000	24.238342
0.090000	24.238342
0.100000	24.238342
0.110000	24.238342
0.120000	24.238342
0.130000	24.238342
0.140000	24.238342
0.150000	24.238342
0.160000	24.238342
0.170000	24.238342
0.180000	24.238342
0.190000	24.238342
0.200000	24.238342
0.210000	24.238342
0.220000	24.238342
0.230000	24.238342
0.240000	24.238342
0.250000	24.238342
0.260000	24.238342
0.270000	24.238342
0.280000	24.238342
0.290000	24.238342
0.300000	24.238342
0.310000	24.238342
0.320000	24.238342
0.330000	24.238342
0.340000	24.238342
0.350000	24.238342
0.360000	24.238342
0.370000	24.238342
0.380000	24.238342
0.390000	24.238342
0.400000	24.238342
0.410000	24.238342
0.420000	24.238342
0.430000	24.238342
0.440000	24.238342
0.450000	24.238342
0.460000	24.238342
0.470000	24.238342
0.480000	24.238342
0.490000	24.238342
0.500000	24.242059
0.510000	24.242059
0.520000	24.242059
0.530000	24.242059
0.540000	24.242059
0.550000	24.242059
0.560000	24.242059
0.570000	24.242059
0.580000	24.242059
0.590000	24.242059
0.600000	24.242059
0.610000	24.242059
0.620000	24.242059
0.630000	24.242059
0.640000	24.242059
0.650000	24.242059
0.660000	24.242059
0.670000	24.242059
0.680000	24.242059
0.690000	24.242059
0.700000	24.242059
0.710000	24.242059
0.720000	24.242059
0.730000	24.242059
0.740000	24.242059
0.750000	24.242059
0.760000	24.242059
0.770000	24.242059
0.780000	24.242059
0.790000	24.242059
0.800000	24.242059
0.810000	24.242059
0.820000	24.242059
0.830000	24.242059
0.840000	24.242059
0.850000	24.242059
0.860000	24.242059
0.870000	24.242059
0.880000	24.242059
0.890000	24.242059
0.900000	24.242059
0.910000	24.242059
0.920000	24.242059
0.930000	24.242059
0.940000	24.242059
0.950000	24.242059
0.960000	24.242059
0.970000	24.242059
0.980000	24.242059
0.990000	24.242059
1.000000	24.251384
1.010000	24.251384
1.020000	24.251384
1.030000	24.251384
1.040000	24.251384
1.050000	24.251384
1.060000	24.251384
1.070000	24.251384
1.080000	24.251384
1.090000	24.251384
1.100000	24.251384
1.110000	24.251384
1.120000	24.251384
1.130000	24.251384
1.140000	24.251384
1.150000	24.251384
1.160000	24.251384
1.170000	24.251384
1.180000	24.251384
1.190000	24.251384
1.200000	24.251384
1.210000	24.251384
1.220000	24.251384
1.230000	24.251384
1.240000	24.251384
1.250000	24.251384
1.260000	24.251384
1.270000	24.251384
1.280000	24.251384
1.290000	24.251384
1.300000	24.251384
1.310000	24.251384
1.320000	24.251384
1.330000	24.251384
1.340000	24.251384
1.350000	24.251384
1.360000	24.251384
1.370000	24.251384
1.380000	24.251384
1.390000	24.251384
1.400000	24.251384
1.410000	24.251384
1.420000	24.251384
1.430000	24.251384
1.440000	24.251384
1.450000	24.251384
1.460000	24.251384
1.470000	24.251384
1.480000	24.251384
1.490000	24.251384
1.500000	24.268198
1.510000	24.268198
1.520000	24.268198
1.530000	24.268198
1.540000	24.268198
1.550000	24.268198
1.560000	24.268198
1.570000	24.268198
1.580000	24.268198
1.590000	24.268198
1.600000	24.268198
1.610000	24.268198
1.620000	24.268198
1.630000	24.268198
1.640000	24.268198
1.650000	24.268198
1.660000	24.268198
1.670000	24.268198
1.680000	24.268198
1.690000	24.268198
1.700000	24.268198
1.710000	24.268198
1.720000	24.268198
1.730000	24.268198
1.740000	24.268198
1.750000	24.268198
1.760000	24.268198
1.770000	24.268198
1.780000	24.268198
1.790000	24.268198
1.800000	24.268198
1.810000	24.268198
1.820000	24.268198
1.830000	24.268198
1.840000	24.268198
1.850000	24.268198
1.860000	24.268198
1.870000	24.268198
1.880000	24.268198
1.890000	24.268198
1.900000	24.268198
1.910000	24.268198
1.920000	24.268198
1.930000	24.268198
1.940000	24.268198
1.950000	24.268198
1.960000	24.268198
1.970000	24.268198
1.980000	24.268198
1.990000	24.268198
2.000000	24.291906
2.010000	24.291906
2.020000	24.291906
2.030000	24.291906
2.040000	24.291906
2.050000	24.291906
2.060000	24.291906
2.070000	24.291906
2.080000	24.291906
2.090000	24.291906
2.100000	24.291906
2.110000	24.291906
2.120000	24.291906
2.130000	24.291906
2.140000	24.291906
2.150000	24.291906
2.160000	24.291906
2.170000	24.291906
2.180000	24.291906
2.190000	24.291906
2.200000	24.291906
2.210000	24.291906
2.220000	24.291906
2.230000	24.291906
2.240000	24.291906
2.250000	24.291906
2.260000	24.291906
2.270000	24.291906
2.280000	24.291906
2.290000	24.291906
2.300000	24.291906
2.310000	24.291906
2.320000	24.291906
2.330000	24.291906
2.340000	24.291906
2.350000	24.291906
2.360000	24.291906
2.370000	24.291906
2.380000	24.291906
2.390000	24.291906
2.400000	24.291906
2.410000	24.291906
2.420000	24.291906
2.430000	24.291906
2.440000	24.291906
2.450000	24.291906
2.460000	24.291906
2.470000	24.291906
2.480000	24.291906
2.490000	24.291906
2.500000	24.320843
2.510000	24.320843
2.520000	24.320843
2.530000	24.320843
2.540000	24.320843
2.550000	24.320843
2.560000	24.320843
2.570000	24.320843
2.580000	24.320843
2.590000	24.320843
2.600000	24.320843
2.610000	24.320843
2.620000	24.320843
2.630000	24.320843
2.640000	24.320843
2.650000	24.320843
2.660000	24.320843
2.670000	24.320843
2.680000	24.320843
2.690000	24.320843
2.700000	24.320843
2.710000	24.320843
2.720000	24.320843
2.730000	24.320843
2.740000	24.320843
2.750000	24.320843
2.760000	24.320843
2.770000	24.320843
2.780000	24.320843
2.790000	24.320843
2.800000	24.320843
2.810000	24.320843
2.820000	24.320843
2.830000	24.320843
2.840000	24.320843
2.850000	24.320843
2.860000	24.320843
2.870000	24.320843
2.880000	24.320843
2.890000	24.320843
2.900000	24.320843
2.910000	24.320843
2.920000	24.320843
2.930000	24.320843
2.940000	24.320843
2.950000	24.320843
2.960000	24.320843
2.970000	24.320843
2.980000	24.320843
2.990000	24.320843
3.000000	24.353620
3.010000	24.353620
3.020000	24.353620
3.030000	24.353620
3.040000	24.353620
3.050000	24.353620
3.060000	24.353620
3.070000	24.353620
3.080000	24.353620
3.090000	24.353620
3.100000	24.353620
3.110000	24.353620
3.120000	24.353620
3.130000	24.353620
3.140000	24.353620
3.150000	24.353620
3.160000	24.353620
3.170000	24.353620
3.180000	24.353620
3.190000	24.353620
3.200000	24.353620
3.210000	24.353620
3.220000	24.353620
3.230000	24.353620
3.240000	24.353620
3.250000	24.353620
3.260000	24.353620
3.270000	24.353620
3.280000	24.353620
3.290000	24.353620
3.300000	24.353620
3.310000	24.353620
3.320000	24.353620
3.330000	24.353620
3.340000	24.353620
3.350000	24.353620
3.360000	24.353620
3.370000	24.353620
3.380000	24.353620
3.390000	24.353620
3.400000	24.353620
3.410000	24.353620
3.420000	24.353620
3.430000	24.353620
3.440000	24.353620
3.450000	24.353620
3.460000	24.353620
3.470000	24.353620
3.480000	24.353620
3.490000	24.353620
3.500000	24.385237
3.510000	24.385237
3.520000	24.385237
3.530000	24.385237
3.540000	24.385237
3.550000	24.385237
3.560000	24.385237
3.570000	24.385237
3.580000	24.385237
3.590000	24.385237
3.600000	24.385237
3.610000	24.385237
3.620000	24.385237
3.630000	24.385237
3.640000	24.385237
3.650000	24.385237
3.660000	24.385237
3.670000	24.385237
3.680000	24.385237
3.690000	24.385237
3.700000	24.385237
3.710000	24.385237
3.720000	24.385237
3.730000	24.385237
3.740000	24.385237
3.750000	24.385237
3.760000	24.385237
3.770000	24.385237
3.780000	24.385237
3.790000	24.385237
3.800000	24.385237
3.810000	24.385237
3.820000	24.385237
3.830000	24.385237
3.840000	24.385237
3.850000	24.385237
3.860000	24.385237
3.870000	24.385237
3.880000	24.385237
3.890000	24.385237
3.900000	24.385237
3.910000	24.385237
3.920000	24.385237
3.930000	24.385237
3.940000	24.385237
3.950000	24.385237
3.960000	24.385237
3.970000	24.385237
3.980000	24.385237
3.990000	24.385237
4.000000	24.411637
4.010000	24.411637
4.020000	24.411637
4.030000	24.411637
4.040000	24.411637
4.050000	24.411637
4.060000	24.411637
4.070000	24.411637
4.080000	24.411637
4.090000	24.411637
4.100000	24.411637
4.110000	24.411637
4.120000	24.411637
4.130000	24.411637
4.140000	24.411637
4.150000	24.411637
4.160000	24.411637
4.170000	24.411637
4.180000	24.411637
4.190000	24.411637
4.200000	24.411637
4.210000	24.411637
4.220000	24.411637
4.230000	24.411637
4.240000	24.411637
4.250000	24.411637
4.260000	24.411637
4.270000	24.411637
4.280000	24.411637
4.290000	24.411637
4.300000	24.411637
4.310000	24.411637
4.320000	24.411637
4.330000	24.411637
4.340000	24.411637
4.350000	24.411637
4.360000	24.411637
4.370000	24.411637
4.380000	24.411637
4.390000	24.411637
4.400000	24.411637
4.410000	24.411637
4.420000	24.411637
4.430000	24.411637
4.440000	24.411637
4.450000	24.411637
4.460000	24.411637
4.470000	24.411637
4.480000	24.411637
4.490000	24.411637
4.500000	24.433335
4.510000	24.433335
4.520000	24.433335
4.530000	24.433335
4.540000	24.433335
4.550000	24.433335
4.560000	24.433335
4.570000	24.433335
4.580000	24.433335
4.590000	24.433335
4.600000	24.433335
4.610000	24.433335
4.620000	24.433335
4.630000	24.433335
4.640000	24.433335
4.650000	24.433335
4.660000	24.433335
4.670000	24.433335
4.680000	24.433335
4.690000	24.433335
4.700000	24.433335
4.710000	24.433335
4.720000	24.433335
4.730000	24.433335
4.740000	24.433335
4.750000	24.433335
4.760000	24.433335
4.770000	24.433335
4.780000	24.433335
4.790000	24.433335
4.800000	24.433335
4.810000	24.433335
4.820000	24.433335
4.830000	24.433335
4.840000	24.433335
4.850000	24.433335
4.860000	24.433335
4.870000	24.433335
4.880000	24.433335
4.890000	24.433335
4.900000	24.433335
4.910000	24.433335
4.920000	24.433335
4.930000	24.433335
4.940000	24.433335
4.950000	24.433335
4.960000	24.433335
4.970000	24.433335
4.980000	24.433335
4.990000	24.433335
5.000000	24.450206
5.010000	24.450206
5.020000	24.450206
5.030000	24.450206
5.040000	24.450206
5.050000	24.450206
5.060000	24.450206
5.070000	24.450206
5.080000	24.450206
5.090000	24.450206
5.100000	24.450206
5.110000	24.450206
5.120000	24.450206
5.130000	24.450206
5.140000	24.450206
5.150000	24.450206
5.160000	24.450206
5.170000	24.450206
5.180000	24.450206
5.190000	24.450206
5.200000	24.450206
5.210000	24.450206
5.220000	24.450206
5.230000	24.450206
5.240000	24.450206
5.250000	24.450206
5.260000	24.450206
5.270000	24.450206
5.280000	24.450206
5.290000	24.450206
5.300000	24.450206
5.310000	24.450206
5.320000	24.450206
5.330000	24.450206
5.340000	24.450206
5.350000	24.450206
5.360000	24.450206
5.370000	24.450206
5.380000	24.450206
5.390000	24.450206
5.400000	24.450206
5.410000	24.450206
5.420000	24.450206
5.430000	24.450206
5.440000	24.450206
5.450000	24.450206
5.460000	24.450206
5.470000	24.450206
5.480000	24.450206
5.490000	24.450206
5.500000	24.463442
5.510000	24.463442
5.520000	24.463442
5.530000	24.463442
5.540000	24.463442
5.550000	24.463442
5.560000	24.463442
5.570000	24.463442
5.580000	24.463442
5.590000	24.463442
5.600000	24.463442
5.610000	24.463442
5.620000	24.463442
5.630000	24.463442
5.640000	24.463442
5.650000	24.463442
5.660000	24.463442
5.670000	24.463442
5.680000	24.463442
5.690000	24.463442
5.700000	24.463442
5.710000	24.463442
5.720000	24.463442
5.730000	24.463442
5.740000	24.463442
5.750000	24.463442
5.760000	24.463442
5.770000	24.463442
5.780000	24.463442
5.790000	24.463442
5.800000	24.463442
5.810000	24.463442
5.820000	24.463442
5.830000	24.463442
5.840000	24.463442
5.850000	24.463442
5.860000	24.463442
5.870000	24.463442
5.880000	24.463442
5.890000	24.463442
5.900000	24.463442
5.910000	24.463442
5.920000	24.463442
5.930000	24.463442
5.940000	24.463442
5.950000	24.463442
5.960000	24.463442
5.970000	24.463442
5.980000	24.463442
5.990000	24.463442
6.000000	24.473893
6.010000	24.473893
6.020000	24.473893
6.030000	24.473893
6.040000	24.473893
6.050000	24.473893
6.060000	24.473893
6.070000	24.473893
6.080000	24.473893
6.090000	24.473893
6.100000	24.473893
6.110000	24.473893
6.120000	24.473893
6.130000	24.473893
6.140000	24.473893
6.150000	24.473893
6.160000	24.473893
6.170000	24.473893
6.180000	24.473893
6.190000	24.473893
6.200000	24.473893
6.210000	24.473893
6.220000	24.473893
6.230000	24.473893
6.240000	24.473893
6.250000	24.473893
6.260000	24.473893
6.270000	24.473893
6.280000	24.473893
6.290000	24.473893
6.300000	24.473893
6.310000	24.473893
6.320000	24.473893
6.330000	24.473893
6.340000	24.473893
6.350000	24.473893
6.360000	24.473893
6.370000	24.473893
6.380000	24.473893
6.390000	24.473893
6.400000	24.473893
6.410000	24.473893
6.420000	24.473893
6.430000	24.473893
6.440000	24.473893
6.450000	24.473893
6.460000	24.473893
6.470000	24.473893
6.480000	24.473893
6.490000	24.473893
6.500000	24.482056
6.510000	24.482056
6.520000	24.482056
6.530000	24.482056
6.540000	24.482056
6.550000	24.482056
6.560000	24.482056
6.570000	24.482056
6.580000	24.482056
6.590000	24.482056
6.600000	24.482056
6.610000	24.482056
6.620000	24.482056
6.630000	24.482056
6.640000	24.482056
6.650000	24.482056
6.660000	24.482056
6.670000	24.482056
6.680000	24.482056
6.690000	24.482056
6.700000	24.482056
6.710000	24.482056
6.720000	24.482056
6.730000	24.482056
6.740000	24.482056
6.750000	24.482056
6.760000	24.482056
6.770000	24.482056
6.780000	24.482056
6.790000	24.482056
6.800000	24.482056
6.810000	24.482056
6.820000	24.482056
6.830000	24.482056
6.840000	24.482056
6.850000	24.482056
6.860000	24.482056
6.870000	24.482056
6.880000	24.482056
6.890000	24.482056
6.900000	24.482056
6.910000	24.482056
6.920000	24.482056
6.930000	24.482056
6.940000	24.482056
6.950000	24.482056
6.960000	24.482056
6.970000	24.482056
6.980000	24.482056
6.990000	24.482056
7.000000	24.488526
7.010000	24.488526
7.020000	24.488526
7.030000	24.488526
7.040000	24.488526
7.050000	24.488526
7.060000	24.488526
7.070000	24.488526
7.080000	24.488526
7.090000	24.488526
7.100000	24.488526
7.110000	24.488526
7.120000	24.488526
7.130000	24.488526
7.140000	24.488526
7.150000	24.488526
7.160000	24.488526
7.170000	24.488526
7.180000	24.488526
7.190000	24.488526
7.200000	24.488526
7.210000	24.488526
7.220000	24.488526
7.230000	24.488526
7.240000	24.488526
7.250000	24.488526
7.260000	24.488526
7.270000	24.488526
7.280000	24.488526
7.290000	24.488526
7.300000	24.488526
7.310000	24.488526
7.320000	24.488526
7.330000	24.488526
7.340000	24.488526
7.350000	24.488526
7.360000	24.488526
7.370000	24.488526
7.380000	24.488526
7.390000	24.488526
7.400000	24.488526
7.410000	24.488526
7.420000	24.488526
7.430000	24.488526
7.440000	24.488526
7.450000	24.488526
7.460000	24.488526
7.470000	24.488526
7.480000	24.488526
7.490000	24.488526
7.500000	24.494001
7.510000	24.494001
7.520000	24.494001
7.530000	24.494001
7.540000	24.494001
7.550000	24.494001
7.560000	24.494001
7.570000	24.494001
7.580000	24.494001
7.590000	24.494001
7.600000	24.494001
7.610000	24.494001
7.620000	24.494001
7.630000	24.494001
7.640000	24.494001
7.650000	24.494001
7.660000	24.494001
7.670000	24.494001
7.680000	24.494001
7.690000	24.494001
7.700000	24.494001
7.710000	24.494001
7.720000	24.494001
7.730000	24.494001
7.740000	24.494001
7.750000	24.494001
7.760000	24.494001
7.770000	24.494001
7.780000	24.494001
7.790000	24.494001
7.800000	24.494001
7.810000	24.494001
7.820000	24.494001
7.830000	24.494001
7.840000	24.494001
7.850000	24.494001
7.860000	24.494001
7.870000	24.494001
7.880000	24.494001
7.890000	24.494001
7.900000	24.494001
7.910000	24.494001
7.920000	24.494001
7.930000	24.494001
7.940000	24.494001
7.950000	24.494001
7.960000	24.494001
7.970000	24.494001
7.980000	24.494001
7.990000	24.494001
8.000000	24.497436
8.010000	24.497436
8.020000	24.497436
8.030000	24.497436
8.040000	24.497436
8.050000	24.497436
8.060000	24.497436
8.070000	24.497436
8.080000	24.497436
8.090000	24.497436
8.100000	24.497436
8.110000	24.497436
8.120000	24.497436
8.130000	24.497436
8.140000	24.497436
8.150000	24.497436
8.160000	24.497436
8.170000	24.497436
8.180000	24.497436
8.190000	24.497436
8.200000	24.497436
8.210000	24.497436
8.220000	24.497436
8.230000	24.497436
8.240000	24.497436
8.250000	24.497436
8.260000	24.497436
8.270000	24.497436
8.280000	24.497436
8.290000	24.497436
8.300000	24.497436
8.310000	24.497436
8.320000	24.497436
8.330000	24.497436
8.340000	24.497436
8.350000	24.497436
8.360000	24.497436
8.370000	24.497436
8.380000	24.497436
8.390000	24.497436
8.400000	24.497436
8.410000	24.497436
8.420000	24.497436
8.430000	24.497436
8.440000	24.497436
8.450000	24.497436
8.460000	24.497436
8.470000	24.497436
8.480000	24.497436
8.490000	24.497436
8.500000	24.500400
8.510000	24.500400
8.520000	24.500400
8.530000	24.500400
8.540000	24.500400
8.550000	24.500400
8.560000	24.500400
8.570000	24.500400
8.580000	24.500400
8.590000	24.500400
8.600000	24.500400
8.610000	24.500400
8.620000	24.500400
8.630000	24.500400
8.640000	24.500400
8.650000	24.500400
8.660000	24.500400
8.670000	24.500400
8.680000	24.500400
8.690000	24.500400
8.700000	24.500400
8.710000	24.500400
8.720000	24.500400
8.730000	24.500400
8.740000	24.500400
8.750000	24.500400
8.760000	24.500400
8.770000	24.500400
8.780000	24.500400
8.790000	24.500400
8.800000	24.500400
8.810000	24.500400
8.820000	24.500400
8.830000	24.500400
8.840000	24.500400
8.850000	24.500400
8.860000	24.500400
8.870000	24.500400
8.880000	24.500400
8.890000	24.500400
8.900000	24.500400
8.910000	24.500400
8.920000	24.500400
8.930000	24.500400
8.940000	24.500400
8.950000	24.500400
8.960000	24.500400
8.970000	24.500400
8.980000	24.500400
8.990000	24.500400
9.000000	24.502126
9.010000	24.502126
9.020000	24.502126
9.030000	24.502126
9.040000	24.502126
9.050000	24.502126
9.060000	24.502126
9.070000	24.502126
9.080000	24.502126
9.090000	24.502126
9.100000	24.502126
9.110000	24.502126
9.120000	24.502126
9.130000	24.502126
9.140000	24.502126
9.150000	24.502126
9.160000	24.502126
9.170000	24.502126
9.180000	24.502126
9.190000	24.502126
9.200000	24.502126
9.210000	24.502126
9.220000	24.502126
9.230000	24.502126
9.240000	24.502126
9.250000	24.502126
9.260000	24.502126
9.270000	24.502126
9.280000	24.502126
9.290000	24.502126
9.300000	24.502126
9.310000	24.502126
9.320000	24.502126
9.330000	24.502126
9.340000	24.502126
9.350000	24.502126
9.360000	24.502126
9.370000	24.502126
9.380000	24.502126
9.390000	24.502126
9.400000	24.502126
9.410000	24.502126
9.420000	24.502126
9.430000	24.502126
9.440000	24.502126
9.450000	24.502126
9.460000	24.502126
9.470000	24.502126
9.480000	24.502126
9.490000	24.502126
9.500000	24.503547
9.510000	24.503547
9.520000	24.503547
9.530000	24.503547
9.540000	24.503547
9.550000	24.503547
9.560000	24.503547
9.570000	24.503547
9.580000	24.503547
9.590000	24.503547
9.600000	24.503547
9.610000	24.503547
9.620000	24.503547
9.630000	24.503547
9.640000	24.503547
9.650000	24.503547
9.660000	24.503547
9.670000	24.503547
9.680000	24.503547
9.690000	24.503547
9.700000	24.503547
9.710000	24.503547
9.720000	24.503547
9.730000	24.503547
9.740000	24.503547
9.750000	24.503547
9.760000	24.503547
9.770000	24.503547
9.780000	24.503547
9.790000	24.503547
9.800000	24.503547
9.810000	24.503547
9.820000	24.503547
9.830000	24.503547
9.840000	24.503547
9.850000	24.503547
9.860000	24.503547
9.870000	24.503547
9.880000	24.503547
9.890000	24.503547
9.900000	24.503547
9.910000	24.503547
9.920000	24.503547
9.930000	24.503547
9.940000	24.503547
9.950000	24.503547
9.960000	24.503547
9.970000	24.503547
9.980000	24.503547
9.990000	24.503547
10.000000	24.504236
10.010000	24.504236
10.020000	24.504236
10.030000	24.504236
10.040000	24.504236
10.050000	24.504236
10.060000	24.504236
10.070000	24.504236
10.080000	24.504236
10.090000	24.504236
10.100000	24.504236
10.110000	24.504236
10.120000	24.504236
10.130000	24.504236
10.140000	24.504236
10.150000	24.504236
10.160000	24.504236
10.170000	24.504236
10.180000	24.504236
10.190000	24.504236
10.200000	24.504236
10.210000	24.504236
10.220000	24.504236
10.230000	24.504236
10.240000	24.504236
10.250000	24.504236
10.260000	24.504236
10.270000	24.504236
10.280000	24.504236
10.290000	24.504236
10.300000	24.504236
10.310000	24.504236
10.320000	24.504236
10.330000	24.504236
10.340000	24.504236
10.350000	24.504236
10.360000	24.504236
10.370000	24.504236
10.380000	24.504236
10.390000	24.504236
10.400000	24.504236
10.410000	24.504236
10.420000	24.504236
10.430000	24.504236
10.440000	24.504236
10.450000	24.504236
10.460000	24.504236
10.470000	24.504236
10.480000	24.504236
10.490000	24.504236
10.500000	24.504715
10.510000	24.504715
10.520000	24.504715
10.530000	24.504715
10.540000	24.504715
10.550000	24.504715
10.560000	24.504715
10.570000	24.504715
10.580000	24.504715
10.590000	24.504715
10.600000	24.504715
10.610000	24.504715
10.620000	24.504715
10.630000	24.504715
10.640000	24.504715
10.650000	24.504715
10.660000	24.504715
10.670000	24.504715
10.680000	24.504715
10.690000	24.504715
10.700000	24.504715
10.710000	24.504715
10.720000	24.504715
10.730000	24.504715
10.740000	24.504715
10.750000	24.504715
10.760000	24.504715
10.770000	24.504715
10.780000	24.504715
10.790000	24.504715
10.800000	24.504715
10.810000	24.504715
10.820000	24.504715
10.830000	24.504715
10.840000	24.504715
10.850000	24.504715
10.860000	24.504715
10.870000	24.504715
10.880000	24.504715
10.890000	24.504715
10.900000	24.504715
10.910000	24.504715
10.920000	24.504715
10.930000	24.504715
10.940000	24.504715
10.950000	24.504715
10.960000	24.504715
10.970000	24.504715
10.980000	24.504715
10.990000	24.504715
11.000000	24.504314
11.010000	24.504314
11.020000	24.504314
11.030000	24.504314
11.040000	24.504314
11.050000	24.504314
11.060000	24.504314
11.070000	24.504314
11.080000	24.504314
11.090000	24.504314
11.100000	24.504314
11.110000	24.504314
11.120000	24.504314
11.130000	24.504314
11.140000	24.504314
11.150000	24.504314
11.160000	24.504314
11.170000	24.504314
11.180000	24.504314
11.190000	24.504314
11.200000	24.504314
11.210000	24.504314
11.220000	24.504314
11.230000	24.504314
11.240000	24.504314
11.250000	24.504314
11.260000	24.504314
11.270000	24.504314
11.280000	24.504314
11.290000	24.504314
11.300000	24.504314
11.310000	24.504314
11.320000	24.504314
11.330000	24.504314
11.340000	24.504314
11.350000	24.504314
11.360000	24.504314
11.370000	24.504314
11.380000	24.504314
11.390000	24.504314
11.400000	24.504314
11.410000	24.504314
11.420000	24.504314
11.430000	24.504314
11.440000	24.504314
11.450000	24.504314
11.460000	24.504314
11.470000	24.504314
11.480000	24.504314
11.490000	24.504314
11.500000	24.502841
11.510000	24.502841
11.520000	24.502841
11.530000	24.502841
11.540000	24.502841
11.550000	24.502841
11.560000	24.502841
11.570000	24.502841
11.580000	24.502841
11.590000	24.502841
11.600000	24.502841
11.610000	24.502841
11.620000	24.502841
11.630000	24.502841
11.640000	24.502841
11.650000	24.502841
11.660000	24.502841
11.670000	24.502841
11.680000	24.502841
11.690000	24.502841
11.700000	24.502841
11.710000	24.502841
11.720000	24.502841
11.730000	24.502841
11.740000	24.502841
11.750000	24.502841
11.760000	24.502841
11.770000	24.502841
11.780000	24.502841
11.790000	24.502841
11.800000	24.502841
11.810000	24.502841
11.820000	24.502841
11.830000	24.502841
11.840000	24.502841
11.850000	24.502841
11.860000	24.502841
11.870000	24.502841
11.880000	24.502841
11.890000	24.502841
11.900000	24.502841
11.910000	24.502841
11.920000	24.502841
11.930000	24.502841
11.940000	24.502841
11.950000	24.502841
11.960000	24.502841
11.970000	24.502841
11.980000	24.502841
11.990000	24.502841
12.000000	24.501690
12.010000	24.501690
12.020000	24.501690
12.030000	24.501690
12.040000	24.501690
12.050000	24.501690
12.060000	24.501690
12.070000	24.501690
12.080000	24.501690
12.090000	24.501690
12.100000	24.501690
12.110000	24.501690
12.120000	24.501690
12.130000	24.501690
12.140000	24.501690
12.150000	24.501690
12.160000	24.501690
12.170000	24.501690
12.180000	24.501690
12.190000	24.501690
12.200000	24.501690
12.210000	24.501690
12.220000	24.501690
12.230000	24.501690
12.240000	24.501690
12.250000	24.501690
12.260000	24.501690
12.270000	24.501690
12.280000	24.501690
12.290000	24.501690
12.300000	24.501690
12.310000	24.501690
12.320000	24.501690
12.330000	24.501690
12.340000	24.501690
12.350000	24.501690
12.360000	24.501690
12.370000	24.501690
12.380000	24.501690
12.390000	24.501690
12.400000	24.501690
12.410000	24.501690
12.420000	24.501690
12.430000	24.501690
12.440000	24.501690
12.450000	24.501690
12.460000	24.501690
12.470000	24.501690
12.480000	24.501690
12.490000	24.501690
12.500000	24.500548
12.510000	24.500548
12.520000	24.500548
12.530000	24.500548
12.540000	24.500548
12.550000	24.500548
12.560000	24.500548
12.570000	24.500548
12.580000	24.500548
12.590000	24.500548
12.600000	24.500548
12.610000	24.500548
12.620000	24.500548
12.630000	24.500548
12.640000	24.500548
12.650000	24.500548
12.660000	24.500548
12.670000	24.500548
12.680000	24.500548
12.690000	24.500548
12.700000	24.500548
12.710000	24.500548
12.720000	24.500548
12.730000	24.500548
12.740000	24.500548
12.750000	24.500548
12.760000	24.500548
12.770000	24.500548
12.780000	24.500548
12.790000	24.500548
12.800000	24.500548
12.810000	24.500548
12.820000	24.500548
12.830000	24.500548
12.840000	24.500548
12.850000	24.500548
12.860000	24.500548
12.870000	24.500548
12.880000	24.500548
12.890000	24.500548
12.900000	24.500548
12.910000	24.500548
12.920000	24.500548
12.930000	24.500548
12.940000	24.500548
12.950000	24.500548
12.960000	24.500548
12.970000	24.500548
12.980000	24.500548
12.990000	24.500548
13.000000	24.498814
13.010000	24.498814
13.020000	24.498814
13.030000	24.498814
13.040000	24.498814
13.050000	24.498814
13.060000	24.498814
13.070000	24.498814
13.080000	24.498814
13.090000	24.498814
13.100000	24.498814
13.110000	24.498814
13.120000	24.498814
13.130000	24.498814
13.140000	24.498814
13.150000	24.498814
13.160000	24.498814
13.170000	24.498814
13.180000	24.498814
13.190000	24.498814
13.200000	24.498814
13.210000	24.498814
13.220000	24.498814
13.230000	24.498814
13.240000	24.498814
13.250000	24.498814
13.260000	24.498814
13.270000	24.498814
13.280000	24.498814
13.290000	24.498814
13.300000	24.498814
13.310000	24.498814
13.320000	24.498814
13.330000	24.498814
13.340000	24.498814
13.350000	24.498814
13.360000	24.498814
13.370000	24.498814
13.380000	24.498814
13.390000	24.498814
13.400000	24.498814
13.410000	24.498814
13.420000	24.498814
13.430000	24.498814
13.440000	24.498814
13.450000	24.498814
13.460000	24.498814
13.470000	24.498814
13.480000	24.498814
13.490000	24.498814
13.500000	24.497410
13.510000	24.497410
13.520000	24.497410
13.530000	24.497410
13.540000	24.497410
13.550000	24.497410
13.560000	24.497410
13.570000	24.497410
13.580000	24.497410
13.590000	24.497410
13.600000	24.497410
13.610000	24.497410
13.620000	24.497410
13.630000	24.497410
13.640000	24.497410
13.650000	24.497410
13.660000	24.497410
13.670000	24.497410
13.680000	24.497410
13.690000	24.497410
13.700000	24.497410
13.710000	24.497410
13.720000	24.497410
13.730000	24.497410
13.740000	24.497410
13.750000	24.497410
13.760000	24.497410
13.770000	24.497410
13.780000	24.497410
13.790000	24.497410
13.800000	24.497410
13.810000	24.497410
13.820000	24.497410
13.830000	24.497410
13.840000	24.497410
13.850000	24.497410
13.860000	24.497410
13.870000	24.497410
13.880000	24.497410
13.890000	24.497410
13.900000	24.497410
13.910000	24.497410
13.920000	24.497410
13.930000	24.497410
13.940000	24.497410
13.950000	24.497410
13.960000	24.497410
13.970000	24.497410
13.980000	24.497410
13.990000	24.497410
14.000000	24.495710
14.010000	24.495710
14.020000	24.495710
14.030000	24.495710
14.040000	24.495710
14.050000	24.495710
14.060000	24.495710
14.070000	24.495710
14.080000	24.495710
14.090000	24.495710
14.100000	24.495710
14.110000	24.495710
14.120000	24.495710
14.130000	24.495710
14.140000	24.495710
14.150000	24.495710
14.160000	24.495710
14.170000	24.495710
14.180000	24.495710
14.190000	24.495710
14.200000	24.495710
14.210000	24.495710
14.220000	24.495710
14.230000	24.495710
14.240000	24.495710
14.250000	24.495710
14.260000	24.495710
14.270000	24.495710
14.280000	24.495710
14.290000	24.495710
14.300000	24.495710
14.310000	24.495710
14.320000	24.495710
14.330000	24.495710
14.340000	24.495710
14.350000	24.495710
14.360000	24.495710
14.370000	24.495710
14.380000	24.495710
14.390000	24.495710
14.400000	24.495710
14.410000	24.495710
14.420000	24.495710
14.430000	24.495710
14.440000	24.495710
14.450000	24.495710
14.460000	24.495710
14.470000	24.495710
14.480000	24.495710
14.490000	24.495710
14.500000	24.493897
14.510000	24.493897
14.520000	24.493897
14.530000	24.493897
14.540000	24.493897
14.550000	24.493897
14.560000	24.493897
14.570000	24.493897
14.580000	24.493897
14.590000	24.493897
14.600000	24.493897
14.610000	24.493897
14.620000	24.493897
14.630000	24.493897
14.640000	24.493897
14.650000	24.493897
14.660000	24.493897
14.670000	24.493897
14.680000	24.493897
14.690000	24.493897
14.700000	24.493897
14.710000	24.493897
14.720000	24.493897
14.730000	24.493897
14.740000	24.493897
14.750000	24.493897
14.760000	24.493897
14.770000	24.493897
14.780000	24.493897
14.790000	24.493897
14.800000	24.493897
14.810000	24.493897
14.820000	24.493897
14.830000	24.493897
14.840000	24.493897
14.850000	24.493897
14.860000	24.493897
14.870000	24.493897
14.880000	24.493897
14.890000	24.493897
14.900000	24.493897
14.910000	24.493897
14.920000	24.493897
14.930000	24.493897
14.940000	24.493897
14.950000	24.493897
14.960000	24.493897
14.970000	24.493897
14.980000	24.493897
14.990000	24.493897
15.000000	24.492092
15.010000	24.492092
15.020000	24.492092
15.030000	24.492092
15.040000	24.492092
15.050000	24.492092
15.060000	24.492092
15.070000	24.492092
15.080000	24.492092
15.090000	24.492092
15.100000	24.492092
15.110000	24.492092
15.120000	24.492092
15.130000	24.492092
15.140000	24.492092
15.150000	24.492092
15.160000	24.492092
15.170000	24.492092
15.180000	24.492092
15.190000	24.492092
15.200000	24.492092
15.210000	24.492092
15.220000	24.492092
15.230000	24.492092
15.240000	24.492092
15.250000	24.492092
15.260000	24.492092
15.270000	24.492092
15.280000	24.492092
15.290000	24.492092
15.300000	24.492092
15.310000	24.492092
15.320000	24.492092
15.330000	24.492092
15.340000	24.492092
15.350000	24.492092
15.360000	24.492092
15.370000	24.492092
15.380000	24.492092
15.390000	24.492092
15.400000	24.492092
15.410000	24.492092
15.420000	24.492092
15.430000	24.492092
15.440000	24.492092
15.450000	24.492092
15.460000	24.492092
15.470000	24.492092
15.480000	24.492092
15.490000	24.492092
15.500000	24.489825
15.510000	24.489825
15.520000	24.489825
15.530000	24.489825
15.540000	24.489825
15.550000	24.489825
15.560000	24.489825
15.570000	24.489825
15.580000	24.489825
15.590000	24.489825
15.600000	24.489825
15.610000	24.489825
15.620000	24.489825
15.630000	24.489825
15.640000	24.489825
15.650000	24.489825
15.660000	24.489825
15.670000	24.489825
15.680000	24.489825
15.690000	24.489825
15.700000	24.489825
15.710000	24.489825
15.720000	24.489825
15.730000	24.489825
15.740000	24.489825
15.750000	24.489825
15.760000	24.489825
15.770000	24.489825
15.780000	24.489825
15.790000	24.489825
15.800000	24.489825
15.810000	24.489825
15.820000	24.489825
15.830000	24.489825
15.840000	24.489825
15.850000	24.489825
15.860000	24.489825
15.870000	24.489825
15.880000	24.489825
15.890000	24.489825
15.900000	24.489825
15.910000	24.489825
15.920000	24.489825
15.930000	24.489825
15.940000	24.489825
15.950000	24.489825
15.960000	24.489825
15.970000	24.489825
15.980000	24.489825
15.990000	24.489825
16.000000	24.487532
16.010000	24.487532
16.020000	24.487532
16.030000	24.487532
16.040000	24.487532
16.050000	24.487532
16.060000	24.487532
16.070000	24.487532
16.080000	24.487532
16.090000	24.487532
16.100000	24.487532
16.110000	24.487532
16.120000	24.487532
16.130000	24.487532
16.140000	24.487532
16.150000	24.487532
16.160000	24.487532
16.170000	24.487532
16.180000	24.487532
16.190000	24.487532
16.200000	24.487532
16.210000	24.487532
16.220000	24.487532
16.230000	24.487532
16.240000	24.487532
16.250000	24.487532
16.260000	24.487532
16.270000	24.487532
16.280000	24.487532
16.290000	24.487532
16.300000	24.487532
16.310000	24.487532
16.320000	24.487532
16.330000	24.487532
16.340000	24.487532
16.350000	24.487532
16.360000	24.487532
16.370000	24.487532
16.380000	24.487532
16.390000	24.487532
16.400000	24.487532
16.410000	24.487532
16.420000	24.487532
16.430000	24.487532
16.440000	24.487532
16.450000	24.487532
16.460000	24.487532
16.470000	24.487532
16.480000	24.487532
16.490000	24.487532
16.500000	24.485230
16.510000	24.485230
16.520000	24.485230
16.530000	24.485230
16.540000	24.485230
16.550000	24.485230
16.560000	24.485230
16.570000	24.485230
16.580000	24.485230
16.590000	24.485230
16.600000	24.485230
16.610000	24.485230
16.620000	24.485230
16.630000	24.485230
16.640000	24.485230
16.650000	24.485230
16.660000	24.485230
16.670000	24.485230
16.680000	24.485230
16.690000	24.485230
16.700000	24.485230
16.710000	24.485230
16.720000	24.485230
16.730000	24.485230
16.740000	24.485230
16.750000	24.485230
16.760000	24.485230
16.770000	24.485230
16.780000	24.485230
16.790000	24.485230
16.800000	24.485230
16.810000	24.485230
16.820000	24.485230
16.830000	24.485230
16.840000	24.485230
16.850000	24.485230
16.860000	24.485230
16.870000	24.485230
16.880000	24.485230
16.890000	24.485230
16.900000	24.485230
16.910000	24.485230
16.920000	24.485230
16.930000	24.485230
16.940000	24.485230
16.950000	24.485230
16.960000	24.485230
16.970000	24.485230
16.980000	24.485230
16.990000	24.485230
17.000000	24.482788
17.010000	24.482788
17.020000	24.482788
17.030000	24.482788
17.040000	24.482788
17.050000	24.482788
17.060000	24.482788
17.070000	24.482788
17.080000	24.482788
17.090000	24.482788
17.100000	24.482788
17.110000	24.482788
17.120000	24.482788
17.130000	24.482788
17.140000	24.482788
17.150000	24.482788
17.160000	24.482788
17.170000	24.482788
17.180000	24.482788
17.190000	24.482788
17.200000	24.482788
17.210000	24.482788
17.220000	24.482788
17.230000	24.482788
17.240000	24.482788
17.250000	24.482788
17.260000	24.482788
17.270000	24.482788
17.280000	24.482788
17.290000	24.482788
17.300000	24.482788
17.310000	24.482788
17.320000	24.482788
17.330000	24.482788
17.340000	24.482788
17.350000	24.482788
17.360000	24.482788
17.370000	24.482788
17.380000	24.482788
17.390000	24.482788
17.400000	24.482788
17.410000	24.482788
17.420000	24.482788
17.430000	24.482788
17.440000	24.482788
17.450000	24.482788
17.460000	24.482788
17.470000	24.482788
17.480000	24.482788
17.490000	24.482788
17.500000	24.480486
17.510000	24.480486
17.520000	24.480486
17.530000	24.480486
17.540000	24.480486
17.550000	24.480486
17.560000	24.480486
17.570000	24.480486
17.580000	24.480486
17.590000	24.480486
17.600000	24.480486
17.610000	24.480486
17.620000	24.480486
17.630000	24.480486
17.640000	24.480486
17.650000	24.480486
17.660000	24.480486
17.670000	24.480486
17.680000	24.480486
17.690000	24.480486
