LabVIEW Measurement	
Writer_Version	2
Reader_Version	2
Separator	Tab
Decimal_Separator	.
Multi_Headings	No
X_Columns	One
Time_Pref	Absolute
Operator	biomech-dyno
Date	2023/05/01
Time	15:28:10.3296671999997826969
***End_of_Header***	
	
Channels	1	
Samples	10	
Date	2023/05/01	
Time	16:02:18.364244499999764793	
X_Dimension	Time	
X0	0.0000000000000000E+0	
Delta_X	0.010000	
***End_of_Header***		
X_Value	Untitled	Comment
0.000000	24.128510
0.010000	24.128510
0.020000	24.128510
0.030000	24.128510
0.040000	24.128510
0.050000	24.128510
0.060000	24.128510
0.070000	24.128510
0.080000	24.128510
0.090000	24.128510
0.100000	24.128510
0.110000	24.128510
0.120000	24.128510
0.130000	24.128510
0.140000	24.128510
0.150000	24.128510
0.160000	24.128510
0.170000	24.128510
0.180000	24.128510
0.190000	24.128510
0.200000	24.128510
0.210000	24.128510
0.220000	24.128510
0.230000	24.128510
0.240000	24.128510
0.250000	24.128510
0.260000	24.128510
0.270000	24.128510
0.280000	24.128510
0.290000	24.128510
0.300000	24.128510
0.310000	24.128510
0.320000	24.128510
0.330000	24.128510
0.340000	24.128510
0.350000	24.128510
0.360000	24.128510
0.370000	24.128510
0.380000	24.128510
0.390000	24.128510
0.400000	24.128510
0.410000	24.128510
0.420000	24.128510
0.430000	24.128510
0.440000	24.128510
0.450000	24.128510
0.460000	24.128510
0.470000	24.128510
0.480000	24.128510
0.490000	24.128510
0.500000	24.132543
0.510000	24.132543
0.520000	24.132543
0.530000	24.132543
0.540000	24.132543
0.550000	24.132543
0.560000	24.132543
0.570000	24.132543
0.580000	24.132543
0.590000	24.132543
0.600000	24.132543
0.610000	24.132543
0.620000	24.132543
0.630000	24.132543
0.640000	24.132543
0.650000	24.132543
0.660000	24.132543
0.670000	24.132543
0.680000	24.132543
0.690000	24.132543
0.700000	24.132543
0.710000	24.132543
0.720000	24.132543
0.730000	24.132543
0.740000	24.132543
0.750000	24.132543
0.760000	24.132543
0.770000	24.132543
0.780000	24.132543
0.790000	24.132543
0.800000	24.132543
0.810000	24.132543
0.820000	24.132543
0.830000	24.132543
0.840000	24.132543
0.850000	24.132543
0.860000	24.132543
0.870000	24.132543
0.880000	24.132543
0.890000	24.132543
0.900000	24.132543
0.910000	24.132543
0.920000	24.132543
0.930000	24.132543
0.940000	24.132543
0.950000	24.132543
0.960000	24.132543
0.970000	24.132543
0.980000	24.132543
0.990000	24.132543
1.000000	24.139228
1.010000	24.139228
1.020000	24.139228
1.030000	24.139228
1.040000	24.139228
1.050000	24.139228
1.060000	24.139228
1.070000	24.139228
1.080000	24.139228
1.090000	24.139228
1.100000	24.139228
1.110000	24.139228
1.120000	24.139228
1.130000	24.139228
1.140000	24.139228
1.150000	24.139228
1.160000	24.139228
1.170000	24.139228
1.180000	24.139228
1.190000	24.139228
1.200000	24.139228
1.210000	24.139228
1.220000	24.139228
1.230000	24.139228
1.240000	24.139228
1.250000	24.139228
1.260000	24.139228
1.270000	24.139228
1.280000	24.139228
1.290000	24.139228
1.300000	24.139228
1.310000	24.139228
1.320000	24.139228
1.330000	24.139228
1.340000	24.139228
1.350000	24.139228
1.360000	24.139228
1.370000	24.139228
1.380000	24.139228
1.390000	24.139228
1.400000	24.139228
1.410000	24.139228
1.420000	24.139228
1.430000	24.139228
1.440000	24.139228
1.450000	24.139228
1.460000	24.139228
1.470000	24.139228
1.480000	24.139228
1.490000	24.139228
1.500000	24.148758
1.510000	24.148758
1.520000	24.148758
1.530000	24.148758
1.540000	24.148758
1.550000	24.148758
1.560000	24.148758
1.570000	24.148758
1.580000	24.148758
1.590000	24.148758
1.600000	24.148758
1.610000	24.148758
1.620000	24.148758
1.630000	24.148758
1.640000	24.148758
1.650000	24.148758
1.660000	24.148758
1.670000	24.148758
1.680000	24.148758
1.690000	24.148758
1.700000	24.148758
1.710000	24.148758
1.720000	24.148758
1.730000	24.148758
1.740000	24.148758
1.750000	24.148758
1.760000	24.148758
1.770000	24.148758
1.780000	24.148758
1.790000	24.148758
1.800000	24.148758
1.810000	24.148758
1.820000	24.148758
1.830000	24.148758
1.840000	24.148758
1.850000	24.148758
1.860000	24.148758
1.870000	24.148758
1.880000	24.148758
1.890000	24.148758
1.900000	24.148758
1.910000	24.148758
1.920000	24.148758
1.930000	24.148758
1.940000	24.148758
1.950000	24.148758
1.960000	24.148758
1.970000	24.148758
1.980000	24.148758
1.990000	24.148758
2.000000	24.160262
2.010000	24.160262
2.020000	24.160262
2.030000	24.160262
2.040000	24.160262
2.050000	24.160262
2.060000	24.160262
2.070000	24.160262
2.080000	24.160262
2.090000	24.160262
2.100000	24.160262
2.110000	24.160262
2.120000	24.160262
2.130000	24.160262
2.140000	24.160262
2.150000	24.160262
2.160000	24.160262
2.170000	24.160262
2.180000	24.160262
2.190000	24.160262
2.200000	24.160262
2.210000	24.160262
2.220000	24.160262
2.230000	24.160262
2.240000	24.160262
2.250000	24.160262
2.260000	24.160262
2.270000	24.160262
2.280000	24.160262
2.290000	24.160262
2.300000	24.160262
2.310000	24.160262
2.320000	24.160262
2.330000	24.160262
2.340000	24.160262
2.350000	24.160262
2.360000	24.160262
2.370000	24.160262
2.380000	24.160262
2.390000	24.160262
2.400000	24.160262
2.410000	24.160262
2.420000	24.160262
2.430000	24.160262
2.440000	24.160262
2.450000	24.160262
2.460000	24.160262
2.470000	24.160262
2.480000	24.160262
2.490000	24.160262
2.500000	24.173852
2.510000	24.173852
2.520000	24.173852
2.530000	24.173852
2.540000	24.173852
2.550000	24.173852
2.560000	24.173852
2.570000	24.173852
2.580000	24.173852
2.590000	24.173852
2.600000	24.173852
2.610000	24.173852
2.620000	24.173852
2.630000	24.173852
2.640000	24.173852
2.650000	24.173852
2.660000	24.173852
2.670000	24.173852
2.680000	24.173852
2.690000	24.173852
2.700000	24.173852
2.710000	24.173852
2.720000	24.173852
2.730000	24.173852
2.740000	24.173852
2.750000	24.173852
2.760000	24.173852
2.770000	24.173852
2.780000	24.173852
2.790000	24.173852
2.800000	24.173852
2.810000	24.173852
2.820000	24.173852
2.830000	24.173852
2.840000	24.173852
2.850000	24.173852
2.860000	24.173852
2.870000	24.173852
2.880000	24.173852
2.890000	24.173852
2.900000	24.173852
2.910000	24.173852
2.920000	24.173852
2.930000	24.173852
2.940000	24.173852
2.950000	24.173852
2.960000	24.173852
2.970000	24.173852
2.980000	24.173852
2.990000	24.173852
3.000000	24.189526
3.010000	24.189526
3.020000	24.189526
3.030000	24.189526
3.040000	24.189526
3.050000	24.189526
3.060000	24.189526
3.070000	24.189526
3.080000	24.189526
3.090000	24.189526
3.100000	24.189526
3.110000	24.189526
3.120000	24.189526
3.130000	24.189526
3.140000	24.189526
3.150000	24.189526
3.160000	24.189526
3.170000	24.189526
3.180000	24.189526
3.190000	24.189526
3.200000	24.189526
3.210000	24.189526
3.220000	24.189526
3.230000	24.189526
3.240000	24.189526
3.250000	24.189526
3.260000	24.189526
3.270000	24.189526
3.280000	24.189526
3.290000	24.189526
3.300000	24.189526
3.310000	24.189526
3.320000	24.189526
3.330000	24.189526
3.340000	24.189526
3.350000	24.189526
3.360000	24.189526
3.370000	24.189526
3.380000	24.189526
3.390000	24.189526
3.400000	24.189526
3.410000	24.189526
3.420000	24.189526
3.430000	24.189526
3.440000	24.189526
3.450000	24.189526
3.460000	24.189526
3.470000	24.189526
3.480000	24.189526
3.490000	24.189526
3.500000	24.204213
3.510000	24.204213
3.520000	24.204213
3.530000	24.204213
3.540000	24.204213
3.550000	24.204213
3.560000	24.204213
3.570000	24.204213
3.580000	24.204213
3.590000	24.204213
3.600000	24.204213
3.610000	24.204213
3.620000	24.204213
3.630000	24.204213
3.640000	24.204213
3.650000	24.204213
3.660000	24.204213
3.670000	24.204213
3.680000	24.204213
3.690000	24.204213
3.700000	24.204213
3.710000	24.204213
3.720000	24.204213
3.730000	24.204213
3.740000	24.204213
3.750000	24.204213
3.760000	24.204213
3.770000	24.204213
3.780000	24.204213
3.790000	24.204213
3.800000	24.204213
3.810000	24.204213
3.820000	24.204213
3.830000	24.204213
3.840000	24.204213
3.850000	24.204213
3.860000	24.204213
3.870000	24.204213
3.880000	24.204213
3.890000	24.204213
3.900000	24.204213
3.910000	24.204213
3.920000	24.204213
3.930000	24.204213
3.940000	24.204213
3.950000	24.204213
3.960000	24.204213
3.970000	24.204213
3.980000	24.204213
3.990000	24.204213
4.000000	24.217580
4.010000	24.217580
4.020000	24.217580
4.030000	24.217580
4.040000	24.217580
4.050000	24.217580
4.060000	24.217580
4.070000	24.217580
4.080000	24.217580
4.090000	24.217580
4.100000	24.217580
4.110000	24.217580
4.120000	24.217580
4.130000	24.217580
4.140000	24.217580
4.150000	24.217580
4.160000	24.217580
4.170000	24.217580
4.180000	24.217580
4.190000	24.217580
4.200000	24.217580
4.210000	24.217580
4.220000	24.217580
4.230000	24.217580
4.240000	24.217580
4.250000	24.217580
4.260000	24.217580
4.270000	24.217580
4.280000	24.217580
4.290000	24.217580
4.300000	24.217580
4.310000	24.217580
4.320000	24.217580
4.330000	24.217580
4.340000	24.217580
4.350000	24.217580
4.360000	24.217580
4.370000	24.217580
4.380000	24.217580
4.390000	24.217580
4.400000	24.217580
4.410000	24.217580
4.420000	24.217580
4.430000	24.217580
4.440000	24.217580
4.450000	24.217580
4.460000	24.217580
4.470000	24.217580
4.480000	24.217580
4.490000	24.217580
4.500000	24.229926
4.510000	24.229926
4.520000	24.229926
4.530000	24.229926
4.540000	24.229926
4.550000	24.229926
4.560000	24.229926
4.570000	24.229926
4.580000	24.229926
4.590000	24.229926
4.600000	24.229926
4.610000	24.229926
4.620000	24.229926
4.630000	24.229926
4.640000	24.229926
4.650000	24.229926
4.660000	24.229926
4.670000	24.229926
4.680000	24.229926
4.690000	24.229926
4.700000	24.229926
4.710000	24.229926
4.720000	24.229926
4.730000	24.229926
4.740000	24.229926
4.750000	24.229926
4.760000	24.229926
4.770000	24.229926
4.780000	24.229926
4.790000	24.229926
4.800000	24.229926
4.810000	24.229926
4.820000	24.229926
4.830000	24.229926
4.840000	24.229926
4.850000	24.229926
4.860000	24.229926
4.870000	24.229926
4.880000	24.229926
4.890000	24.229926
4.900000	24.229926
4.910000	24.229926
4.920000	24.229926
4.930000	24.229926
4.940000	24.229926
4.950000	24.229926
4.960000	24.229926
4.970000	24.229926
4.980000	24.229926
4.990000	24.229926
5.000000	24.241296
5.010000	24.241296
5.020000	24.241296
5.030000	24.241296
5.040000	24.241296
5.050000	24.241296
5.060000	24.241296
5.070000	24.241296
5.080000	24.241296
5.090000	24.241296
5.100000	24.241296
5.110000	24.241296
5.120000	24.241296
5.130000	24.241296
5.140000	24.241296
5.150000	24.241296
5.160000	24.241296
5.170000	24.241296
5.180000	24.241296
5.190000	24.241296
5.200000	24.241296
5.210000	24.241296
5.220000	24.241296
5.230000	24.241296
5.240000	24.241296
5.250000	24.241296
5.260000	24.241296
5.270000	24.241296
5.280000	24.241296
5.290000	24.241296
5.300000	24.241296
5.310000	24.241296
5.320000	24.241296
5.330000	24.241296
5.340000	24.241296
5.350000	24.241296
5.360000	24.241296
5.370000	24.241296
5.380000	24.241296
5.390000	24.241296
5.400000	24.241296
5.410000	24.241296
5.420000	24.241296
5.430000	24.241296
5.440000	24.241296
5.450000	24.241296
5.460000	24.241296
5.470000	24.241296
5.480000	24.241296
5.490000	24.241296
5.500000	24.251103
5.510000	24.251103
5.520000	24.251103
5.530000	24.251103
5.540000	24.251103
5.550000	24.251103
5.560000	24.251103
5.570000	24.251103
5.580000	24.251103
5.590000	24.251103
5.600000	24.251103
5.610000	24.251103
5.620000	24.251103
5.630000	24.251103
5.640000	24.251103
5.650000	24.251103
5.660000	24.251103
5.670000	24.251103
5.680000	24.251103
5.690000	24.251103
5.700000	24.251103
5.710000	24.251103
5.720000	24.251103
5.730000	24.251103
5.740000	24.251103
5.750000	24.251103
5.760000	24.251103
5.770000	24.251103
5.780000	24.251103
5.790000	24.251103
5.800000	24.251103
5.810000	24.251103
5.820000	24.251103
5.830000	24.251103
5.840000	24.251103
5.850000	24.251103
5.860000	24.251103
5.870000	24.251103
5.880000	24.251103
5.890000	24.251103
5.900000	24.251103
5.910000	24.251103
5.920000	24.251103
5.930000	24.251103
5.940000	24.251103
5.950000	24.251103
5.960000	24.251103
5.970000	24.251103
5.980000	24.251103
5.990000	24.251103
6.000000	24.259665
6.010000	24.259665
6.020000	24.259665
6.030000	24.259665
6.040000	24.259665
6.050000	24.259665
6.060000	24.259665
6.070000	24.259665
6.080000	24.259665
6.090000	24.259665
6.100000	24.259665
6.110000	24.259665
6.120000	24.259665
6.130000	24.259665
6.140000	24.259665
6.150000	24.259665
6.160000	24.259665
6.170000	24.259665
6.180000	24.259665
6.190000	24.259665
6.200000	24.259665
6.210000	24.259665
6.220000	24.259665
6.230000	24.259665
6.240000	24.259665
6.250000	24.259665
6.260000	24.259665
6.270000	24.259665
6.280000	24.259665
6.290000	24.259665
6.300000	24.259665
6.310000	24.259665
6.320000	24.259665
6.330000	24.259665
6.340000	24.259665
6.350000	24.259665
6.360000	24.259665
6.370000	24.259665
6.380000	24.259665
6.390000	24.259665
6.400000	24.259665
6.410000	24.259665
6.420000	24.259665
6.430000	24.259665
6.440000	24.259665
6.450000	24.259665
6.460000	24.259665
6.470000	24.259665
6.480000	24.259665
6.490000	24.259665
6.500000	24.267068
6.510000	24.267068
6.520000	24.267068
6.530000	24.267068
6.540000	24.267068
6.550000	24.267068
6.560000	24.267068
6.570000	24.267068
6.580000	24.267068
6.590000	24.267068
6.600000	24.267068
6.610000	24.267068
6.620000	24.267068
6.630000	24.267068
6.640000	24.267068
6.650000	24.267068
6.660000	24.267068
6.670000	24.267068
6.680000	24.267068
6.690000	24.267068
6.700000	24.267068
6.710000	24.267068
6.720000	24.267068
6.730000	24.267068
6.740000	24.267068
6.750000	24.267068
6.760000	24.267068
6.770000	24.267068
6.780000	24.267068
6.790000	24.267068
6.800000	24.267068
6.810000	24.267068
6.820000	24.267068
6.830000	24.267068
6.840000	24.267068
6.850000	24.267068
6.860000	24.267068
6.870000	24.267068
6.880000	24.267068
6.890000	24.267068
6.900000	24.267068
6.910000	24.267068
6.920000	24.267068
6.930000	24.267068
6.940000	24.267068
6.950000	24.267068
6.960000	24.267068
6.970000	24.267068
6.980000	24.267068
6.990000	24.267068
7.000000	24.273532
7.010000	24.273532
7.020000	24.273532
7.030000	24.273532
7.040000	24.273532
7.050000	24.273532
7.060000	24.273532
7.070000	24.273532
7.080000	24.273532
7.090000	24.273532
7.100000	24.273532
7.110000	24.273532
7.120000	24.273532
7.130000	24.273532
7.140000	24.273532
7.150000	24.273532
7.160000	24.273532
7.170000	24.273532
7.180000	24.273532
7.190000	24.273532
7.200000	24.273532
7.210000	24.273532
7.220000	24.273532
7.230000	24.273532
7.240000	24.273532
7.250000	24.273532
7.260000	24.273532
7.270000	24.273532
7.280000	24.273532
7.290000	24.273532
7.300000	24.273532
7.310000	24.273532
7.320000	24.273532
7.330000	24.273532
7.340000	24.273532
7.350000	24.273532
7.360000	24.273532
7.370000	24.273532
7.380000	24.273532
7.390000	24.273532
7.400000	24.273532
7.410000	24.273532
7.420000	24.273532
7.430000	24.273532
7.440000	24.273532
7.450000	24.273532
7.460000	24.273532
7.470000	24.273532
7.480000	24.273532
7.490000	24.273532
7.500000	24.279304
7.510000	24.279304
7.520000	24.279304
7.530000	24.279304
7.540000	24.279304
7.550000	24.279304
7.560000	24.279304
7.570000	24.279304
7.580000	24.279304
7.590000	24.279304
7.600000	24.279304
7.610000	24.279304
7.620000	24.279304
7.630000	24.279304
7.640000	24.279304
7.650000	24.279304
7.660000	24.279304
7.670000	24.279304
7.680000	24.279304
7.690000	24.279304
7.700000	24.279304
7.710000	24.279304
7.720000	24.279304
7.730000	24.279304
7.740000	24.279304
7.750000	24.279304
7.760000	24.279304
7.770000	24.279304
7.780000	24.279304
7.790000	24.279304
7.800000	24.279304
7.810000	24.279304
7.820000	24.279304
7.830000	24.279304
7.840000	24.279304
7.850000	24.279304
7.860000	24.279304
7.870000	24.279304
7.880000	24.279304
7.890000	24.279304
7.900000	24.279304
7.910000	24.279304
7.920000	24.279304
7.930000	24.279304
7.940000	24.279304
7.950000	24.279304
7.960000	24.279304
7.970000	24.279304
7.980000	24.279304
7.990000	24.279304
8.000000	24.284165
8.010000	24.284165
8.020000	24.284165
8.030000	24.284165
8.040000	24.284165
8.050000	24.284165
8.060000	24.284165
8.070000	24.284165
8.080000	24.284165
8.090000	24.284165
8.100000	24.284165
8.110000	24.284165
8.120000	24.284165
8.130000	24.284165
8.140000	24.284165
8.150000	24.284165
8.160000	24.284165
8.170000	24.284165
8.180000	24.284165
8.190000	24.284165
8.200000	24.284165
8.210000	24.284165
8.220000	24.284165
8.230000	24.284165
8.240000	24.284165
8.250000	24.284165
8.260000	24.284165
8.270000	24.284165
8.280000	24.284165
8.290000	24.284165
8.300000	24.284165
8.310000	24.284165
8.320000	24.284165
8.330000	24.284165
8.340000	24.284165
8.350000	24.284165
8.360000	24.284165
8.370000	24.284165
8.380000	24.284165
8.390000	24.284165
8.400000	24.284165
8.410000	24.284165
8.420000	24.284165
8.430000	24.284165
8.440000	24.284165
8.450000	24.284165
8.460000	24.284165
8.470000	24.284165
8.480000	24.284165
8.490000	24.284165
8.500000	24.288447
8.510000	24.288447
8.520000	24.288447
8.530000	24.288447
8.540000	24.288447
8.550000	24.288447
8.560000	24.288447
8.570000	24.288447
8.580000	24.288447
8.590000	24.288447
8.600000	24.288447
8.610000	24.288447
8.620000	24.288447
8.630000	24.288447
8.640000	24.288447
8.650000	24.288447
8.660000	24.288447
8.670000	24.288447
8.680000	24.288447
8.690000	24.288447
8.700000	24.288447
8.710000	24.288447
8.720000	24.288447
8.730000	24.288447
8.740000	24.288447
8.750000	24.288447
8.760000	24.288447
8.770000	24.288447
8.780000	24.288447
8.790000	24.288447
8.800000	24.288447
8.810000	24.288447
8.820000	24.288447
8.830000	24.288447
8.840000	24.288447
8.850000	24.288447
8.860000	24.288447
8.870000	24.288447
8.880000	24.288447
8.890000	24.288447
8.900000	24.288447
8.910000	24.288447
8.920000	24.288447
8.930000	24.288447
8.940000	24.288447
8.950000	24.288447
8.960000	24.288447
8.970000	24.288447
8.980000	24.288447
8.990000	24.288447
9.000000	24.292028
9.010000	24.292028
9.020000	24.292028
9.030000	24.292028
9.040000	24.292028
9.050000	24.292028
9.060000	24.292028
9.070000	24.292028
9.080000	24.292028
9.090000	24.292028
9.100000	24.292028
9.110000	24.292028
9.120000	24.292028
9.130000	24.292028
9.140000	24.292028
9.150000	24.292028
9.160000	24.292028
9.170000	24.292028
9.180000	24.292028
9.190000	24.292028
9.200000	24.292028
9.210000	24.292028
9.220000	24.292028
9.230000	24.292028
9.240000	24.292028
9.250000	24.292028
9.260000	24.292028
9.270000	24.292028
9.280000	24.292028
9.290000	24.292028
9.300000	24.292028
9.310000	24.292028
9.320000	24.292028
9.330000	24.292028
9.340000	24.292028
9.350000	24.292028
9.360000	24.292028
9.370000	24.292028
9.380000	24.292028
9.390000	24.292028
9.400000	24.292028
9.410000	24.292028
9.420000	24.292028
9.430000	24.292028
9.440000	24.292028
9.450000	24.292028
9.460000	24.292028
9.470000	24.292028
9.480000	24.292028
9.490000	24.292028
9.500000	24.295040
9.510000	24.295040
9.520000	24.295040
9.530000	24.295040
9.540000	24.295040
9.550000	24.295040
9.560000	24.295040
9.570000	24.295040
9.580000	24.295040
9.590000	24.295040
9.600000	24.295040
9.610000	24.295040
9.620000	24.295040
9.630000	24.295040
9.640000	24.295040
9.650000	24.295040
9.660000	24.295040
9.670000	24.295040
9.680000	24.295040
9.690000	24.295040
9.700000	24.295040
9.710000	24.295040
9.720000	24.295040
9.730000	24.295040
9.740000	24.295040
9.750000	24.295040
9.760000	24.295040
9.770000	24.295040
9.780000	24.295040
9.790000	24.295040
9.800000	24.295040
9.810000	24.295040
9.820000	24.295040
9.830000	24.295040
9.840000	24.295040
9.850000	24.295040
9.860000	24.295040
9.870000	24.295040
9.880000	24.295040
9.890000	24.295040
9.900000	24.295040
9.910000	24.295040
9.920000	24.295040
9.930000	24.295040
9.940000	24.295040
9.950000	24.295040
9.960000	24.295040
9.970000	24.295040
9.980000	24.295040
9.990000	24.295040
10.000000	24.297859
10.010000	24.297859
10.020000	24.297859
10.030000	24.297859
10.040000	24.297859
10.050000	24.297859
10.060000	24.297859
10.070000	24.297859
10.080000	24.297859
10.090000	24.297859
10.100000	24.297859
10.110000	24.297859
10.120000	24.297859
10.130000	24.297859
10.140000	24.297859
10.150000	24.297859
10.160000	24.297859
10.170000	24.297859
10.180000	24.297859
10.190000	24.297859
10.200000	24.297859
10.210000	24.297859
10.220000	24.297859
10.230000	24.297859
10.240000	24.297859
10.250000	24.297859
10.260000	24.297859
10.270000	24.297859
10.280000	24.297859
10.290000	24.297859
10.300000	24.297859
10.310000	24.297859
10.320000	24.297859
10.330000	24.297859
10.340000	24.297859
10.350000	24.297859
10.360000	24.297859
10.370000	24.297859
10.380000	24.297859
10.390000	24.297859
10.400000	24.297859
10.410000	24.297859
10.420000	24.297859
10.430000	24.297859
10.440000	24.297859
10.450000	24.297859
10.460000	24.297859
10.470000	24.297859
10.480000	24.297859
10.490000	24.297859
10.500000	24.299978
10.510000	24.299978
10.520000	24.299978
10.530000	24.299978
10.540000	24.299978
10.550000	24.299978
10.560000	24.299978
10.570000	24.299978
10.580000	24.299978
10.590000	24.299978
10.600000	24.299978
10.610000	24.299978
10.620000	24.299978
10.630000	24.299978
10.640000	24.299978
10.650000	24.299978
10.660000	24.299978
10.670000	24.299978
10.680000	24.299978
10.690000	24.299978
10.700000	24.299978
10.710000	24.299978
10.720000	24.299978
10.730000	24.299978
10.740000	24.299978
10.750000	24.299978
10.760000	24.299978
10.770000	24.299978
10.780000	24.299978
10.790000	24.299978
10.800000	24.299978
10.810000	24.299978
10.820000	24.299978
10.830000	24.299978
10.840000	24.299978
10.850000	24.299978
10.860000	24.299978
10.870000	24.299978
10.880000	24.299978
10.890000	24.299978
10.900000	24.299978
10.910000	24.299978
10.920000	24.299978
10.930000	24.299978
10.940000	24.299978
10.950000	24.299978
10.960000	24.299978
10.970000	24.299978
10.980000	24.299978
10.990000	24.299978
11.000000	24.301921
11.010000	24.301921
11.020000	24.301921
11.030000	24.301921
11.040000	24.301921
11.050000	24.301921
11.060000	24.301921
11.070000	24.301921
11.080000	24.301921
11.090000	24.301921
11.100000	24.301921
11.110000	24.301921
11.120000	24.301921
11.130000	24.301921
11.140000	24.301921
11.150000	24.301921
11.160000	24.301921
11.170000	24.301921
11.180000	24.301921
11.190000	24.301921
11.200000	24.301921
11.210000	24.301921
11.220000	24.301921
11.230000	24.301921
11.240000	24.301921
11.250000	24.301921
11.260000	24.301921
11.270000	24.301921
11.280000	24.301921
11.290000	24.301921
11.300000	24.301921
11.310000	24.301921
11.320000	24.301921
11.330000	24.301921
11.340000	24.301921
11.350000	24.301921
11.360000	24.301921
11.370000	24.301921
11.380000	24.301921
11.390000	24.301921
11.400000	24.301921
11.410000	24.301921
11.420000	24.301921
11.430000	24.301921
11.440000	24.301921
11.450000	24.301921
11.460000	24.301921
11.470000	24.301921
11.480000	24.301921
11.490000	24.301921
11.500000	24.303593
11.510000	24.303593
11.520000	24.303593
11.530000	24.303593
11.540000	24.303593
11.550000	24.303593
11.560000	24.303593
11.570000	24.303593
11.580000	24.303593
11.590000	24.303593
11.600000	24.303593
11.610000	24.303593
11.620000	24.303593
11.630000	24.303593
11.640000	24.303593
11.650000	24.303593
11.660000	24.303593
11.670000	24.303593
11.680000	24.303593
11.690000	24.303593
11.700000	24.303593
11.710000	24.303593
11.720000	24.303593
11.730000	24.303593
11.740000	24.303593
11.750000	24.303593
11.760000	24.303593
11.770000	24.303593
11.780000	24.303593
11.790000	24.303593
11.800000	24.303593
11.810000	24.303593
11.820000	24.303593
11.830000	24.303593
11.840000	24.303593
11.850000	24.303593
11.860000	24.303593
11.870000	24.303593
11.880000	24.303593
11.890000	24.303593
11.900000	24.303593
11.910000	24.303593
11.920000	24.303593
11.930000	24.303593
11.940000	24.303593
11.950000	24.303593
11.960000	24.303593
11.970000	24.303593
11.980000	24.303593
11.990000	24.303593
12.000000	24.305204
12.010000	24.305204
12.020000	24.305204
12.030000	24.305204
12.040000	24.305204
12.050000	24.305204
12.060000	24.305204
12.070000	24.305204
12.080000	24.305204
12.090000	24.305204
12.100000	24.305204
12.110000	24.305204
12.120000	24.305204
12.130000	24.305204
12.140000	24.305204
12.150000	24.305204
12.160000	24.305204
12.170000	24.305204
12.180000	24.305204
12.190000	24.305204
12.200000	24.305204
12.210000	24.305204
12.220000	24.305204
12.230000	24.305204
12.240000	24.305204
12.250000	24.305204
12.260000	24.305204
12.270000	24.305204
12.280000	24.305204
12.290000	24.305204
12.300000	24.305204
12.310000	24.305204
12.320000	24.305204
12.330000	24.305204
12.340000	24.305204
12.350000	24.305204
12.360000	24.305204
12.370000	24.305204
12.380000	24.305204
12.390000	24.305204
12.400000	24.305204
12.410000	24.305204
12.420000	24.305204
12.430000	24.305204
12.440000	24.305204
12.450000	24.305204
12.460000	24.305204
12.470000	24.305204
12.480000	24.305204
12.490000	24.305204
12.500000	24.306132
12.510000	24.306132
12.520000	24.306132
12.530000	24.306132
12.540000	24.306132
12.550000	24.306132
12.560000	24.306132
12.570000	24.306132
12.580000	24.306132
12.590000	24.306132
12.600000	24.306132
12.610000	24.306132
12.620000	24.306132
12.630000	24.306132
12.640000	24.306132
12.650000	24.306132
12.660000	24.306132
12.670000	24.306132
12.680000	24.306132
12.690000	24.306132
12.700000	24.306132
12.710000	24.306132
12.720000	24.306132
12.730000	24.306132
12.740000	24.306132
12.750000	24.306132
12.760000	24.306132
12.770000	24.306132
12.780000	24.306132
12.790000	24.306132
12.800000	24.306132
12.810000	24.306132
12.820000	24.306132
12.830000	24.306132
12.840000	24.306132
12.850000	24.306132
12.860000	24.306132
12.870000	24.306132
12.880000	24.306132
12.890000	24.306132
12.900000	24.306132
12.910000	24.306132
12.920000	24.306132
12.930000	24.306132
12.940000	24.306132
12.950000	24.306132
12.960000	24.306132
12.970000	24.306132
12.980000	24.306132
12.990000	24.306132
13.000000	24.306596
13.010000	24.306596
13.020000	24.306596
13.030000	24.306596
13.040000	24.306596
13.050000	24.306596
13.060000	24.306596
13.070000	24.306596
13.080000	24.306596
13.090000	24.306596
13.100000	24.306596
13.110000	24.306596
13.120000	24.306596
13.130000	24.306596
13.140000	24.306596
13.150000	24.306596
13.160000	24.306596
13.170000	24.306596
13.180000	24.306596
13.190000	24.306596
13.200000	24.306596
13.210000	24.306596
13.220000	24.306596
13.230000	24.306596
13.240000	24.306596
13.250000	24.306596
13.260000	24.306596
13.270000	24.306596
13.280000	24.306596
13.290000	24.306596
13.300000	24.306596
13.310000	24.306596
13.320000	24.306596
13.330000	24.306596
13.340000	24.306596
13.350000	24.306596
13.360000	24.306596
13.370000	24.306596
13.380000	24.306596
13.390000	24.306596
13.400000	24.306596
13.410000	24.306596
13.420000	24.306596
13.430000	24.306596
13.440000	24.306596
13.450000	24.306596
13.460000	24.306596
13.470000	24.306596
13.480000	24.306596
13.490000	24.306596
13.500000	24.307401
13.510000	24.307401
13.520000	24.307401
13.530000	24.307401
13.540000	24.307401
13.550000	24.307401
13.560000	24.307401
13.570000	24.307401
13.580000	24.307401
13.590000	24.307401
13.600000	24.307401
13.610000	24.307401
13.620000	24.307401
13.630000	24.307401
13.640000	24.307401
13.650000	24.307401
13.660000	24.307401
13.670000	24.307401
13.680000	24.307401
13.690000	24.307401
13.700000	24.307401
13.710000	24.307401
13.720000	24.307401
13.730000	24.307401
13.740000	24.307401
13.750000	24.307401
13.760000	24.307401
13.770000	24.307401
13.780000	24.307401
13.790000	24.307401
13.800000	24.307401
13.810000	24.307401
13.820000	24.307401
13.830000	24.307401
13.840000	24.307401
13.850000	24.307401
13.860000	24.307401
13.870000	24.307401
13.880000	24.307401
13.890000	24.307401
13.900000	24.307401
13.910000	24.307401
13.920000	24.307401
13.930000	24.307401
13.940000	24.307401
13.950000	24.307401
13.960000	24.307401
13.970000	24.307401
13.980000	24.307401
13.990000	24.307401
14.000000	24.307751
14.010000	24.307751
14.020000	24.307751
14.030000	24.307751
14.040000	24.307751
14.050000	24.307751
14.060000	24.307751
14.070000	24.307751
14.080000	24.307751
14.090000	24.307751
14.100000	24.307751
14.110000	24.307751
14.120000	24.307751
14.130000	24.307751
14.140000	24.307751
14.150000	24.307751
14.160000	24.307751
14.170000	24.307751
14.180000	24.307751
14.190000	24.307751
14.200000	24.307751
14.210000	24.307751
14.220000	24.307751
14.230000	24.307751
14.240000	24.307751
14.250000	24.307751
14.260000	24.307751
14.270000	24.307751
14.280000	24.307751
14.290000	24.307751
14.300000	24.307751
14.310000	24.307751
14.320000	24.307751
14.330000	24.307751
14.340000	24.307751
14.350000	24.307751
14.360000	24.307751
14.370000	24.307751
14.380000	24.307751
14.390000	24.307751
14.400000	24.307751
14.410000	24.307751
14.420000	24.307751
14.430000	24.307751
14.440000	24.307751
14.450000	24.307751
14.460000	24.307751
14.470000	24.307751
14.480000	24.307751
14.490000	24.307751
14.500000	24.308302
14.510000	24.308302
14.520000	24.308302
14.530000	24.308302
14.540000	24.308302
14.550000	24.308302
14.560000	24.308302
14.570000	24.308302
14.580000	24.308302
14.590000	24.308302
14.600000	24.308302
14.610000	24.308302
14.620000	24.308302
14.630000	24.308302
14.640000	24.308302
14.650000	24.308302
14.660000	24.308302
14.670000	24.308302
14.680000	24.308302
14.690000	24.308302
14.700000	24.308302
14.710000	24.308302
14.720000	24.308302
14.730000	24.308302
14.740000	24.308302
14.750000	24.308302
14.760000	24.308302
14.770000	24.308302
14.780000	24.308302
14.790000	24.308302
14.800000	24.308302
14.810000	24.308302
14.820000	24.308302
14.830000	24.308302
14.840000	24.308302
14.850000	24.308302
14.860000	24.308302
14.870000	24.308302
14.880000	24.308302
14.890000	24.308302
14.900000	24.308302
14.910000	24.308302
14.920000	24.308302
14.930000	24.308302
14.940000	24.308302
14.950000	24.308302
14.960000	24.308302
14.970000	24.308302
14.980000	24.308302
14.990000	24.308302
15.000000	24.308285
15.010000	24.308285
15.020000	24.308285
15.030000	24.308285
15.040000	24.308285
15.050000	24.308285
15.060000	24.308285
15.070000	24.308285
15.080000	24.308285
15.090000	24.308285
15.100000	24.308285
15.110000	24.308285
15.120000	24.308285
15.130000	24.308285
15.140000	24.308285
15.150000	24.308285
15.160000	24.308285
15.170000	24.308285
15.180000	24.308285
15.190000	24.308285
15.200000	24.308285
15.210000	24.308285
15.220000	24.308285
15.230000	24.308285
15.240000	24.308285
15.250000	24.308285
15.260000	24.308285
15.270000	24.308285
15.280000	24.308285
15.290000	24.308285
15.300000	24.308285
15.310000	24.308285
15.320000	24.308285
15.330000	24.308285
15.340000	24.308285
15.350000	24.308285
15.360000	24.308285
15.370000	24.308285
15.380000	24.308285
15.390000	24.308285
15.400000	24.308285
15.410000	24.308285
15.420000	24.308285
15.430000	24.308285
15.440000	24.308285
15.450000	24.308285
15.460000	24.308285
15.470000	24.308285
15.480000	24.308285
15.490000	24.308285
15.500000	24.308757
15.510000	24.308757
15.520000	24.308757
15.530000	24.308757
15.540000	24.308757
15.550000	24.308757
15.560000	24.308757
15.570000	24.308757
15.580000	24.308757
15.590000	24.308757
15.600000	24.308757
15.610000	24.308757
15.620000	24.308757
15.630000	24.308757
15.640000	24.308757
15.650000	24.308757
15.660000	24.308757
15.670000	24.308757
15.680000	24.308757
15.690000	24.308757
15.700000	24.308757
15.710000	24.308757
15.720000	24.308757
15.730000	24.308757
15.740000	24.308757
15.750000	24.308757
15.760000	24.308757
15.770000	24.308757
15.780000	24.308757
15.790000	24.308757
15.800000	24.308757
15.810000	24.308757
15.820000	24.308757
15.830000	24.308757
15.840000	24.308757
15.850000	24.308757
15.860000	24.308757
15.870000	24.308757
15.880000	24.308757
15.890000	24.308757
15.900000	24.308757
15.910000	24.308757
15.920000	24.308757
15.930000	24.308757
15.940000	24.308757
15.950000	24.308757
15.960000	24.308757
15.970000	24.308757
15.980000	24.308757
15.990000	24.308757
16.000000	24.308539
16.010000	24.308539
16.020000	24.308539
16.030000	24.308539
16.040000	24.308539
16.050000	24.308539
16.060000	24.308539
16.070000	24.308539
16.080000	24.308539
16.090000	24.308539
16.100000	24.308539
16.110000	24.308539
16.120000	24.308539
16.130000	24.308539
16.140000	24.308539
16.150000	24.308539
16.160000	24.308539
16.170000	24.308539
16.180000	24.308539
16.190000	24.308539
16.200000	24.308539
16.210000	24.308539
16.220000	24.308539
16.230000	24.308539
16.240000	24.308539
16.250000	24.308539
16.260000	24.308539
16.270000	24.308539
16.280000	24.308539
16.290000	24.308539
16.300000	24.308539
16.310000	24.308539
16.320000	24.308539
16.330000	24.308539
16.340000	24.308539
16.350000	24.308539
16.360000	24.308539
16.370000	24.308539
16.380000	24.308539
16.390000	24.308539
16.400000	24.308539
16.410000	24.308539
16.420000	24.308539
16.430000	24.308539
16.440000	24.308539
16.450000	24.308539
16.460000	24.308539
16.470000	24.308539
16.480000	24.308539
16.490000	24.308539
16.500000	24.308355
16.510000	24.308355
16.520000	24.308355
16.530000	24.308355
16.540000	24.308355
16.550000	24.308355
16.560000	24.308355
16.570000	24.308355
16.580000	24.308355
16.590000	24.308355
16.600000	24.308355
16.610000	24.308355
16.620000	24.308355
16.630000	24.308355
16.640000	24.308355
16.650000	24.308355
16.660000	24.308355
16.670000	24.308355
16.680000	24.308355
16.690000	24.308355
16.700000	24.308355
16.710000	24.308355
16.720000	24.308355
16.730000	24.308355
16.740000	24.308355
16.750000	24.308355
16.760000	24.308355
16.770000	24.308355
16.780000	24.308355
16.790000	24.308355
16.800000	24.308355
16.810000	24.308355
16.820000	24.308355
16.830000	24.308355
16.840000	24.308355
16.850000	24.308355
16.860000	24.308355
16.870000	24.308355
16.880000	24.308355
16.890000	24.308355
16.900000	24.308355
16.910000	24.308355
16.920000	24.308355
16.930000	24.308355
16.940000	24.308355
16.950000	24.308355
16.960000	24.308355
16.970000	24.308355
16.980000	24.308355
16.990000	24.308355
17.000000	24.307663
17.010000	24.307663
17.020000	24.307663
17.030000	24.307663
17.040000	24.307663
17.050000	24.307663
17.060000	24.307663
17.070000	24.307663
17.080000	24.307663
17.090000	24.307663
17.100000	24.307663
17.110000	24.307663
17.120000	24.307663
17.130000	24.307663
17.140000	24.307663
17.150000	24.307663
17.160000	24.307663
17.170000	24.307663
17.180000	24.307663
17.190000	24.307663
17.200000	24.307663
17.210000	24.307663
17.220000	24.307663
17.230000	24.307663
17.240000	24.307663
17.250000	24.307663
17.260000	24.307663
17.270000	24.307663
17.280000	24.307663
17.290000	24.307663
17.300000	24.307663
17.310000	24.307663
17.320000	24.307663
17.330000	24.307663
17.340000	24.307663
17.350000	24.307663
17.360000	24.307663
17.370000	24.307663
17.380000	24.307663
17.390000	24.307663
17.400000	24.307663
17.410000	24.307663
17.420000	24.307663
17.430000	24.307663
17.440000	24.307663
17.450000	24.307663
17.460000	24.307663
17.470000	24.307663
17.480000	24.307663
17.490000	24.307663
17.500000	24.306858
17.510000	24.306858
17.520000	24.306858
17.530000	24.306858
17.540000	24.306858
17.550000	24.306858
17.560000	24.306858
17.570000	24.306858
17.580000	24.306858
17.590000	24.306858
17.600000	24.306858
17.610000	24.306858
17.620000	24.306858
17.630000	24.306858
17.640000	24.306858
17.650000	24.306858
17.660000	24.306858
17.670000	24.306858
17.680000	24.306858
17.690000	24.306858
