LabVIEW Measurement	
Writer_Version	2
Reader_Version	2
Separator	Tab
Decimal_Separator	.
Multi_Headings	No
X_Columns	One
Time_Pref	Absolute
Operator	biomech-dyno
Date	2023/04/27
Time	17:41:55.9338632999999876419
***End_of_Header***	
	
Channels	1	
Samples	10	
Date	2023/04/27	
Time	19:56:14.2441269999998269891	
X_Dimension	Time	
X0	0.0000000000000000E+0	
Delta_X	0.010000	
***End_of_Header***		
X_Value	Untitled	Comment
0.000000	24.833775
0.010000	24.833775
0.020000	24.833775
0.030000	24.833775
0.040000	24.833775
0.050000	24.833775
0.060000	24.833775
0.070000	24.833775
0.080000	24.833775
0.090000	24.833775
0.100000	24.833775
0.110000	24.833775
0.120000	24.833775
0.130000	24.833775
0.140000	24.833775
0.150000	24.833775
0.160000	24.833775
0.170000	24.833775
0.180000	24.833775
0.190000	24.833775
0.200000	24.833775
0.210000	24.833775
0.220000	24.833775
0.230000	24.833775
0.240000	24.833775
0.250000	24.833775
0.260000	24.833775
0.270000	24.833775
0.280000	24.833775
0.290000	24.833775
0.300000	24.833775
0.310000	24.833775
0.320000	24.833775
0.330000	24.833775
0.340000	24.833775
0.350000	24.833775
0.360000	24.833775
0.370000	24.833775
0.380000	24.833775
0.390000	24.833775
0.400000	24.833775
0.410000	24.833775
0.420000	24.833775
0.430000	24.833775
0.440000	24.833775
0.450000	24.833775
0.460000	24.833775
0.470000	24.833775
0.480000	24.833775
0.490000	24.833775
0.500000	24.851006
0.510000	24.851006
0.520000	24.851006
0.530000	24.851006
0.540000	24.851006
0.550000	24.851006
0.560000	24.851006
0.570000	24.851006
0.580000	24.851006
0.590000	24.851006
0.600000	24.851006
0.610000	24.851006
0.620000	24.851006
0.630000	24.851006
0.640000	24.851006
0.650000	24.851006
0.660000	24.851006
0.670000	24.851006
0.680000	24.851006
0.690000	24.851006
0.700000	24.851006
0.710000	24.851006
0.720000	24.851006
0.730000	24.851006
0.740000	24.851006
0.750000	24.851006
0.760000	24.851006
0.770000	24.851006
0.780000	24.851006
0.790000	24.851006
0.800000	24.851006
0.810000	24.851006
0.820000	24.851006
0.830000	24.851006
0.840000	24.851006
0.850000	24.851006
0.860000	24.851006
0.870000	24.851006
0.880000	24.851006
0.890000	24.851006
0.900000	24.851006
0.910000	24.851006
0.920000	24.851006
0.930000	24.851006
0.940000	24.851006
0.950000	24.851006
0.960000	24.851006
0.970000	24.851006
0.980000	24.851006
0.990000	24.851006
1.000000	24.872531
1.010000	24.872531
1.020000	24.872531
1.030000	24.872531
1.040000	24.872531
1.050000	24.872531
1.060000	24.872531
1.070000	24.872531
1.080000	24.872531
1.090000	24.872531
1.100000	24.872531
1.110000	24.872531
1.120000	24.872531
1.130000	24.872531
1.140000	24.872531
1.150000	24.872531
1.160000	24.872531
1.170000	24.872531
1.180000	24.872531
1.190000	24.872531
1.200000	24.872531
1.210000	24.872531
1.220000	24.872531
1.230000	24.872531
1.240000	24.872531
1.250000	24.872531
1.260000	24.872531
1.270000	24.872531
1.280000	24.872531
1.290000	24.872531
1.300000	24.872531
1.310000	24.872531
1.320000	24.872531
1.330000	24.872531
1.340000	24.872531
1.350000	24.872531
1.360000	24.872531
1.370000	24.872531
1.380000	24.872531
1.390000	24.872531
1.400000	24.872531
1.410000	24.872531
1.420000	24.872531
1.430000	24.872531
1.440000	24.872531
1.450000	24.872531
1.460000	24.872531
1.470000	24.872531
1.480000	24.872531
1.490000	24.872531
1.500000	24.903546
1.510000	24.903546
1.520000	24.903546
1.530000	24.903546
1.540000	24.903546
1.550000	24.903546
1.560000	24.903546
1.570000	24.903546
1.580000	24.903546
1.590000	24.903546
1.600000	24.903546
1.610000	24.903546
1.620000	24.903546
1.630000	24.903546
1.640000	24.903546
1.650000	24.903546
1.660000	24.903546
1.670000	24.903546
1.680000	24.903546
1.690000	24.903546
1.700000	24.903546
1.710000	24.903546
1.720000	24.903546
1.730000	24.903546
1.740000	24.903546
1.750000	24.903546
1.760000	24.903546
1.770000	24.903546
1.780000	24.903546
1.790000	24.903546
1.800000	24.903546
1.810000	24.903546
1.820000	24.903546
1.830000	24.903546
1.840000	24.903546
1.850000	24.903546
1.860000	24.903546
1.870000	24.903546
1.880000	24.903546
1.890000	24.903546
1.900000	24.903546
1.910000	24.903546
1.920000	24.903546
1.930000	24.903546
1.940000	24.903546
1.950000	24.903546
1.960000	24.903546
1.970000	24.903546
1.980000	24.903546
1.990000	24.903546
2.000000	24.941779
2.010000	24.941779
2.020000	24.941779
2.030000	24.941779
2.040000	24.941779
2.050000	24.941779
2.060000	24.941779
2.070000	24.941779
2.080000	24.941779
2.090000	24.941779
2.100000	24.941779
2.110000	24.941779
2.120000	24.941779
2.130000	24.941779
2.140000	24.941779
2.150000	24.941779
2.160000	24.941779
2.170000	24.941779
2.180000	24.941779
2.190000	24.941779
2.200000	24.941779
2.210000	24.941779
2.220000	24.941779
2.230000	24.941779
2.240000	24.941779
2.250000	24.941779
2.260000	24.941779
2.270000	24.941779
2.280000	24.941779
2.290000	24.941779
2.300000	24.941779
2.310000	24.941779
2.320000	24.941779
2.330000	24.941779
2.340000	24.941779
2.350000	24.941779
2.360000	24.941779
2.370000	24.941779
2.380000	24.941779
2.390000	24.941779
2.400000	24.941779
2.410000	24.941779
2.420000	24.941779
2.430000	24.941779
2.440000	24.941779
2.450000	24.941779
2.460000	24.941779
2.470000	24.941779
2.480000	24.941779
2.490000	24.941779
2.500000	24.988231
2.510000	24.988231
2.520000	24.988231
2.530000	24.988231
2.540000	24.988231
2.550000	24.988231
2.560000	24.988231
2.570000	24.988231
2.580000	24.988231
2.590000	24.988231
2.600000	24.988231
2.610000	24.988231
2.620000	24.988231
2.630000	24.988231
2.640000	24.988231
2.650000	24.988231
2.660000	24.988231
2.670000	24.988231
2.680000	24.988231
2.690000	24.988231
2.700000	24.988231
2.710000	24.988231
2.720000	24.988231
2.730000	24.988231
2.740000	24.988231
2.750000	24.988231
2.760000	24.988231
2.770000	24.988231
2.780000	24.988231
2.790000	24.988231
2.800000	24.988231
2.810000	24.988231
2.820000	24.988231
2.830000	24.988231
2.840000	24.988231
2.850000	24.988231
2.860000	24.988231
2.870000	24.988231
2.880000	24.988231
2.890000	24.988231
2.900000	24.988231
2.910000	24.988231
2.920000	24.988231
2.930000	24.988231
2.940000	24.988231
2.950000	24.988231
2.960000	24.988231
2.970000	24.988231
2.980000	24.988231
2.990000	24.988231
3.000000	25.035389
3.010000	25.035389
3.020000	25.035389
3.030000	25.035389
3.040000	25.035389
3.050000	25.035389
3.060000	25.035389
3.070000	25.035389
3.080000	25.035389
3.090000	25.035389
3.100000	25.035389
3.110000	25.035389
3.120000	25.035389
3.130000	25.035389
3.140000	25.035389
3.150000	25.035389
3.160000	25.035389
3.170000	25.035389
3.180000	25.035389
3.190000	25.035389
3.200000	25.035389
3.210000	25.035389
3.220000	25.035389
3.230000	25.035389
3.240000	25.035389
3.250000	25.035389
3.260000	25.035389
3.270000	25.035389
3.280000	25.035389
3.290000	25.035389
3.300000	25.035389
3.310000	25.035389
3.320000	25.035389
3.330000	25.035389
3.340000	25.035389
3.350000	25.035389
3.360000	25.035389
3.370000	25.035389
3.380000	25.035389
3.390000	25.035389
3.400000	25.035389
3.410000	25.035389
3.420000	25.035389
3.430000	25.035389
3.440000	25.035389
3.450000	25.035389
3.460000	25.035389
3.470000	25.035389
3.480000	25.035389
3.490000	25.035389
3.500000	25.074017
3.510000	25.074017
3.520000	25.074017
3.530000	25.074017
3.540000	25.074017
3.550000	25.074017
3.560000	25.074017
3.570000	25.074017
3.580000	25.074017
3.590000	25.074017
3.600000	25.074017
3.610000	25.074017
3.620000	25.074017
3.630000	25.074017
3.640000	25.074017
3.650000	25.074017
3.660000	25.074017
3.670000	25.074017
3.680000	25.074017
3.690000	25.074017
3.700000	25.074017
3.710000	25.074017
3.720000	25.074017
3.730000	25.074017
3.740000	25.074017
3.750000	25.074017
3.760000	25.074017
3.770000	25.074017
3.780000	25.074017
3.790000	25.074017
3.800000	25.074017
3.810000	25.074017
3.820000	25.074017
3.830000	25.074017
3.840000	25.074017
3.850000	25.074017
3.860000	25.074017
3.870000	25.074017
3.880000	25.074017
3.890000	25.074017
3.900000	25.074017
3.910000	25.074017
3.920000	25.074017
3.930000	25.074017
3.940000	25.074017
3.950000	25.074017
3.960000	25.074017
3.970000	25.074017
3.980000	25.074017
3.990000	25.074017
4.000000	25.103112
4.010000	25.103112
4.020000	25.103112
4.030000	25.103112
4.040000	25.103112
4.050000	25.103112
4.060000	25.103112
4.070000	25.103112
4.080000	25.103112
4.090000	25.103112
4.100000	25.103112
4.110000	25.103112
4.120000	25.103112
4.130000	25.103112
4.140000	25.103112
4.150000	25.103112
4.160000	25.103112
4.170000	25.103112
4.180000	25.103112
4.190000	25.103112
4.200000	25.103112
4.210000	25.103112
4.220000	25.103112
4.230000	25.103112
4.240000	25.103112
4.250000	25.103112
4.260000	25.103112
4.270000	25.103112
4.280000	25.103112
4.290000	25.103112
4.300000	25.103112
4.310000	25.103112
4.320000	25.103112
4.330000	25.103112
4.340000	25.103112
4.350000	25.103112
4.360000	25.103112
4.370000	25.103112
4.380000	25.103112
4.390000	25.103112
4.400000	25.103112
4.410000	25.103112
4.420000	25.103112
4.430000	25.103112
4.440000	25.103112
4.450000	25.103112
4.460000	25.103112
4.470000	25.103112
4.480000	25.103112
4.490000	25.103112
4.500000	25.118449
4.510000	25.118449
4.520000	25.118449
4.530000	25.118449
4.540000	25.118449
4.550000	25.118449
4.560000	25.118449
4.570000	25.118449
4.580000	25.118449
4.590000	25.118449
4.600000	25.118449
4.610000	25.118449
4.620000	25.118449
4.630000	25.118449
4.640000	25.118449
4.650000	25.118449
4.660000	25.118449
4.670000	25.118449
4.680000	25.118449
4.690000	25.118449
4.700000	25.118449
4.710000	25.118449
4.720000	25.118449
4.730000	25.118449
4.740000	25.118449
4.750000	25.118449
4.760000	25.118449
4.770000	25.118449
4.780000	25.118449
4.790000	25.118449
4.800000	25.118449
4.810000	25.118449
4.820000	25.118449
4.830000	25.118449
4.840000	25.118449
4.850000	25.118449
4.860000	25.118449
4.870000	25.118449
4.880000	25.118449
4.890000	25.118449
4.900000	25.118449
4.910000	25.118449
4.920000	25.118449
4.930000	25.118449
4.940000	25.118449
4.950000	25.118449
4.960000	25.118449
4.970000	25.118449
4.980000	25.118449
4.990000	25.118449
5.000000	25.127811
5.010000	25.127811
5.020000	25.127811
5.030000	25.127811
5.040000	25.127811
5.050000	25.127811
5.060000	25.127811
5.070000	25.127811
5.080000	25.127811
5.090000	25.127811
5.100000	25.127811
5.110000	25.127811
5.120000	25.127811
5.130000	25.127811
5.140000	25.127811
5.150000	25.127811
5.160000	25.127811
5.170000	25.127811
5.180000	25.127811
5.190000	25.127811
5.200000	25.127811
5.210000	25.127811
5.220000	25.127811
5.230000	25.127811
5.240000	25.127811
5.250000	25.127811
5.260000	25.127811
5.270000	25.127811
5.280000	25.127811
5.290000	25.127811
5.300000	25.127811
5.310000	25.127811
5.320000	25.127811
5.330000	25.127811
5.340000	25.127811
5.350000	25.127811
5.360000	25.127811
5.370000	25.127811
5.380000	25.127811
5.390000	25.127811
5.400000	25.127811
5.410000	25.127811
5.420000	25.127811
5.430000	25.127811
5.440000	25.127811
5.450000	25.127811
5.460000	25.127811
5.470000	25.127811
5.480000	25.127811
5.490000	25.127811
5.500000	25.134341
5.510000	25.134341
5.520000	25.134341
5.530000	25.134341
5.540000	25.134341
5.550000	25.134341
5.560000	25.134341
5.570000	25.134341
5.580000	25.134341
5.590000	25.134341
5.600000	25.134341
5.610000	25.134341
5.620000	25.134341
5.630000	25.134341
5.640000	25.134341
5.650000	25.134341
5.660000	25.134341
5.670000	25.134341
5.680000	25.134341
5.690000	25.134341
5.700000	25.134341
5.710000	25.134341
5.720000	25.134341
5.730000	25.134341
5.740000	25.134341
5.750000	25.134341
5.760000	25.134341
5.770000	25.134341
5.780000	25.134341
5.790000	25.134341
5.800000	25.134341
5.810000	25.134341
5.820000	25.134341
5.830000	25.134341
5.840000	25.134341
5.850000	25.134341
5.860000	25.134341
5.870000	25.134341
5.880000	25.134341
5.890000	25.134341
5.900000	25.134341
5.910000	25.134341
5.920000	25.134341
5.930000	25.134341
5.940000	25.134341
5.950000	25.134341
5.960000	25.134341
5.970000	25.134341
5.980000	25.134341
5.990000	25.134341
6.000000	25.136543
6.010000	25.136543
6.020000	25.136543
6.030000	25.136543
6.040000	25.136543
6.050000	25.136543
6.060000	25.136543
6.070000	25.136543
6.080000	25.136543
6.090000	25.136543
6.100000	25.136543
6.110000	25.136543
6.120000	25.136543
6.130000	25.136543
6.140000	25.136543
6.150000	25.136543
6.160000	25.136543
6.170000	25.136543
6.180000	25.136543
6.190000	25.136543
6.200000	25.136543
6.210000	25.136543
6.220000	25.136543
6.230000	25.136543
6.240000	25.136543
6.250000	25.136543
6.260000	25.136543
6.270000	25.136543
6.280000	25.136543
6.290000	25.136543
6.300000	25.136543
6.310000	25.136543
6.320000	25.136543
6.330000	25.136543
6.340000	25.136543
6.350000	25.136543
6.360000	25.136543
6.370000	25.136543
6.380000	25.136543
6.390000	25.136543
6.400000	25.136543
6.410000	25.136543
6.420000	25.136543
6.430000	25.136543
6.440000	25.136543
6.450000	25.136543
6.460000	25.136543
6.470000	25.136543
6.480000	25.136543
6.490000	25.136543
6.500000	25.136509
6.510000	25.136509
6.520000	25.136509
6.530000	25.136509
6.540000	25.136509
6.550000	25.136509
6.560000	25.136509
6.570000	25.136509
6.580000	25.136509
6.590000	25.136509
6.600000	25.136509
6.610000	25.136509
6.620000	25.136509
6.630000	25.136509
6.640000	25.136509
6.650000	25.136509
6.660000	25.136509
6.670000	25.136509
6.680000	25.136509
6.690000	25.136509
6.700000	25.136509
6.710000	25.136509
6.720000	25.136509
6.730000	25.136509
6.740000	25.136509
6.750000	25.136509
6.760000	25.136509
6.770000	25.136509
6.780000	25.136509
6.790000	25.136509
6.800000	25.136509
6.810000	25.136509
6.820000	25.136509
6.830000	25.136509
6.840000	25.136509
6.850000	25.136509
6.860000	25.136509
6.870000	25.136509
6.880000	25.136509
6.890000	25.136509
6.900000	25.136509
6.910000	25.136509
6.920000	25.136509
6.930000	25.136509
6.940000	25.136509
6.950000	25.136509
6.960000	25.136509
6.970000	25.136509
6.980000	25.136509
6.990000	25.136509
7.000000	25.136423
7.010000	25.136423
7.020000	25.136423
7.030000	25.136423
7.040000	25.136423
7.050000	25.136423
7.060000	25.136423
7.070000	25.136423
7.080000	25.136423
7.090000	25.136423
7.100000	25.136423
7.110000	25.136423
7.120000	25.136423
7.130000	25.136423
7.140000	25.136423
7.150000	25.136423
7.160000	25.136423
7.170000	25.136423
7.180000	25.136423
7.190000	25.136423
7.200000	25.136423
7.210000	25.136423
7.220000	25.136423
7.230000	25.136423
7.240000	25.136423
7.250000	25.136423
7.260000	25.136423
7.270000	25.136423
7.280000	25.136423
7.290000	25.136423
7.300000	25.136423
7.310000	25.136423
7.320000	25.136423
7.330000	25.136423
7.340000	25.136423
7.350000	25.136423
7.360000	25.136423
7.370000	25.136423
7.380000	25.136423
7.390000	25.136423
7.400000	25.136423
7.410000	25.136423
7.420000	25.136423
7.430000	25.136423
7.440000	25.136423
7.450000	25.136423
7.460000	25.136423
7.470000	25.136423
7.480000	25.136423
7.490000	25.136423
7.500000	25.136371
7.510000	25.136371
7.520000	25.136371
7.530000	25.136371
7.540000	25.136371
7.550000	25.136371
7.560000	25.136371
7.570000	25.136371
7.580000	25.136371
7.590000	25.136371
7.600000	25.136371
7.610000	25.136371
7.620000	25.136371
7.630000	25.136371
7.640000	25.136371
7.650000	25.136371
7.660000	25.136371
7.670000	25.136371
7.680000	25.136371
7.690000	25.136371
7.700000	25.136371
7.710000	25.136371
7.720000	25.136371
7.730000	25.136371
7.740000	25.136371
7.750000	25.136371
7.760000	25.136371
7.770000	25.136371
7.780000	25.136371
7.790000	25.136371
7.800000	25.136371
7.810000	25.136371
7.820000	25.136371
7.830000	25.136371
7.840000	25.136371
7.850000	25.136371
7.860000	25.136371
7.870000	25.136371
7.880000	25.136371
7.890000	25.136371
7.900000	25.136371
7.910000	25.136371
7.920000	25.136371
7.930000	25.136371
7.940000	25.136371
7.950000	25.136371
7.960000	25.136371
7.970000	25.136371
7.980000	25.136371
7.990000	25.136371
8.000000	25.138659
8.010000	25.138659
8.020000	25.138659
8.030000	25.138659
8.040000	25.138659
8.050000	25.138659
8.060000	25.138659
8.070000	25.138659
8.080000	25.138659
8.090000	25.138659
8.100000	25.138659
8.110000	25.138659
8.120000	25.138659
8.130000	25.138659
8.140000	25.138659
8.150000	25.138659
8.160000	25.138659
8.170000	25.138659
8.180000	25.138659
8.190000	25.138659
8.200000	25.138659
8.210000	25.138659
8.220000	25.138659
8.230000	25.138659
8.240000	25.138659
8.250000	25.138659
8.260000	25.138659
8.270000	25.138659
8.280000	25.138659
8.290000	25.138659
8.300000	25.138659
8.310000	25.138659
8.320000	25.138659
8.330000	25.138659
8.340000	25.138659
8.350000	25.138659
8.360000	25.138659
8.370000	25.138659
8.380000	25.138659
8.390000	25.138659
8.400000	25.138659
8.410000	25.138659
8.420000	25.138659
8.430000	25.138659
8.440000	25.138659
8.450000	25.138659
8.460000	25.138659
8.470000	25.138659
8.480000	25.138659
8.490000	25.138659
8.500000	25.141205
8.510000	25.141205
8.520000	25.141205
8.530000	25.141205
8.540000	25.141205
8.550000	25.141205
8.560000	25.141205
8.570000	25.141205
8.580000	25.141205
8.590000	25.141205
8.600000	25.141205
8.610000	25.141205
8.620000	25.141205
8.630000	25.141205
8.640000	25.141205
8.650000	25.141205
8.660000	25.141205
8.670000	25.141205
8.680000	25.141205
8.690000	25.141205
8.700000	25.141205
8.710000	25.141205
8.720000	25.141205
8.730000	25.141205
8.740000	25.141205
8.750000	25.141205
8.760000	25.141205
8.770000	25.141205
8.780000	25.141205
8.790000	25.141205
8.800000	25.141205
8.810000	25.141205
8.820000	25.141205
8.830000	25.141205
8.840000	25.141205
8.850000	25.141205
8.860000	25.141205
8.870000	25.141205
8.880000	25.141205
8.890000	25.141205
8.900000	25.141205
8.910000	25.141205
8.920000	25.141205
8.930000	25.141205
8.940000	25.141205
8.950000	25.141205
8.960000	25.141205
8.970000	25.141205
8.980000	25.141205
8.990000	25.141205
9.000000	25.143158
9.010000	25.143158
9.020000	25.143158
9.030000	25.143158
9.040000	25.143158
9.050000	25.143158
9.060000	25.143158
9.070000	25.143158
9.080000	25.143158
9.090000	25.143158
9.100000	25.143158
9.110000	25.143158
9.120000	25.143158
9.130000	25.143158
9.140000	25.143158
9.150000	25.143158
9.160000	25.143158
9.170000	25.143158
9.180000	25.143158
9.190000	25.143158
9.200000	25.143158
9.210000	25.143158
9.220000	25.143158
9.230000	25.143158
9.240000	25.143158
9.250000	25.143158
9.260000	25.143158
9.270000	25.143158
9.280000	25.143158
9.290000	25.143158
9.300000	25.143158
9.310000	25.143158
9.320000	25.143158
9.330000	25.143158
9.340000	25.143158
9.350000	25.143158
9.360000	25.143158
9.370000	25.143158
9.380000	25.143158
9.390000	25.143158
9.400000	25.143158
9.410000	25.143158
9.420000	25.143158
9.430000	25.143158
9.440000	25.143158
9.450000	25.143158
9.460000	25.143158
9.470000	25.143158
9.480000	25.143158
9.490000	25.143158
9.500000	25.145170
9.510000	25.145170
9.520000	25.145170
9.530000	25.145170
9.540000	25.145170
9.550000	25.145170
9.560000	25.145170
9.570000	25.145170
9.580000	25.145170
9.590000	25.145170
9.600000	25.145170
9.610000	25.145170
9.620000	25.145170
9.630000	25.145170
9.640000	25.145170
9.650000	25.145170
9.660000	25.145170
9.670000	25.145170
9.680000	25.145170
9.690000	25.145170
9.700000	25.145170
9.710000	25.145170
9.720000	25.145170
9.730000	25.145170
9.740000	25.145170
9.750000	25.145170
9.760000	25.145170
9.770000	25.145170
9.780000	25.145170
9.790000	25.145170
9.800000	25.145170
9.810000	25.145170
9.820000	25.145170
9.830000	25.145170
9.840000	25.145170
9.850000	25.145170
9.860000	25.145170
9.870000	25.145170
9.880000	25.145170
9.890000	25.145170
9.900000	25.145170
9.910000	25.145170
9.920000	25.145170
9.930000	25.145170
9.940000	25.145170
9.950000	25.145170
9.960000	25.145170
9.970000	25.145170
9.980000	25.145170
9.990000	25.145170
10.000000	25.146151
10.010000	25.146151
10.020000	25.146151
10.030000	25.146151
10.040000	25.146151
10.050000	25.146151
10.060000	25.146151
10.070000	25.146151
10.080000	25.146151
10.090000	25.146151
10.100000	25.146151
10.110000	25.146151
10.120000	25.146151
10.130000	25.146151
10.140000	25.146151
10.150000	25.146151
10.160000	25.146151
10.170000	25.146151
10.180000	25.146151
10.190000	25.146151
10.200000	25.146151
10.210000	25.146151
10.220000	25.146151
10.230000	25.146151
10.240000	25.146151
10.250000	25.146151
10.260000	25.146151
10.270000	25.146151
10.280000	25.146151
10.290000	25.146151
10.300000	25.146151
10.310000	25.146151
10.320000	25.146151
10.330000	25.146151
10.340000	25.146151
10.350000	25.146151
10.360000	25.146151
10.370000	25.146151
10.380000	25.146151
10.390000	25.146151
10.400000	25.146151
10.410000	25.146151
10.420000	25.146151
10.430000	25.146151
10.440000	25.146151
10.450000	25.146151
10.460000	25.146151
10.470000	25.146151
10.480000	25.146151
10.490000	25.146151
10.500000	25.145566
10.510000	25.145566
10.520000	25.145566
10.530000	25.145566
10.540000	25.145566
10.550000	25.145566
10.560000	25.145566
10.570000	25.145566
10.580000	25.145566
10.590000	25.145566
10.600000	25.145566
10.610000	25.145566
10.620000	25.145566
10.630000	25.145566
10.640000	25.145566
10.650000	25.145566
10.660000	25.145566
10.670000	25.145566
10.680000	25.145566
10.690000	25.145566
10.700000	25.145566
10.710000	25.145566
10.720000	25.145566
10.730000	25.145566
10.740000	25.145566
10.750000	25.145566
10.760000	25.145566
10.770000	25.145566
10.780000	25.145566
10.790000	25.145566
10.800000	25.145566
10.810000	25.145566
10.820000	25.145566
10.830000	25.145566
10.840000	25.145566
10.850000	25.145566
10.860000	25.145566
10.870000	25.145566
10.880000	25.145566
10.890000	25.145566
10.900000	25.145566
10.910000	25.145566
10.920000	25.145566
10.930000	25.145566
10.940000	25.145566
10.950000	25.145566
10.960000	25.145566
10.970000	25.145566
10.980000	25.145566
10.990000	25.145566
11.000000	25.145961
11.010000	25.145961
11.020000	25.145961
11.030000	25.145961
11.040000	25.145961
11.050000	25.145961
11.060000	25.145961
11.070000	25.145961
11.080000	25.145961
11.090000	25.145961
11.100000	25.145961
11.110000	25.145961
11.120000	25.145961
11.130000	25.145961
11.140000	25.145961
11.150000	25.145961
11.160000	25.145961
11.170000	25.145961
11.180000	25.145961
11.190000	25.145961
11.200000	25.145961
11.210000	25.145961
11.220000	25.145961
11.230000	25.145961
11.240000	25.145961
11.250000	25.145961
11.260000	25.145961
11.270000	25.145961
11.280000	25.145961
11.290000	25.145961
11.300000	25.145961
11.310000	25.145961
11.320000	25.145961
11.330000	25.145961
11.340000	25.145961
11.350000	25.145961
11.360000	25.145961
11.370000	25.145961
11.380000	25.145961
11.390000	25.145961
11.400000	25.145961
11.410000	25.145961
11.420000	25.145961
11.430000	25.145961
11.440000	25.145961
11.450000	25.145961
11.460000	25.145961
11.470000	25.145961
11.480000	25.145961
11.490000	25.145961
11.500000	25.145987
11.510000	25.145987
11.520000	25.145987
11.530000	25.145987
11.540000	25.145987
11.550000	25.145987
11.560000	25.145987
11.570000	25.145987
11.580000	25.145987
11.590000	25.145987
11.600000	25.145987
11.610000	25.145987
11.620000	25.145987
11.630000	25.145987
11.640000	25.145987
11.650000	25.145987
11.660000	25.145987
11.670000	25.145987
11.680000	25.145987
11.690000	25.145987
11.700000	25.145987
11.710000	25.145987
11.720000	25.145987
11.730000	25.145987
11.740000	25.145987
11.750000	25.145987
11.760000	25.145987
11.770000	25.145987
11.780000	25.145987
11.790000	25.145987
11.800000	25.145987
11.810000	25.145987
11.820000	25.145987
11.830000	25.145987
11.840000	25.145987
11.850000	25.145987
11.860000	25.145987
11.870000	25.145987
11.880000	25.145987
11.890000	25.145987
11.900000	25.145987
11.910000	25.145987
11.920000	25.145987
11.930000	25.145987
11.940000	25.145987
11.950000	25.145987
11.960000	25.145987
11.970000	25.145987
11.980000	25.145987
11.990000	25.145987
12.000000	25.145084
12.010000	25.145084
12.020000	25.145084
12.030000	25.145084
12.040000	25.145084
12.050000	25.145084
12.060000	25.145084
12.070000	25.145084
12.080000	25.145084
12.090000	25.145084
12.100000	25.145084
12.110000	25.145084
12.120000	25.145084
12.130000	25.145084
12.140000	25.145084
12.150000	25.145084
12.160000	25.145084
12.170000	25.145084
12.180000	25.145084
12.190000	25.145084
12.200000	25.145084
12.210000	25.145084
12.220000	25.145084
12.230000	25.145084
12.240000	25.145084
12.250000	25.145084
12.260000	25.145084
12.270000	25.145084
12.280000	25.145084
12.290000	25.145084
12.300000	25.145084
12.310000	25.145084
12.320000	25.145084
12.330000	25.145084
12.340000	25.145084
12.350000	25.145084
12.360000	25.145084
12.370000	25.145084
12.380000	25.145084
12.390000	25.145084
12.400000	25.145084
12.410000	25.145084
12.420000	25.145084
12.430000	25.145084
12.440000	25.145084
12.450000	25.145084
12.460000	25.145084
12.470000	25.145084
12.480000	25.145084
12.490000	25.145084
12.500000	25.144026
12.510000	25.144026
12.520000	25.144026
12.530000	25.144026
12.540000	25.144026
12.550000	25.144026
12.560000	25.144026
12.570000	25.144026
12.580000	25.144026
12.590000	25.144026
12.600000	25.144026
12.610000	25.144026
12.620000	25.144026
12.630000	25.144026
12.640000	25.144026
12.650000	25.144026
12.660000	25.144026
12.670000	25.144026
12.680000	25.144026
12.690000	25.144026
12.700000	25.144026
12.710000	25.144026
12.720000	25.144026
12.730000	25.144026
12.740000	25.144026
12.750000	25.144026
12.760000	25.144026
12.770000	25.144026
12.780000	25.144026
12.790000	25.144026
12.800000	25.144026
12.810000	25.144026
12.820000	25.144026
12.830000	25.144026
12.840000	25.144026
12.850000	25.144026
12.860000	25.144026
12.870000	25.144026
12.880000	25.144026
12.890000	25.144026
12.900000	25.144026
12.910000	25.144026
12.920000	25.144026
12.930000	25.144026
12.940000	25.144026
12.950000	25.144026
12.960000	25.144026
12.970000	25.144026
12.980000	25.144026
12.990000	25.144026
13.000000	25.140947
13.010000	25.140947
13.020000	25.140947
13.030000	25.140947
13.040000	25.140947
13.050000	25.140947
13.060000	25.140947
13.070000	25.140947
13.080000	25.140947
13.090000	25.140947
13.100000	25.140947
13.110000	25.140947
13.120000	25.140947
13.130000	25.140947
13.140000	25.140947
13.150000	25.140947
13.160000	25.140947
13.170000	25.140947
13.180000	25.140947
13.190000	25.140947
13.200000	25.140947
13.210000	25.140947
13.220000	25.140947
13.230000	25.140947
13.240000	25.140947
13.250000	25.140947
13.260000	25.140947
13.270000	25.140947
13.280000	25.140947
13.290000	25.140947
13.300000	25.140947
13.310000	25.140947
13.320000	25.140947
13.330000	25.140947
13.340000	25.140947
13.350000	25.140947
13.360000	25.140947
13.370000	25.140947
13.380000	25.140947
13.390000	25.140947
13.400000	25.140947
13.410000	25.140947
13.420000	25.140947
13.430000	25.140947
13.440000	25.140947
13.450000	25.140947
13.460000	25.140947
13.470000	25.140947
13.480000	25.140947
13.490000	25.140947
13.500000	25.138083
13.510000	25.138083
13.520000	25.138083
13.530000	25.138083
13.540000	25.138083
13.550000	25.138083
13.560000	25.138083
13.570000	25.138083
13.580000	25.138083
13.590000	25.138083
13.600000	25.138083
13.610000	25.138083
13.620000	25.138083
13.630000	25.138083
13.640000	25.138083
13.650000	25.138083
13.660000	25.138083
13.670000	25.138083
13.680000	25.138083
13.690000	25.138083
13.700000	25.138083
13.710000	25.138083
13.720000	25.138083
13.730000	25.138083
13.740000	25.138083
13.750000	25.138083
13.760000	25.138083
13.770000	25.138083
13.780000	25.138083
13.790000	25.138083
13.800000	25.138083
13.810000	25.138083
13.820000	25.138083
13.830000	25.138083
13.840000	25.138083
13.850000	25.138083
13.860000	25.138083
13.870000	25.138083
13.880000	25.138083
13.890000	25.138083
13.900000	25.138083
13.910000	25.138083
13.920000	25.138083
13.930000	25.138083
13.940000	25.138083
13.950000	25.138083
13.960000	25.138083
13.970000	25.138083
13.980000	25.138083
13.990000	25.138083
14.000000	25.135442
14.010000	25.135442
14.020000	25.135442
14.030000	25.135442
14.040000	25.135442
14.050000	25.135442
14.060000	25.135442
14.070000	25.135442
14.080000	25.135442
14.090000	25.135442
14.100000	25.135442
14.110000	25.135442
14.120000	25.135442
14.130000	25.135442
14.140000	25.135442
14.150000	25.135442
14.160000	25.135442
14.170000	25.135442
14.180000	25.135442
14.190000	25.135442
14.200000	25.135442
14.210000	25.135442
14.220000	25.135442
14.230000	25.135442
14.240000	25.135442
14.250000	25.135442
14.260000	25.135442
14.270000	25.135442
14.280000	25.135442
14.290000	25.135442
14.300000	25.135442
14.310000	25.135442
14.320000	25.135442
14.330000	25.135442
14.340000	25.135442
14.350000	25.135442
14.360000	25.135442
14.370000	25.135442
14.380000	25.135442
14.390000	25.135442
14.400000	25.135442
14.410000	25.135442
14.420000	25.135442
14.430000	25.135442
14.440000	25.135442
14.450000	25.135442
14.460000	25.135442
14.470000	25.135442
14.480000	25.135442
14.490000	25.135442
14.500000	25.131915
14.510000	25.131915
14.520000	25.131915
14.530000	25.131915
14.540000	25.131915
14.550000	25.131915
14.560000	25.131915
14.570000	25.131915
14.580000	25.131915
14.590000	25.131915
14.600000	25.131915
14.610000	25.131915
14.620000	25.131915
14.630000	25.131915
14.640000	25.131915
14.650000	25.131915
14.660000	25.131915
14.670000	25.131915
14.680000	25.131915
14.690000	25.131915
14.700000	25.131915
14.710000	25.131915
14.720000	25.131915
14.730000	25.131915
14.740000	25.131915
14.750000	25.131915
14.760000	25.131915
14.770000	25.131915
14.780000	25.131915
14.790000	25.131915
14.800000	25.131915
14.810000	25.131915
14.820000	25.131915
14.830000	25.131915
14.840000	25.131915
14.850000	25.131915
14.860000	25.131915
14.870000	25.131915
14.880000	25.131915
14.890000	25.131915
14.900000	25.131915
14.910000	25.131915
14.920000	25.131915
14.930000	25.131915
14.940000	25.131915
14.950000	25.131915
14.960000	25.131915
14.970000	25.131915
14.980000	25.131915
14.990000	25.131915
15.000000	25.128362
15.010000	25.128362
15.020000	25.128362
15.030000	25.128362
15.040000	25.128362
15.050000	25.128362
15.060000	25.128362
15.070000	25.128362
15.080000	25.128362
15.090000	25.128362
15.100000	25.128362
15.110000	25.128362
15.120000	25.128362
15.130000	25.128362
15.140000	25.128362
15.150000	25.128362
15.160000	25.128362
15.170000	25.128362
15.180000	25.128362
15.190000	25.128362
15.200000	25.128362
15.210000	25.128362
15.220000	25.128362
15.230000	25.128362
15.240000	25.128362
15.250000	25.128362
15.260000	25.128362
15.270000	25.128362
15.280000	25.128362
15.290000	25.128362
15.300000	25.128362
15.310000	25.128362
15.320000	25.128362
15.330000	25.128362
15.340000	25.128362
15.350000	25.128362
15.360000	25.128362
15.370000	25.128362
15.380000	25.128362
15.390000	25.128362
15.400000	25.128362
15.410000	25.128362
15.420000	25.128362
15.430000	25.128362
15.440000	25.128362
15.450000	25.128362
15.460000	25.128362
15.470000	25.128362
15.480000	25.128362
15.490000	25.128362
15.500000	25.124920
15.510000	25.124920
15.520000	25.124920
15.530000	25.124920
15.540000	25.124920
15.550000	25.124920
15.560000	25.124920
15.570000	25.124920
15.580000	25.124920
15.590000	25.124920
15.600000	25.124920
15.610000	25.124920
15.620000	25.124920
15.630000	25.124920
15.640000	25.124920
15.650000	25.124920
15.660000	25.124920
15.670000	25.124920
15.680000	25.124920
15.690000	25.124920
15.700000	25.124920
15.710000	25.124920
15.720000	25.124920
15.730000	25.124920
15.740000	25.124920
15.750000	25.124920
15.760000	25.124920
15.770000	25.124920
15.780000	25.124920
15.790000	25.124920
15.800000	25.124920
15.810000	25.124920
15.820000	25.124920
15.830000	25.124920
15.840000	25.124920
15.850000	25.124920
15.860000	25.124920
15.870000	25.124920
15.880000	25.124920
15.890000	25.124920
15.900000	25.124920
15.910000	25.124920
15.920000	25.124920
15.930000	25.124920
15.940000	25.124920
15.950000	25.124920
15.960000	25.124920
15.970000	25.124920
15.980000	25.124920
15.990000	25.124920
16.000000	25.121719
16.010000	25.121719
16.020000	25.121719
16.030000	25.121719
16.040000	25.121719
16.050000	25.121719
16.060000	25.121719
16.070000	25.121719
16.080000	25.121719
16.090000	25.121719
16.100000	25.121719
16.110000	25.121719
16.120000	25.121719
16.130000	25.121719
16.140000	25.121719
16.150000	25.121719
16.160000	25.121719
16.170000	25.121719
16.180000	25.121719
16.190000	25.121719
16.200000	25.121719
16.210000	25.121719
16.220000	25.121719
16.230000	25.121719
16.240000	25.121719
16.250000	25.121719
16.260000	25.121719
16.270000	25.121719
16.280000	25.121719
16.290000	25.121719
16.300000	25.121719
16.310000	25.121719
16.320000	25.121719
16.330000	25.121719
16.340000	25.121719
16.350000	25.121719
16.360000	25.121719
16.370000	25.121719
16.380000	25.121719
16.390000	25.121719
16.400000	25.121719
16.410000	25.121719
16.420000	25.121719
16.430000	25.121719
16.440000	25.121719
16.450000	25.121719
16.460000	25.121719
16.470000	25.121719
16.480000	25.121719
16.490000	25.121719
16.500000	25.117890
16.510000	25.117890
16.520000	25.117890
16.530000	25.117890
16.540000	25.117890
16.550000	25.117890
16.560000	25.117890
16.570000	25.117890
16.580000	25.117890
16.590000	25.117890
16.600000	25.117890
16.610000	25.117890
16.620000	25.117890
16.630000	25.117890
16.640000	25.117890
16.650000	25.117890
16.660000	25.117890
16.670000	25.117890
16.680000	25.117890
16.690000	25.117890
16.700000	25.117890
16.710000	25.117890
16.720000	25.117890
16.730000	25.117890
16.740000	25.117890
16.750000	25.117890
16.760000	25.117890
16.770000	25.117890
16.780000	25.117890
16.790000	25.117890
16.800000	25.117890
16.810000	25.117890
16.820000	25.117890
16.830000	25.117890
16.840000	25.117890
16.850000	25.117890
16.860000	25.117890
16.870000	25.117890
16.880000	25.117890
16.890000	25.117890
16.900000	25.117890
16.910000	25.117890
16.920000	25.117890
16.930000	25.117890
16.940000	25.117890
16.950000	25.117890
16.960000	25.117890
16.970000	25.117890
16.980000	25.117890
16.990000	25.117890
17.000000	25.114327
17.010000	25.114327
17.020000	25.114327
17.030000	25.114327
17.040000	25.114327
17.050000	25.114327
17.060000	25.114327
17.070000	25.114327
17.080000	25.114327
17.090000	25.114327
17.100000	25.114327
17.110000	25.114327
17.120000	25.114327
17.130000	25.114327
17.140000	25.114327
17.150000	25.114327
17.160000	25.114327
17.170000	25.114327
17.180000	25.114327
17.190000	25.114327
17.200000	25.114327
17.210000	25.114327
17.220000	25.114327
17.230000	25.114327
17.240000	25.114327
17.250000	25.114327
17.260000	25.114327
17.270000	25.114327
17.280000	25.114327
17.290000	25.114327
17.300000	25.114327
17.310000	25.114327
17.320000	25.114327
17.330000	25.114327
17.340000	25.114327
17.350000	25.114327
17.360000	25.114327
17.370000	25.114327
17.380000	25.114327
17.390000	25.114327
17.400000	25.114327
17.410000	25.114327
17.420000	25.114327
17.430000	25.114327
17.440000	25.114327
17.450000	25.114327
17.460000	25.114327
17.470000	25.114327
17.480000	25.114327
17.490000	25.114327
