LabVIEW Measurement	
Writer_Version	2
Reader_Version	2
Separator	Tab
Decimal_Separator	.
Multi_Headings	No
X_Columns	One
Time_Pref	Absolute
Operator	biomech-dyno
Date	2023/04/27
Time	17:41:55.9338632999999876419
***End_of_Header***	
	
Channels	1	
Samples	10	
Date	2023/04/27	
Time	19:57:22.2309489999998338126	
X_Dimension	Time	
X0	0.0000000000000000E+0	
Delta_X	0.010000	
***End_of_Header***		
X_Value	Untitled	Comment
0.000000	24.761197
0.010000	24.761197
0.020000	24.761197
0.030000	24.761197
0.040000	24.761197
0.050000	24.761197
0.060000	24.761197
0.070000	24.761197
0.080000	24.761197
0.090000	24.761197
0.100000	24.761197
0.110000	24.761197
0.120000	24.761197
0.130000	24.761197
0.140000	24.761197
0.150000	24.761197
0.160000	24.761197
0.170000	24.761197
0.180000	24.761197
0.190000	24.761197
0.200000	24.761197
0.210000	24.761197
0.220000	24.761197
0.230000	24.761197
0.240000	24.761197
0.250000	24.761197
0.260000	24.761197
0.270000	24.761197
0.280000	24.761197
0.290000	24.761197
0.300000	24.761197
0.310000	24.761197
0.320000	24.761197
0.330000	24.761197
0.340000	24.761197
0.350000	24.761197
0.360000	24.761197
0.370000	24.761197
0.380000	24.761197
0.390000	24.761197
0.400000	24.761197
0.410000	24.761197
0.420000	24.761197
0.430000	24.761197
0.440000	24.761197
0.450000	24.761197
0.460000	24.761197
0.470000	24.761197
0.480000	24.761197
0.490000	24.761197
0.500000	24.783143
0.510000	24.783143
0.520000	24.783143
0.530000	24.783143
0.540000	24.783143
0.550000	24.783143
0.560000	24.783143
0.570000	24.783143
0.580000	24.783143
0.590000	24.783143
0.600000	24.783143
0.610000	24.783143
0.620000	24.783143
0.630000	24.783143
0.640000	24.783143
0.650000	24.783143
0.660000	24.783143
0.670000	24.783143
0.680000	24.783143
0.690000	24.783143
0.700000	24.783143
0.710000	24.783143
0.720000	24.783143
0.730000	24.783143
0.740000	24.783143
0.750000	24.783143
0.760000	24.783143
0.770000	24.783143
0.780000	24.783143
0.790000	24.783143
0.800000	24.783143
0.810000	24.783143
0.820000	24.783143
0.830000	24.783143
0.840000	24.783143
0.850000	24.783143
0.860000	24.783143
0.870000	24.783143
0.880000	24.783143
0.890000	24.783143
0.900000	24.783143
0.910000	24.783143
0.920000	24.783143
0.930000	24.783143
0.940000	24.783143
0.950000	24.783143
0.960000	24.783143
0.970000	24.783143
0.980000	24.783143
0.990000	24.783143
1.000000	24.864832
1.010000	24.864832
1.020000	24.864832
1.030000	24.864832
1.040000	24.864832
1.050000	24.864832
1.060000	24.864832
1.070000	24.864832
1.080000	24.864832
1.090000	24.864832
1.100000	24.864832
1.110000	24.864832
1.120000	24.864832
1.130000	24.864832
1.140000	24.864832
1.150000	24.864832
1.160000	24.864832
1.170000	24.864832
1.180000	24.864832
1.190000	24.864832
1.200000	24.864832
1.210000	24.864832
1.220000	24.864832
1.230000	24.864832
1.240000	24.864832
1.250000	24.864832
1.260000	24.864832
1.270000	24.864832
1.280000	24.864832
1.290000	24.864832
1.300000	24.864832
1.310000	24.864832
1.320000	24.864832
1.330000	24.864832
1.340000	24.864832
1.350000	24.864832
1.360000	24.864832
1.370000	24.864832
1.380000	24.864832
1.390000	24.864832
1.400000	24.864832
1.410000	24.864832
1.420000	24.864832
1.430000	24.864832
1.440000	24.864832
1.450000	24.864832
1.460000	24.864832
1.470000	24.864832
1.480000	24.864832
1.490000	24.864832
1.500000	25.037846
1.510000	25.037846
1.520000	25.037846
1.530000	25.037846
1.540000	25.037846
1.550000	25.037846
1.560000	25.037846
1.570000	25.037846
1.580000	25.037846
1.590000	25.037846
1.600000	25.037846
1.610000	25.037846
1.620000	25.037846
1.630000	25.037846
1.640000	25.037846
1.650000	25.037846
1.660000	25.037846
1.670000	25.037846
1.680000	25.037846
1.690000	25.037846
1.700000	25.037846
1.710000	25.037846
1.720000	25.037846
1.730000	25.037846
1.740000	25.037846
1.750000	25.037846
1.760000	25.037846
1.770000	25.037846
1.780000	25.037846
1.790000	25.037846
1.800000	25.037846
1.810000	25.037846
1.820000	25.037846
1.830000	25.037846
1.840000	25.037846
1.850000	25.037846
1.860000	25.037846
1.870000	25.037846
1.880000	25.037846
1.890000	25.037846
1.900000	25.037846
1.910000	25.037846
1.920000	25.037846
1.930000	25.037846
1.940000	25.037846
1.950000	25.037846
1.960000	25.037846
1.970000	25.037846
1.980000	25.037846
1.990000	25.037846
2.000000	25.285937
2.010000	25.285937
2.020000	25.285937
2.030000	25.285937
2.040000	25.285937
2.050000	25.285937
2.060000	25.285937
2.070000	25.285937
2.080000	25.285937
2.090000	25.285937
2.100000	25.285937
2.110000	25.285937
2.120000	25.285937
2.130000	25.285937
2.140000	25.285937
2.150000	25.285937
2.160000	25.285937
2.170000	25.285937
2.180000	25.285937
2.190000	25.285937
2.200000	25.285937
2.210000	25.285937
2.220000	25.285937
2.230000	25.285937
2.240000	25.285937
2.250000	25.285937
2.260000	25.285937
2.270000	25.285937
2.280000	25.285937
2.290000	25.285937
2.300000	25.285937
2.310000	25.285937
2.320000	25.285937
2.330000	25.285937
2.340000	25.285937
2.350000	25.285937
2.360000	25.285937
2.370000	25.285937
2.380000	25.285937
2.390000	25.285937
2.400000	25.285937
2.410000	25.285937
2.420000	25.285937
2.430000	25.285937
2.440000	25.285937
2.450000	25.285937
2.460000	25.285937
2.470000	25.285937
2.480000	25.285937
2.490000	25.285937
2.500000	25.590969
2.510000	25.590969
2.520000	25.590969
2.530000	25.590969
2.540000	25.590969
2.550000	25.590969
2.560000	25.590969
2.570000	25.590969
2.580000	25.590969
2.590000	25.590969
2.600000	25.590969
2.610000	25.590969
2.620000	25.590969
2.630000	25.590969
2.640000	25.590969
2.650000	25.590969
2.660000	25.590969
2.670000	25.590969
2.680000	25.590969
2.690000	25.590969
2.700000	25.590969
2.710000	25.590969
2.720000	25.590969
2.730000	25.590969
2.740000	25.590969
2.750000	25.590969
2.760000	25.590969
2.770000	25.590969
2.780000	25.590969
2.790000	25.590969
2.800000	25.590969
2.810000	25.590969
2.820000	25.590969
2.830000	25.590969
2.840000	25.590969
2.850000	25.590969
2.860000	25.590969
2.870000	25.590969
2.880000	25.590969
2.890000	25.590969
2.900000	25.590969
2.910000	25.590969
2.920000	25.590969
2.930000	25.590969
2.940000	25.590969
2.950000	25.590969
2.960000	25.590969
2.970000	25.590969
2.980000	25.590969
2.990000	25.590969
3.000000	25.927882
3.010000	25.927882
3.020000	25.927882
3.030000	25.927882
3.040000	25.927882
3.050000	25.927882
3.060000	25.927882
3.070000	25.927882
3.080000	25.927882
3.090000	25.927882
3.100000	25.927882
3.110000	25.927882
3.120000	25.927882
3.130000	25.927882
3.140000	25.927882
3.150000	25.927882
3.160000	25.927882
3.170000	25.927882
3.180000	25.927882
3.190000	25.927882
3.200000	25.927882
3.210000	25.927882
3.220000	25.927882
3.230000	25.927882
3.240000	25.927882
3.250000	25.927882
3.260000	25.927882
3.270000	25.927882
3.280000	25.927882
3.290000	25.927882
3.300000	25.927882
3.310000	25.927882
3.320000	25.927882
3.330000	25.927882
3.340000	25.927882
3.350000	25.927882
3.360000	25.927882
3.370000	25.927882
3.380000	25.927882
3.390000	25.927882
3.400000	25.927882
3.410000	25.927882
3.420000	25.927882
3.430000	25.927882
3.440000	25.927882
3.450000	25.927882
3.460000	25.927882
3.470000	25.927882
3.480000	25.927882
3.490000	25.927882
3.500000	26.215980
3.510000	26.215980
3.520000	26.215980
3.530000	26.215980
3.540000	26.215980
3.550000	26.215980
3.560000	26.215980
3.570000	26.215980
3.580000	26.215980
3.590000	26.215980
3.600000	26.215980
3.610000	26.215980
3.620000	26.215980
3.630000	26.215980
3.640000	26.215980
3.650000	26.215980
3.660000	26.215980
3.670000	26.215980
3.680000	26.215980
3.690000	26.215980
3.700000	26.215980
3.710000	26.215980
3.720000	26.215980
3.730000	26.215980
3.740000	26.215980
3.750000	26.215980
3.760000	26.215980
3.770000	26.215980
3.780000	26.215980
3.790000	26.215980
3.800000	26.215980
3.810000	26.215980
3.820000	26.215980
3.830000	26.215980
3.840000	26.215980
3.850000	26.215980
3.860000	26.215980
3.870000	26.215980
3.880000	26.215980
3.890000	26.215980
3.900000	26.215980
3.910000	26.215980
3.920000	26.215980
3.930000	26.215980
3.940000	26.215980
3.950000	26.215980
3.960000	26.215980
3.970000	26.215980
3.980000	26.215980
3.990000	26.215980
4.000000	26.426891
4.010000	26.426891
4.020000	26.426891
4.030000	26.426891
4.040000	26.426891
4.050000	26.426891
4.060000	26.426891
4.070000	26.426891
4.080000	26.426891
4.090000	26.426891
4.100000	26.426891
4.110000	26.426891
4.120000	26.426891
4.130000	26.426891
4.140000	26.426891
4.150000	26.426891
4.160000	26.426891
4.170000	26.426891
4.180000	26.426891
4.190000	26.426891
4.200000	26.426891
4.210000	26.426891
4.220000	26.426891
4.230000	26.426891
4.240000	26.426891
4.250000	26.426891
4.260000	26.426891
4.270000	26.426891
4.280000	26.426891
4.290000	26.426891
4.300000	26.426891
4.310000	26.426891
4.320000	26.426891
4.330000	26.426891
4.340000	26.426891
4.350000	26.426891
4.360000	26.426891
4.370000	26.426891
4.380000	26.426891
4.390000	26.426891
4.400000	26.426891
4.410000	26.426891
4.420000	26.426891
4.430000	26.426891
4.440000	26.426891
4.450000	26.426891
4.460000	26.426891
4.470000	26.426891
4.480000	26.426891
4.490000	26.426891
4.500000	26.573013
4.510000	26.573013
4.520000	26.573013
4.530000	26.573013
4.540000	26.573013
4.550000	26.573013
4.560000	26.573013
4.570000	26.573013
4.580000	26.573013
4.590000	26.573013
4.600000	26.573013
4.610000	26.573013
4.620000	26.573013
4.630000	26.573013
4.640000	26.573013
4.650000	26.573013
4.660000	26.573013
4.670000	26.573013
4.680000	26.573013
4.690000	26.573013
4.700000	26.573013
4.710000	26.573013
4.720000	26.573013
4.730000	26.573013
4.740000	26.573013
4.750000	26.573013
4.760000	26.573013
4.770000	26.573013
4.780000	26.573013
4.790000	26.573013
4.800000	26.573013
4.810000	26.573013
4.820000	26.573013
4.830000	26.573013
4.840000	26.573013
4.850000	26.573013
4.860000	26.573013
4.870000	26.573013
4.880000	26.573013
4.890000	26.573013
4.900000	26.573013
4.910000	26.573013
4.920000	26.573013
4.930000	26.573013
4.940000	26.573013
4.950000	26.573013
4.960000	26.573013
4.970000	26.573013
4.980000	26.573013
4.990000	26.573013
5.000000	26.670305
5.010000	26.670305
5.020000	26.670305
5.030000	26.670305
5.040000	26.670305
5.050000	26.670305
5.060000	26.670305
5.070000	26.670305
5.080000	26.670305
5.090000	26.670305
5.100000	26.670305
5.110000	26.670305
5.120000	26.670305
5.130000	26.670305
5.140000	26.670305
5.150000	26.670305
5.160000	26.670305
5.170000	26.670305
5.180000	26.670305
5.190000	26.670305
5.200000	26.670305
5.210000	26.670305
5.220000	26.670305
5.230000	26.670305
5.240000	26.670305
5.250000	26.670305
5.260000	26.670305
5.270000	26.670305
5.280000	26.670305
5.290000	26.670305
5.300000	26.670305
5.310000	26.670305
5.320000	26.670305
5.330000	26.670305
5.340000	26.670305
5.350000	26.670305
5.360000	26.670305
5.370000	26.670305
5.380000	26.670305
5.390000	26.670305
5.400000	26.670305
5.410000	26.670305
5.420000	26.670305
5.430000	26.670305
5.440000	26.670305
5.450000	26.670305
5.460000	26.670305
5.470000	26.670305
5.480000	26.670305
5.490000	26.670305
5.500000	26.729409
5.510000	26.729409
5.520000	26.729409
5.530000	26.729409
5.540000	26.729409
5.550000	26.729409
5.560000	26.729409
5.570000	26.729409
5.580000	26.729409
5.590000	26.729409
5.600000	26.729409
5.610000	26.729409
5.620000	26.729409
5.630000	26.729409
5.640000	26.729409
5.650000	26.729409
5.660000	26.729409
5.670000	26.729409
5.680000	26.729409
5.690000	26.729409
5.700000	26.729409
5.710000	26.729409
5.720000	26.729409
5.730000	26.729409
5.740000	26.729409
5.750000	26.729409
5.760000	26.729409
5.770000	26.729409
5.780000	26.729409
5.790000	26.729409
5.800000	26.729409
5.810000	26.729409
5.820000	26.729409
5.830000	26.729409
5.840000	26.729409
5.850000	26.729409
5.860000	26.729409
5.870000	26.729409
5.880000	26.729409
5.890000	26.729409
5.900000	26.729409
5.910000	26.729409
5.920000	26.729409
5.930000	26.729409
5.940000	26.729409
5.950000	26.729409
5.960000	26.729409
5.970000	26.729409
5.980000	26.729409
5.990000	26.729409
6.000000	26.762625
6.010000	26.762625
6.020000	26.762625
6.030000	26.762625
6.040000	26.762625
6.050000	26.762625
6.060000	26.762625
6.070000	26.762625
6.080000	26.762625
6.090000	26.762625
6.100000	26.762625
6.110000	26.762625
6.120000	26.762625
6.130000	26.762625
6.140000	26.762625
6.150000	26.762625
6.160000	26.762625
6.170000	26.762625
6.180000	26.762625
6.190000	26.762625
6.200000	26.762625
6.210000	26.762625
6.220000	26.762625
6.230000	26.762625
6.240000	26.762625
6.250000	26.762625
6.260000	26.762625
6.270000	26.762625
6.280000	26.762625
6.290000	26.762625
6.300000	26.762625
6.310000	26.762625
6.320000	26.762625
6.330000	26.762625
6.340000	26.762625
6.350000	26.762625
6.360000	26.762625
6.370000	26.762625
6.380000	26.762625
6.390000	26.762625
6.400000	26.762625
6.410000	26.762625
6.420000	26.762625
6.430000	26.762625
6.440000	26.762625
6.450000	26.762625
6.460000	26.762625
6.470000	26.762625
6.480000	26.762625
6.490000	26.762625
6.500000	26.781696
6.510000	26.781696
6.520000	26.781696
6.530000	26.781696
6.540000	26.781696
6.550000	26.781696
6.560000	26.781696
6.570000	26.781696
6.580000	26.781696
6.590000	26.781696
6.600000	26.781696
6.610000	26.781696
6.620000	26.781696
6.630000	26.781696
6.640000	26.781696
6.650000	26.781696
6.660000	26.781696
6.670000	26.781696
6.680000	26.781696
6.690000	26.781696
6.700000	26.781696
6.710000	26.781696
6.720000	26.781696
6.730000	26.781696
6.740000	26.781696
6.750000	26.781696
6.760000	26.781696
6.770000	26.781696
6.780000	26.781696
6.790000	26.781696
6.800000	26.781696
6.810000	26.781696
6.820000	26.781696
6.830000	26.781696
6.840000	26.781696
6.850000	26.781696
6.860000	26.781696
6.870000	26.781696
6.880000	26.781696
6.890000	26.781696
6.900000	26.781696
6.910000	26.781696
6.920000	26.781696
6.930000	26.781696
6.940000	26.781696
6.950000	26.781696
6.960000	26.781696
6.970000	26.781696
6.980000	26.781696
6.990000	26.781696
7.000000	26.790518
7.010000	26.790518
7.020000	26.790518
7.030000	26.790518
7.040000	26.790518
7.050000	26.790518
7.060000	26.790518
7.070000	26.790518
7.080000	26.790518
7.090000	26.790518
7.100000	26.790518
7.110000	26.790518
7.120000	26.790518
7.130000	26.790518
7.140000	26.790518
7.150000	26.790518
7.160000	26.790518
7.170000	26.790518
7.180000	26.790518
7.190000	26.790518
7.200000	26.790518
7.210000	26.790518
7.220000	26.790518
7.230000	26.790518
7.240000	26.790518
7.250000	26.790518
7.260000	26.790518
7.270000	26.790518
7.280000	26.790518
7.290000	26.790518
7.300000	26.790518
7.310000	26.790518
7.320000	26.790518
7.330000	26.790518
7.340000	26.790518
7.350000	26.790518
7.360000	26.790518
7.370000	26.790518
7.380000	26.790518
7.390000	26.790518
7.400000	26.790518
7.410000	26.790518
7.420000	26.790518
7.430000	26.790518
7.440000	26.790518
7.450000	26.790518
7.460000	26.790518
7.470000	26.790518
7.480000	26.790518
7.490000	26.790518
7.500000	26.788271
7.510000	26.788271
7.520000	26.788271
7.530000	26.788271
7.540000	26.788271
7.550000	26.788271
7.560000	26.788271
7.570000	26.788271
7.580000	26.788271
7.590000	26.788271
7.600000	26.788271
7.610000	26.788271
7.620000	26.788271
7.630000	26.788271
7.640000	26.788271
7.650000	26.788271
7.660000	26.788271
7.670000	26.788271
7.680000	26.788271
7.690000	26.788271
7.700000	26.788271
7.710000	26.788271
7.720000	26.788271
7.730000	26.788271
7.740000	26.788271
7.750000	26.788271
7.760000	26.788271
7.770000	26.788271
7.780000	26.788271
7.790000	26.788271
7.800000	26.788271
7.810000	26.788271
7.820000	26.788271
7.830000	26.788271
7.840000	26.788271
7.850000	26.788271
7.860000	26.788271
7.870000	26.788271
7.880000	26.788271
7.890000	26.788271
7.900000	26.788271
7.910000	26.788271
7.920000	26.788271
7.930000	26.788271
7.940000	26.788271
7.950000	26.788271
7.960000	26.788271
7.970000	26.788271
7.980000	26.788271
7.990000	26.788271
8.000000	26.776094
8.010000	26.776094
8.020000	26.776094
8.030000	26.776094
8.040000	26.776094
8.050000	26.776094
8.060000	26.776094
8.070000	26.776094
8.080000	26.776094
8.090000	26.776094
8.100000	26.776094
8.110000	26.776094
8.120000	26.776094
8.130000	26.776094
8.140000	26.776094
8.150000	26.776094
8.160000	26.776094
8.170000	26.776094
8.180000	26.776094
8.190000	26.776094
8.200000	26.776094
8.210000	26.776094
8.220000	26.776094
8.230000	26.776094
8.240000	26.776094
8.250000	26.776094
8.260000	26.776094
8.270000	26.776094
8.280000	26.776094
8.290000	26.776094
8.300000	26.776094
8.310000	26.776094
8.320000	26.776094
8.330000	26.776094
8.340000	26.776094
8.350000	26.776094
8.360000	26.776094
8.370000	26.776094
8.380000	26.776094
8.390000	26.776094
8.400000	26.776094
8.410000	26.776094
8.420000	26.776094
8.430000	26.776094
8.440000	26.776094
8.450000	26.776094
8.460000	26.776094
8.470000	26.776094
8.480000	26.776094
8.490000	26.776094
8.500000	26.756163
8.510000	26.756163
8.520000	26.756163
8.530000	26.756163
8.540000	26.756163
8.550000	26.756163
8.560000	26.756163
8.570000	26.756163
8.580000	26.756163
8.590000	26.756163
8.600000	26.756163
8.610000	26.756163
8.620000	26.756163
8.630000	26.756163
8.640000	26.756163
8.650000	26.756163
8.660000	26.756163
8.670000	26.756163
8.680000	26.756163
8.690000	26.756163
8.700000	26.756163
8.710000	26.756163
8.720000	26.756163
8.730000	26.756163
8.740000	26.756163
8.750000	26.756163
8.760000	26.756163
8.770000	26.756163
8.780000	26.756163
8.790000	26.756163
8.800000	26.756163
8.810000	26.756163
8.820000	26.756163
8.830000	26.756163
8.840000	26.756163
8.850000	26.756163
8.860000	26.756163
8.870000	26.756163
8.880000	26.756163
8.890000	26.756163
8.900000	26.756163
8.910000	26.756163
8.920000	26.756163
8.930000	26.756163
8.940000	26.756163
8.950000	26.756163
8.960000	26.756163
8.970000	26.756163
8.980000	26.756163
8.990000	26.756163
9.000000	26.734125
9.010000	26.734125
9.020000	26.734125
9.030000	26.734125
9.040000	26.734125
9.050000	26.734125
9.060000	26.734125
9.070000	26.734125
9.080000	26.734125
9.090000	26.734125
9.100000	26.734125
9.110000	26.734125
9.120000	26.734125
9.130000	26.734125
9.140000	26.734125
9.150000	26.734125
9.160000	26.734125
9.170000	26.734125
9.180000	26.734125
9.190000	26.734125
9.200000	26.734125
9.210000	26.734125
9.220000	26.734125
9.230000	26.734125
9.240000	26.734125
9.250000	26.734125
9.260000	26.734125
9.270000	26.734125
9.280000	26.734125
9.290000	26.734125
9.300000	26.734125
9.310000	26.734125
9.320000	26.734125
9.330000	26.734125
9.340000	26.734125
9.350000	26.734125
9.360000	26.734125
9.370000	26.734125
9.380000	26.734125
9.390000	26.734125
9.400000	26.734125
9.410000	26.734125
9.420000	26.734125
9.430000	26.734125
9.440000	26.734125
9.450000	26.734125
9.460000	26.734125
9.470000	26.734125
9.480000	26.734125
9.490000	26.734125
9.500000	26.708084
9.510000	26.708084
9.520000	26.708084
9.530000	26.708084
9.540000	26.708084
9.550000	26.708084
9.560000	26.708084
9.570000	26.708084
9.580000	26.708084
9.590000	26.708084
9.600000	26.708084
9.610000	26.708084
9.620000	26.708084
9.630000	26.708084
9.640000	26.708084
9.650000	26.708084
9.660000	26.708084
9.670000	26.708084
9.680000	26.708084
9.690000	26.708084
9.700000	26.708084
9.710000	26.708084
9.720000	26.708084
9.730000	26.708084
9.740000	26.708084
9.750000	26.708084
9.760000	26.708084
9.770000	26.708084
9.780000	26.708084
9.790000	26.708084
9.800000	26.708084
9.810000	26.708084
9.820000	26.708084
9.830000	26.708084
9.840000	26.708084
9.850000	26.708084
9.860000	26.708084
9.870000	26.708084
9.880000	26.708084
9.890000	26.708084
9.900000	26.708084
9.910000	26.708084
9.920000	26.708084
9.930000	26.708084
9.940000	26.708084
9.950000	26.708084
9.960000	26.708084
9.970000	26.708084
9.980000	26.708084
9.990000	26.708084
10.000000	26.675776
10.010000	26.675776
10.020000	26.675776
10.030000	26.675776
10.040000	26.675776
10.050000	26.675776
10.060000	26.675776
10.070000	26.675776
10.080000	26.675776
10.090000	26.675776
10.100000	26.675776
10.110000	26.675776
10.120000	26.675776
10.130000	26.675776
10.140000	26.675776
10.150000	26.675776
10.160000	26.675776
10.170000	26.675776
10.180000	26.675776
10.190000	26.675776
10.200000	26.675776
10.210000	26.675776
10.220000	26.675776
10.230000	26.675776
10.240000	26.675776
10.250000	26.675776
10.260000	26.675776
10.270000	26.675776
10.280000	26.675776
10.290000	26.675776
10.300000	26.675776
10.310000	26.675776
10.320000	26.675776
10.330000	26.675776
10.340000	26.675776
10.350000	26.675776
10.360000	26.675776
10.370000	26.675776
10.380000	26.675776
10.390000	26.675776
10.400000	26.675776
10.410000	26.675776
10.420000	26.675776
10.430000	26.675776
10.440000	26.675776
10.450000	26.675776
10.460000	26.675776
10.470000	26.675776
10.480000	26.675776
10.490000	26.675776
10.500000	26.645175
10.510000	26.645175
10.520000	26.645175
10.530000	26.645175
10.540000	26.645175
10.550000	26.645175
10.560000	26.645175
10.570000	26.645175
10.580000	26.645175
10.590000	26.645175
10.600000	26.645175
10.610000	26.645175
10.620000	26.645175
10.630000	26.645175
10.640000	26.645175
10.650000	26.645175
10.660000	26.645175
10.670000	26.645175
10.680000	26.645175
10.690000	26.645175
10.700000	26.645175
10.710000	26.645175
10.720000	26.645175
10.730000	26.645175
10.740000	26.645175
10.750000	26.645175
10.760000	26.645175
10.770000	26.645175
10.780000	26.645175
10.790000	26.645175
10.800000	26.645175
10.810000	26.645175
10.820000	26.645175
10.830000	26.645175
10.840000	26.645175
10.850000	26.645175
10.860000	26.645175
10.870000	26.645175
10.880000	26.645175
10.890000	26.645175
10.900000	26.645175
10.910000	26.645175
10.920000	26.645175
10.930000	26.645175
10.940000	26.645175
10.950000	26.645175
10.960000	26.645175
10.970000	26.645175
10.980000	26.645175
10.990000	26.645175
11.000000	26.614581
11.010000	26.614581
11.020000	26.614581
11.030000	26.614581
11.040000	26.614581
11.050000	26.614581
11.060000	26.614581
11.070000	26.614581
11.080000	26.614581
11.090000	26.614581
11.100000	26.614581
11.110000	26.614581
11.120000	26.614581
11.130000	26.614581
11.140000	26.614581
11.150000	26.614581
11.160000	26.614581
11.170000	26.614581
11.180000	26.614581
11.190000	26.614581
11.200000	26.614581
11.210000	26.614581
11.220000	26.614581
11.230000	26.614581
11.240000	26.614581
11.250000	26.614581
11.260000	26.614581
11.270000	26.614581
11.280000	26.614581
11.290000	26.614581
11.300000	26.614581
11.310000	26.614581
11.320000	26.614581
11.330000	26.614581
11.340000	26.614581
11.350000	26.614581
11.360000	26.614581
11.370000	26.614581
11.380000	26.614581
11.390000	26.614581
11.400000	26.614581
11.410000	26.614581
11.420000	26.614581
11.430000	26.614581
11.440000	26.614581
11.450000	26.614581
11.460000	26.614581
11.470000	26.614581
11.480000	26.614581
11.490000	26.614581
11.500000	26.584210
11.510000	26.584210
11.520000	26.584210
11.530000	26.584210
11.540000	26.584210
11.550000	26.584210
11.560000	26.584210
11.570000	26.584210
11.580000	26.584210
11.590000	26.584210
11.600000	26.584210
11.610000	26.584210
11.620000	26.584210
11.630000	26.584210
11.640000	26.584210
11.650000	26.584210
11.660000	26.584210
11.670000	26.584210
11.680000	26.584210
11.690000	26.584210
11.700000	26.584210
11.710000	26.584210
11.720000	26.584210
11.730000	26.584210
11.740000	26.584210
11.750000	26.584210
11.760000	26.584210
11.770000	26.584210
11.780000	26.584210
11.790000	26.584210
11.800000	26.584210
11.810000	26.584210
11.820000	26.584210
11.830000	26.584210
11.840000	26.584210
11.850000	26.584210
11.860000	26.584210
11.870000	26.584210
11.880000	26.584210
11.890000	26.584210
11.900000	26.584210
11.910000	26.584210
11.920000	26.584210
11.930000	26.584210
11.940000	26.584210
11.950000	26.584210
11.960000	26.584210
11.970000	26.584210
11.980000	26.584210
11.990000	26.584210
12.000000	26.553797
12.010000	26.553797
12.020000	26.553797
12.030000	26.553797
12.040000	26.553797
12.050000	26.553797
12.060000	26.553797
12.070000	26.553797
12.080000	26.553797
12.090000	26.553797
12.100000	26.553797
12.110000	26.553797
12.120000	26.553797
12.130000	26.553797
12.140000	26.553797
12.150000	26.553797
12.160000	26.553797
12.170000	26.553797
12.180000	26.553797
12.190000	26.553797
12.200000	26.553797
12.210000	26.553797
12.220000	26.553797
12.230000	26.553797
12.240000	26.553797
12.250000	26.553797
12.260000	26.553797
12.270000	26.553797
12.280000	26.553797
12.290000	26.553797
12.300000	26.553797
12.310000	26.553797
12.320000	26.553797
12.330000	26.553797
12.340000	26.553797
12.350000	26.553797
12.360000	26.553797
12.370000	26.553797
12.380000	26.553797
12.390000	26.553797
12.400000	26.553797
12.410000	26.553797
12.420000	26.553797
12.430000	26.553797
12.440000	26.553797
12.450000	26.553797
12.460000	26.553797
12.470000	26.553797
12.480000	26.553797
12.490000	26.553797
12.500000	26.523675
12.510000	26.523675
12.520000	26.523675
12.530000	26.523675
12.540000	26.523675
12.550000	26.523675
12.560000	26.523675
12.570000	26.523675
12.580000	26.523675
12.590000	26.523675
12.600000	26.523675
12.610000	26.523675
12.620000	26.523675
12.630000	26.523675
12.640000	26.523675
12.650000	26.523675
12.660000	26.523675
12.670000	26.523675
12.680000	26.523675
12.690000	26.523675
12.700000	26.523675
12.710000	26.523675
12.720000	26.523675
12.730000	26.523675
12.740000	26.523675
12.750000	26.523675
12.760000	26.523675
12.770000	26.523675
12.780000	26.523675
12.790000	26.523675
12.800000	26.523675
12.810000	26.523675
12.820000	26.523675
12.830000	26.523675
12.840000	26.523675
12.850000	26.523675
12.860000	26.523675
12.870000	26.523675
12.880000	26.523675
12.890000	26.523675
12.900000	26.523675
12.910000	26.523675
12.920000	26.523675
12.930000	26.523675
12.940000	26.523675
12.950000	26.523675
12.960000	26.523675
12.970000	26.523675
12.980000	26.523675
12.990000	26.523675
13.000000	26.493041
13.010000	26.493041
13.020000	26.493041
13.030000	26.493041
13.040000	26.493041
13.050000	26.493041
13.060000	26.493041
13.070000	26.493041
13.080000	26.493041
13.090000	26.493041
13.100000	26.493041
13.110000	26.493041
13.120000	26.493041
13.130000	26.493041
13.140000	26.493041
13.150000	26.493041
13.160000	26.493041
13.170000	26.493041
13.180000	26.493041
13.190000	26.493041
13.200000	26.493041
13.210000	26.493041
13.220000	26.493041
13.230000	26.493041
13.240000	26.493041
13.250000	26.493041
13.260000	26.493041
13.270000	26.493041
13.280000	26.493041
13.290000	26.493041
13.300000	26.493041
13.310000	26.493041
13.320000	26.493041
13.330000	26.493041
13.340000	26.493041
13.350000	26.493041
13.360000	26.493041
13.370000	26.493041
13.380000	26.493041
13.390000	26.493041
13.400000	26.493041
13.410000	26.493041
13.420000	26.493041
13.430000	26.493041
13.440000	26.493041
13.450000	26.493041
13.460000	26.493041
13.470000	26.493041
13.480000	26.493041
13.490000	26.493041
13.500000	26.462447
13.510000	26.462447
13.520000	26.462447
13.530000	26.462447
13.540000	26.462447
13.550000	26.462447
13.560000	26.462447
13.570000	26.462447
13.580000	26.462447
13.590000	26.462447
13.600000	26.462447
13.610000	26.462447
13.620000	26.462447
13.630000	26.462447
13.640000	26.462447
13.650000	26.462447
13.660000	26.462447
13.670000	26.462447
13.680000	26.462447
13.690000	26.462447
13.700000	26.462447
13.710000	26.462447
13.720000	26.462447
13.730000	26.462447
13.740000	26.462447
13.750000	26.462447
13.760000	26.462447
13.770000	26.462447
13.780000	26.462447
13.790000	26.462447
13.800000	26.462447
13.810000	26.462447
13.820000	26.462447
13.830000	26.462447
13.840000	26.462447
13.850000	26.462447
13.860000	26.462447
13.870000	26.462447
13.880000	26.462447
13.890000	26.462447
13.900000	26.462447
13.910000	26.462447
13.920000	26.462447
13.930000	26.462447
13.940000	26.462447
13.950000	26.462447
13.960000	26.462447
13.970000	26.462447
13.980000	26.462447
13.990000	26.462447
14.000000	26.431156
14.010000	26.431156
14.020000	26.431156
14.030000	26.431156
14.040000	26.431156
14.050000	26.431156
14.060000	26.431156
14.070000	26.431156
14.080000	26.431156
14.090000	26.431156
14.100000	26.431156
14.110000	26.431156
14.120000	26.431156
14.130000	26.431156
14.140000	26.431156
14.150000	26.431156
14.160000	26.431156
14.170000	26.431156
14.180000	26.431156
14.190000	26.431156
14.200000	26.431156
14.210000	26.431156
14.220000	26.431156
14.230000	26.431156
14.240000	26.431156
14.250000	26.431156
14.260000	26.431156
14.270000	26.431156
14.280000	26.431156
14.290000	26.431156
14.300000	26.431156
14.310000	26.431156
14.320000	26.431156
14.330000	26.431156
14.340000	26.431156
14.350000	26.431156
14.360000	26.431156
14.370000	26.431156
14.380000	26.431156
14.390000	26.431156
14.400000	26.431156
14.410000	26.431156
14.420000	26.431156
14.430000	26.431156
14.440000	26.431156
14.450000	26.431156
14.460000	26.431156
14.470000	26.431156
14.480000	26.431156
14.490000	26.431156
14.500000	26.401121
14.510000	26.401121
14.520000	26.401121
14.530000	26.401121
14.540000	26.401121
14.550000	26.401121
14.560000	26.401121
14.570000	26.401121
14.580000	26.401121
14.590000	26.401121
14.600000	26.401121
14.610000	26.401121
14.620000	26.401121
14.630000	26.401121
14.640000	26.401121
14.650000	26.401121
14.660000	26.401121
14.670000	26.401121
14.680000	26.401121
14.690000	26.401121
14.700000	26.401121
14.710000	26.401121
14.720000	26.401121
14.730000	26.401121
14.740000	26.401121
14.750000	26.401121
14.760000	26.401121
14.770000	26.401121
14.780000	26.401121
14.790000	26.401121
14.800000	26.401121
14.810000	26.401121
14.820000	26.401121
14.830000	26.401121
14.840000	26.401121
14.850000	26.401121
14.860000	26.401121
14.870000	26.401121
14.880000	26.401121
14.890000	26.401121
14.900000	26.401121
14.910000	26.401121
14.920000	26.401121
14.930000	26.401121
14.940000	26.401121
14.950000	26.401121
14.960000	26.401121
14.970000	26.401121
14.980000	26.401121
14.990000	26.401121
15.000000	26.370615
15.010000	26.370615
15.020000	26.370615
15.030000	26.370615
15.040000	26.370615
15.050000	26.370615
15.060000	26.370615
15.070000	26.370615
15.080000	26.370615
15.090000	26.370615
15.100000	26.370615
15.110000	26.370615
15.120000	26.370615
15.130000	26.370615
15.140000	26.370615
15.150000	26.370615
15.160000	26.370615
15.170000	26.370615
15.180000	26.370615
15.190000	26.370615
15.200000	26.370615
15.210000	26.370615
15.220000	26.370615
15.230000	26.370615
15.240000	26.370615
15.250000	26.370615
15.260000	26.370615
15.270000	26.370615
15.280000	26.370615
15.290000	26.370615
15.300000	26.370615
15.310000	26.370615
15.320000	26.370615
15.330000	26.370615
15.340000	26.370615
15.350000	26.370615
15.360000	26.370615
15.370000	26.370615
15.380000	26.370615
15.390000	26.370615
15.400000	26.370615
15.410000	26.370615
15.420000	26.370615
15.430000	26.370615
15.440000	26.370615
15.450000	26.370615
15.460000	26.370615
15.470000	26.370615
15.480000	26.370615
15.490000	26.370615
15.500000	26.338511
15.510000	26.338511
15.520000	26.338511
15.530000	26.338511
15.540000	26.338511
15.550000	26.338511
15.560000	26.338511
15.570000	26.338511
15.580000	26.338511
15.590000	26.338511
15.600000	26.338511
15.610000	26.338511
15.620000	26.338511
15.630000	26.338511
15.640000	26.338511
15.650000	26.338511
15.660000	26.338511
15.670000	26.338511
15.680000	26.338511
15.690000	26.338511
15.700000	26.338511
15.710000	26.338511
15.720000	26.338511
15.730000	26.338511
15.740000	26.338511
15.750000	26.338511
15.760000	26.338511
15.770000	26.338511
15.780000	26.338511
15.790000	26.338511
15.800000	26.338511
15.810000	26.338511
15.820000	26.338511
15.830000	26.338511
15.840000	26.338511
15.850000	26.338511
15.860000	26.338511
15.870000	26.338511
15.880000	26.338511
15.890000	26.338511
15.900000	26.338511
15.910000	26.338511
15.920000	26.338511
15.930000	26.338511
15.940000	26.338511
15.950000	26.338511
15.960000	26.338511
15.970000	26.338511
15.980000	26.338511
15.990000	26.338511
16.000000	26.307379
16.010000	26.307379
16.020000	26.307379
16.030000	26.307379
16.040000	26.307379
16.050000	26.307379
16.060000	26.307379
16.070000	26.307379
16.080000	26.307379
16.090000	26.307379
16.100000	26.307379
16.110000	26.307379
16.120000	26.307379
16.130000	26.307379
16.140000	26.307379
16.150000	26.307379
16.160000	26.307379
16.170000	26.307379
16.180000	26.307379
16.190000	26.307379
16.200000	26.307379
16.210000	26.307379
16.220000	26.307379
16.230000	26.307379
16.240000	26.307379
16.250000	26.307379
16.260000	26.307379
16.270000	26.307379
16.280000	26.307379
16.290000	26.307379
16.300000	26.307379
16.310000	26.307379
16.320000	26.307379
16.330000	26.307379
16.340000	26.307379
16.350000	26.307379
16.360000	26.307379
16.370000	26.307379
16.380000	26.307379
16.390000	26.307379
16.400000	26.307379
16.410000	26.307379
16.420000	26.307379
16.430000	26.307379
16.440000	26.307379
16.450000	26.307379
16.460000	26.307379
16.470000	26.307379
16.480000	26.307379
16.490000	26.307379
16.500000	26.277808
16.510000	26.277808
16.520000	26.277808
16.530000	26.277808
16.540000	26.277808
16.550000	26.277808
16.560000	26.277808
16.570000	26.277808
16.580000	26.277808
16.590000	26.277808
16.600000	26.277808
16.610000	26.277808
16.620000	26.277808
16.630000	26.277808
16.640000	26.277808
16.650000	26.277808
16.660000	26.277808
16.670000	26.277808
16.680000	26.277808
16.690000	26.277808
16.700000	26.277808
16.710000	26.277808
16.720000	26.277808
16.730000	26.277808
16.740000	26.277808
16.750000	26.277808
16.760000	26.277808
16.770000	26.277808
16.780000	26.277808
16.790000	26.277808
16.800000	26.277808
16.810000	26.277808
16.820000	26.277808
16.830000	26.277808
16.840000	26.277808
16.850000	26.277808
16.860000	26.277808
16.870000	26.277808
16.880000	26.277808
16.890000	26.277808
16.900000	26.277808
16.910000	26.277808
16.920000	26.277808
16.930000	26.277808
16.940000	26.277808
16.950000	26.277808
16.960000	26.277808
16.970000	26.277808
16.980000	26.277808
16.990000	26.277808
17.000000	26.248396
17.010000	26.248396
17.020000	26.248396
17.030000	26.248396
17.040000	26.248396
17.050000	26.248396
17.060000	26.248396
17.070000	26.248396
17.080000	26.248396
17.090000	26.248396
17.100000	26.248396
17.110000	26.248396
17.120000	26.248396
17.130000	26.248396
17.140000	26.248396
17.150000	26.248396
17.160000	26.248396
17.170000	26.248396
17.180000	26.248396
17.190000	26.248396
17.200000	26.248396
17.210000	26.248396
17.220000	26.248396
17.230000	26.248396
17.240000	26.248396
17.250000	26.248396
17.260000	26.248396
17.270000	26.248396
17.280000	26.248396
17.290000	26.248396
17.300000	26.248396
17.310000	26.248396
17.320000	26.248396
17.330000	26.248396
17.340000	26.248396
17.350000	26.248396
17.360000	26.248396
17.370000	26.248396
17.380000	26.248396
17.390000	26.248396
17.400000	26.248396
17.410000	26.248396
17.420000	26.248396
17.430000	26.248396
17.440000	26.248396
17.450000	26.248396
17.460000	26.248396
17.470000	26.248396
17.480000	26.248396
17.490000	26.248396
