LabVIEW Measurement	
Writer_Version	2
Reader_Version	2
Separator	Tab
Decimal_Separator	.
Multi_Headings	No
X_Columns	One
Time_Pref	Absolute
Operator	biomech-dyno
Date	2023/05/01
Time	15:28:10.3296671999997826969
***End_of_Header***	
	
Channels	1	
Samples	10	
Date	2023/05/01	
Time	16:06:05.564372199999661168	
X_Dimension	Time	
X0	0.0000000000000000E+0	
Delta_X	0.010000	
***End_of_Header***		
X_Value	Untitled	Comment
0.000000	24.394639
0.010000	24.394639
0.020000	24.394639
0.030000	24.394639
0.040000	24.394639
0.050000	24.394639
0.060000	24.394639
0.070000	24.394639
0.080000	24.394639
0.090000	24.394639
0.100000	24.394639
0.110000	24.394639
0.120000	24.394639
0.130000	24.394639
0.140000	24.394639
0.150000	24.394639
0.160000	24.394639
0.170000	24.394639
0.180000	24.394639
0.190000	24.394639
0.200000	24.394639
0.210000	24.394639
0.220000	24.394639
0.230000	24.394639
0.240000	24.394639
0.250000	24.394639
0.260000	24.394639
0.270000	24.394639
0.280000	24.394639
0.290000	24.394639
0.300000	24.394639
0.310000	24.394639
0.320000	24.394639
0.330000	24.394639
0.340000	24.394639
0.350000	24.394639
0.360000	24.394639
0.370000	24.394639
0.380000	24.394639
0.390000	24.394639
0.400000	24.394639
0.410000	24.394639
0.420000	24.394639
0.430000	24.394639
0.440000	24.394639
0.450000	24.394639
0.460000	24.394639
0.470000	24.394639
0.480000	24.394639
0.490000	24.394639
0.500000	24.398387
0.510000	24.398387
0.520000	24.398387
0.530000	24.398387
0.540000	24.398387
0.550000	24.398387
0.560000	24.398387
0.570000	24.398387
0.580000	24.398387
0.590000	24.398387
0.600000	24.398387
0.610000	24.398387
0.620000	24.398387
0.630000	24.398387
0.640000	24.398387
0.650000	24.398387
0.660000	24.398387
0.670000	24.398387
0.680000	24.398387
0.690000	24.398387
0.700000	24.398387
0.710000	24.398387
0.720000	24.398387
0.730000	24.398387
0.740000	24.398387
0.750000	24.398387
0.760000	24.398387
0.770000	24.398387
0.780000	24.398387
0.790000	24.398387
0.800000	24.398387
0.810000	24.398387
0.820000	24.398387
0.830000	24.398387
0.840000	24.398387
0.850000	24.398387
0.860000	24.398387
0.870000	24.398387
0.880000	24.398387
0.890000	24.398387
0.900000	24.398387
0.910000	24.398387
0.920000	24.398387
0.930000	24.398387
0.940000	24.398387
0.950000	24.398387
0.960000	24.398387
0.970000	24.398387
0.980000	24.398387
0.990000	24.398387
1.000000	24.404999
1.010000	24.404999
1.020000	24.404999
1.030000	24.404999
1.040000	24.404999
1.050000	24.404999
1.060000	24.404999
1.070000	24.404999
1.080000	24.404999
1.090000	24.404999
1.100000	24.404999
1.110000	24.404999
1.120000	24.404999
1.130000	24.404999
1.140000	24.404999
1.150000	24.404999
1.160000	24.404999
1.170000	24.404999
1.180000	24.404999
1.190000	24.404999
1.200000	24.404999
1.210000	24.404999
1.220000	24.404999
1.230000	24.404999
1.240000	24.404999
1.250000	24.404999
1.260000	24.404999
1.270000	24.404999
1.280000	24.404999
1.290000	24.404999
1.300000	24.404999
1.310000	24.404999
1.320000	24.404999
1.330000	24.404999
1.340000	24.404999
1.350000	24.404999
1.360000	24.404999
1.370000	24.404999
1.380000	24.404999
1.390000	24.404999
1.400000	24.404999
1.410000	24.404999
1.420000	24.404999
1.430000	24.404999
1.440000	24.404999
1.450000	24.404999
1.460000	24.404999
1.470000	24.404999
1.480000	24.404999
1.490000	24.404999
1.500000	24.414773
1.510000	24.414773
1.520000	24.414773
1.530000	24.414773
1.540000	24.414773
1.550000	24.414773
1.560000	24.414773
1.570000	24.414773
1.580000	24.414773
1.590000	24.414773
1.600000	24.414773
1.610000	24.414773
1.620000	24.414773
1.630000	24.414773
1.640000	24.414773
1.650000	24.414773
1.660000	24.414773
1.670000	24.414773
1.680000	24.414773
1.690000	24.414773
1.700000	24.414773
1.710000	24.414773
1.720000	24.414773
1.730000	24.414773
1.740000	24.414773
1.750000	24.414773
1.760000	24.414773
1.770000	24.414773
1.780000	24.414773
1.790000	24.414773
1.800000	24.414773
1.810000	24.414773
1.820000	24.414773
1.830000	24.414773
1.840000	24.414773
1.850000	24.414773
1.860000	24.414773
1.870000	24.414773
1.880000	24.414773
1.890000	24.414773
1.900000	24.414773
1.910000	24.414773
1.920000	24.414773
1.930000	24.414773
1.940000	24.414773
1.950000	24.414773
1.960000	24.414773
1.970000	24.414773
1.980000	24.414773
1.990000	24.414773
2.000000	24.427015
2.010000	24.427015
2.020000	24.427015
2.030000	24.427015
2.040000	24.427015
2.050000	24.427015
2.060000	24.427015
2.070000	24.427015
2.080000	24.427015
2.090000	24.427015
2.100000	24.427015
2.110000	24.427015
2.120000	24.427015
2.130000	24.427015
2.140000	24.427015
2.150000	24.427015
2.160000	24.427015
2.170000	24.427015
2.180000	24.427015
2.190000	24.427015
2.200000	24.427015
2.210000	24.427015
2.220000	24.427015
2.230000	24.427015
2.240000	24.427015
2.250000	24.427015
2.260000	24.427015
2.270000	24.427015
2.280000	24.427015
2.290000	24.427015
2.300000	24.427015
2.310000	24.427015
2.320000	24.427015
2.330000	24.427015
2.340000	24.427015
2.350000	24.427015
2.360000	24.427015
2.370000	24.427015
2.380000	24.427015
2.390000	24.427015
2.400000	24.427015
2.410000	24.427015
2.420000	24.427015
2.430000	24.427015
2.440000	24.427015
2.450000	24.427015
2.460000	24.427015
2.470000	24.427015
2.480000	24.427015
2.490000	24.427015
2.500000	24.441793
2.510000	24.441793
2.520000	24.441793
2.530000	24.441793
2.540000	24.441793
2.550000	24.441793
2.560000	24.441793
2.570000	24.441793
2.580000	24.441793
2.590000	24.441793
2.600000	24.441793
2.610000	24.441793
2.620000	24.441793
2.630000	24.441793
2.640000	24.441793
2.650000	24.441793
2.660000	24.441793
2.670000	24.441793
2.680000	24.441793
2.690000	24.441793
2.700000	24.441793
2.710000	24.441793
2.720000	24.441793
2.730000	24.441793
2.740000	24.441793
2.750000	24.441793
2.760000	24.441793
2.770000	24.441793
2.780000	24.441793
2.790000	24.441793
2.800000	24.441793
2.810000	24.441793
2.820000	24.441793
2.830000	24.441793
2.840000	24.441793
2.850000	24.441793
2.860000	24.441793
2.870000	24.441793
2.880000	24.441793
2.890000	24.441793
2.900000	24.441793
2.910000	24.441793
2.920000	24.441793
2.930000	24.441793
2.940000	24.441793
2.950000	24.441793
2.960000	24.441793
2.970000	24.441793
2.980000	24.441793
2.990000	24.441793
3.000000	24.458129
3.010000	24.458129
3.020000	24.458129
3.030000	24.458129
3.040000	24.458129
3.050000	24.458129
3.060000	24.458129
3.070000	24.458129
3.080000	24.458129
3.090000	24.458129
3.100000	24.458129
3.110000	24.458129
3.120000	24.458129
3.130000	24.458129
3.140000	24.458129
3.150000	24.458129
3.160000	24.458129
3.170000	24.458129
3.180000	24.458129
3.190000	24.458129
3.200000	24.458129
3.210000	24.458129
3.220000	24.458129
3.230000	24.458129
3.240000	24.458129
3.250000	24.458129
3.260000	24.458129
3.270000	24.458129
3.280000	24.458129
3.290000	24.458129
3.300000	24.458129
3.310000	24.458129
3.320000	24.458129
3.330000	24.458129
3.340000	24.458129
3.350000	24.458129
3.360000	24.458129
3.370000	24.458129
3.380000	24.458129
3.390000	24.458129
3.400000	24.458129
3.410000	24.458129
3.420000	24.458129
3.430000	24.458129
3.440000	24.458129
3.450000	24.458129
3.460000	24.458129
3.470000	24.458129
3.480000	24.458129
3.490000	24.458129
3.500000	24.473448
3.510000	24.473448
3.520000	24.473448
3.530000	24.473448
3.540000	24.473448
3.550000	24.473448
3.560000	24.473448
3.570000	24.473448
3.580000	24.473448
3.590000	24.473448
3.600000	24.473448
3.610000	24.473448
3.620000	24.473448
3.630000	24.473448
3.640000	24.473448
3.650000	24.473448
3.660000	24.473448
3.670000	24.473448
3.680000	24.473448
3.690000	24.473448
3.700000	24.473448
3.710000	24.473448
3.720000	24.473448
3.730000	24.473448
3.740000	24.473448
3.750000	24.473448
3.760000	24.473448
3.770000	24.473448
3.780000	24.473448
3.790000	24.473448
3.800000	24.473448
3.810000	24.473448
3.820000	24.473448
3.830000	24.473448
3.840000	24.473448
3.850000	24.473448
3.860000	24.473448
3.870000	24.473448
3.880000	24.473448
3.890000	24.473448
3.900000	24.473448
3.910000	24.473448
3.920000	24.473448
3.930000	24.473448
3.940000	24.473448
3.950000	24.473448
3.960000	24.473448
3.970000	24.473448
3.980000	24.473448
3.990000	24.473448
4.000000	24.487654
4.010000	24.487654
4.020000	24.487654
4.030000	24.487654
4.040000	24.487654
4.050000	24.487654
4.060000	24.487654
4.070000	24.487654
4.080000	24.487654
4.090000	24.487654
4.100000	24.487654
4.110000	24.487654
4.120000	24.487654
4.130000	24.487654
4.140000	24.487654
4.150000	24.487654
4.160000	24.487654
4.170000	24.487654
4.180000	24.487654
4.190000	24.487654
4.200000	24.487654
4.210000	24.487654
4.220000	24.487654
4.230000	24.487654
4.240000	24.487654
4.250000	24.487654
4.260000	24.487654
4.270000	24.487654
4.280000	24.487654
4.290000	24.487654
4.300000	24.487654
4.310000	24.487654
4.320000	24.487654
4.330000	24.487654
4.340000	24.487654
4.350000	24.487654
4.360000	24.487654
4.370000	24.487654
4.380000	24.487654
4.390000	24.487654
4.400000	24.487654
4.410000	24.487654
4.420000	24.487654
4.430000	24.487654
4.440000	24.487654
4.450000	24.487654
4.460000	24.487654
4.470000	24.487654
4.480000	24.487654
4.490000	24.487654
4.500000	24.500505
4.510000	24.500505
4.520000	24.500505
4.530000	24.500505
4.540000	24.500505
4.550000	24.500505
4.560000	24.500505
4.570000	24.500505
4.580000	24.500505
4.590000	24.500505
4.600000	24.500505
4.610000	24.500505
4.620000	24.500505
4.630000	24.500505
4.640000	24.500505
4.650000	24.500505
4.660000	24.500505
4.670000	24.500505
4.680000	24.500505
4.690000	24.500505
4.700000	24.500505
4.710000	24.500505
4.720000	24.500505
4.730000	24.500505
4.740000	24.500505
4.750000	24.500505
4.760000	24.500505
4.770000	24.500505
4.780000	24.500505
4.790000	24.500505
4.800000	24.500505
4.810000	24.500505
4.820000	24.500505
4.830000	24.500505
4.840000	24.500505
4.850000	24.500505
4.860000	24.500505
4.870000	24.500505
4.880000	24.500505
4.890000	24.500505
4.900000	24.500505
4.910000	24.500505
4.920000	24.500505
4.930000	24.500505
4.940000	24.500505
4.950000	24.500505
4.960000	24.500505
4.970000	24.500505
4.980000	24.500505
4.990000	24.500505
5.000000	24.512228
5.010000	24.512228
5.020000	24.512228
5.030000	24.512228
5.040000	24.512228
5.050000	24.512228
5.060000	24.512228
5.070000	24.512228
5.080000	24.512228
5.090000	24.512228
5.100000	24.512228
5.110000	24.512228
5.120000	24.512228
5.130000	24.512228
5.140000	24.512228
5.150000	24.512228
5.160000	24.512228
5.170000	24.512228
5.180000	24.512228
5.190000	24.512228
5.200000	24.512228
5.210000	24.512228
5.220000	24.512228
5.230000	24.512228
5.240000	24.512228
5.250000	24.512228
5.260000	24.512228
5.270000	24.512228
5.280000	24.512228
5.290000	24.512228
5.300000	24.512228
5.310000	24.512228
5.320000	24.512228
5.330000	24.512228
5.340000	24.512228
5.350000	24.512228
5.360000	24.512228
5.370000	24.512228
5.380000	24.512228
5.390000	24.512228
5.400000	24.512228
5.410000	24.512228
5.420000	24.512228
5.430000	24.512228
5.440000	24.512228
5.450000	24.512228
5.460000	24.512228
5.470000	24.512228
5.480000	24.512228
5.490000	24.512228
5.500000	24.522641
5.510000	24.522641
5.520000	24.522641
5.530000	24.522641
5.540000	24.522641
5.550000	24.522641
5.560000	24.522641
5.570000	24.522641
5.580000	24.522641
5.590000	24.522641
5.600000	24.522641
5.610000	24.522641
5.620000	24.522641
5.630000	24.522641
5.640000	24.522641
5.650000	24.522641
5.660000	24.522641
5.670000	24.522641
5.680000	24.522641
5.690000	24.522641
5.700000	24.522641
5.710000	24.522641
5.720000	24.522641
5.730000	24.522641
5.740000	24.522641
5.750000	24.522641
5.760000	24.522641
5.770000	24.522641
5.780000	24.522641
5.790000	24.522641
5.800000	24.522641
5.810000	24.522641
5.820000	24.522641
5.830000	24.522641
5.840000	24.522641
5.850000	24.522641
5.860000	24.522641
5.870000	24.522641
5.880000	24.522641
5.890000	24.522641
5.900000	24.522641
5.910000	24.522641
5.920000	24.522641
5.930000	24.522641
5.940000	24.522641
5.950000	24.522641
5.960000	24.522641
5.970000	24.522641
5.980000	24.522641
5.990000	24.522641
6.000000	24.532268
6.010000	24.532268
6.020000	24.532268
6.030000	24.532268
6.040000	24.532268
6.050000	24.532268
6.060000	24.532268
6.070000	24.532268
6.080000	24.532268
6.090000	24.532268
6.100000	24.532268
6.110000	24.532268
6.120000	24.532268
6.130000	24.532268
6.140000	24.532268
6.150000	24.532268
6.160000	24.532268
6.170000	24.532268
6.180000	24.532268
6.190000	24.532268
6.200000	24.532268
6.210000	24.532268
6.220000	24.532268
6.230000	24.532268
6.240000	24.532268
6.250000	24.532268
6.260000	24.532268
6.270000	24.532268
6.280000	24.532268
6.290000	24.532268
6.300000	24.532268
6.310000	24.532268
6.320000	24.532268
6.330000	24.532268
6.340000	24.532268
6.350000	24.532268
6.360000	24.532268
6.370000	24.532268
6.380000	24.532268
6.390000	24.532268
6.400000	24.532268
6.410000	24.532268
6.420000	24.532268
6.430000	24.532268
6.440000	24.532268
6.450000	24.532268
6.460000	24.532268
6.470000	24.532268
6.480000	24.532268
6.490000	24.532268
6.500000	24.540047
6.510000	24.540047
6.520000	24.540047
6.530000	24.540047
6.540000	24.540047
6.550000	24.540047
6.560000	24.540047
6.570000	24.540047
6.580000	24.540047
6.590000	24.540047
6.600000	24.540047
6.610000	24.540047
6.620000	24.540047
6.630000	24.540047
6.640000	24.540047
6.650000	24.540047
6.660000	24.540047
6.670000	24.540047
6.680000	24.540047
6.690000	24.540047
6.700000	24.540047
6.710000	24.540047
6.720000	24.540047
6.730000	24.540047
6.740000	24.540047
6.750000	24.540047
6.760000	24.540047
6.770000	24.540047
6.780000	24.540047
6.790000	24.540047
6.800000	24.540047
6.810000	24.540047
6.820000	24.540047
6.830000	24.540047
6.840000	24.540047
6.850000	24.540047
6.860000	24.540047
6.870000	24.540047
6.880000	24.540047
6.890000	24.540047
6.900000	24.540047
6.910000	24.540047
6.920000	24.540047
6.930000	24.540047
6.940000	24.540047
6.950000	24.540047
6.960000	24.540047
6.970000	24.540047
6.980000	24.540047
6.990000	24.540047
7.000000	24.546927
7.010000	24.546927
7.020000	24.546927
7.030000	24.546927
7.040000	24.546927
7.050000	24.546927
7.060000	24.546927
7.070000	24.546927
7.080000	24.546927
7.090000	24.546927
7.100000	24.546927
7.110000	24.546927
7.120000	24.546927
7.130000	24.546927
7.140000	24.546927
7.150000	24.546927
7.160000	24.546927
7.170000	24.546927
7.180000	24.546927
7.190000	24.546927
7.200000	24.546927
7.210000	24.546927
7.220000	24.546927
7.230000	24.546927
7.240000	24.546927
7.250000	24.546927
7.260000	24.546927
7.270000	24.546927
7.280000	24.546927
7.290000	24.546927
7.300000	24.546927
7.310000	24.546927
7.320000	24.546927
7.330000	24.546927
7.340000	24.546927
7.350000	24.546927
7.360000	24.546927
7.370000	24.546927
7.380000	24.546927
7.390000	24.546927
7.400000	24.546927
7.410000	24.546927
7.420000	24.546927
7.430000	24.546927
7.440000	24.546927
7.450000	24.546927
7.460000	24.546927
7.470000	24.546927
7.480000	24.546927
7.490000	24.546927
7.500000	24.552491
7.510000	24.552491
7.520000	24.552491
7.530000	24.552491
7.540000	24.552491
7.550000	24.552491
7.560000	24.552491
7.570000	24.552491
7.580000	24.552491
7.590000	24.552491
7.600000	24.552491
7.610000	24.552491
7.620000	24.552491
7.630000	24.552491
7.640000	24.552491
7.650000	24.552491
7.660000	24.552491
7.670000	24.552491
7.680000	24.552491
7.690000	24.552491
7.700000	24.552491
7.710000	24.552491
7.720000	24.552491
7.730000	24.552491
7.740000	24.552491
7.750000	24.552491
7.760000	24.552491
7.770000	24.552491
7.780000	24.552491
7.790000	24.552491
7.800000	24.552491
7.810000	24.552491
7.820000	24.552491
7.830000	24.552491
7.840000	24.552491
7.850000	24.552491
7.860000	24.552491
7.870000	24.552491
7.880000	24.552491
7.890000	24.552491
7.900000	24.552491
7.910000	24.552491
7.920000	24.552491
7.930000	24.552491
7.940000	24.552491
7.950000	24.552491
7.960000	24.552491
7.970000	24.552491
7.980000	24.552491
7.990000	24.552491
8.000000	24.557585
8.010000	24.557585
8.020000	24.557585
8.030000	24.557585
8.040000	24.557585
8.050000	24.557585
8.060000	24.557585
8.070000	24.557585
8.080000	24.557585
8.090000	24.557585
8.100000	24.557585
8.110000	24.557585
8.120000	24.557585
8.130000	24.557585
8.140000	24.557585
8.150000	24.557585
8.160000	24.557585
8.170000	24.557585
8.180000	24.557585
8.190000	24.557585
8.200000	24.557585
8.210000	24.557585
8.220000	24.557585
8.230000	24.557585
8.240000	24.557585
8.250000	24.557585
8.260000	24.557585
8.270000	24.557585
8.280000	24.557585
8.290000	24.557585
8.300000	24.557585
8.310000	24.557585
8.320000	24.557585
8.330000	24.557585
8.340000	24.557585
8.350000	24.557585
8.360000	24.557585
8.370000	24.557585
8.380000	24.557585
8.390000	24.557585
8.400000	24.557585
8.410000	24.557585
8.420000	24.557585
8.430000	24.557585
8.440000	24.557585
8.450000	24.557585
8.460000	24.557585
8.470000	24.557585
8.480000	24.557585
8.490000	24.557585
8.500000	24.561895
8.510000	24.561895
8.520000	24.561895
8.530000	24.561895
8.540000	24.561895
8.550000	24.561895
8.560000	24.561895
8.570000	24.561895
8.580000	24.561895
8.590000	24.561895
8.600000	24.561895
8.610000	24.561895
8.620000	24.561895
8.630000	24.561895
8.640000	24.561895
8.650000	24.561895
8.660000	24.561895
8.670000	24.561895
8.680000	24.561895
8.690000	24.561895
8.700000	24.561895
8.710000	24.561895
8.720000	24.561895
8.730000	24.561895
8.740000	24.561895
8.750000	24.561895
8.760000	24.561895
8.770000	24.561895
8.780000	24.561895
8.790000	24.561895
8.800000	24.561895
8.810000	24.561895
8.820000	24.561895
8.830000	24.561895
8.840000	24.561895
8.850000	24.561895
8.860000	24.561895
8.870000	24.561895
8.880000	24.561895
8.890000	24.561895
8.900000	24.561895
8.910000	24.561895
8.920000	24.561895
8.930000	24.561895
8.940000	24.561895
8.950000	24.561895
8.960000	24.561895
8.970000	24.561895
8.980000	24.561895
8.990000	24.561895
9.000000	24.565682
9.010000	24.565682
9.020000	24.565682
9.030000	24.565682
9.040000	24.565682
9.050000	24.565682
9.060000	24.565682
9.070000	24.565682
9.080000	24.565682
9.090000	24.565682
9.100000	24.565682
9.110000	24.565682
9.120000	24.565682
9.130000	24.565682
9.140000	24.565682
9.150000	24.565682
9.160000	24.565682
9.170000	24.565682
9.180000	24.565682
9.190000	24.565682
9.200000	24.565682
9.210000	24.565682
9.220000	24.565682
9.230000	24.565682
9.240000	24.565682
9.250000	24.565682
9.260000	24.565682
9.270000	24.565682
9.280000	24.565682
9.290000	24.565682
9.300000	24.565682
9.310000	24.565682
9.320000	24.565682
9.330000	24.565682
9.340000	24.565682
9.350000	24.565682
9.360000	24.565682
9.370000	24.565682
9.380000	24.565682
9.390000	24.565682
9.400000	24.565682
9.410000	24.565682
9.420000	24.565682
9.430000	24.565682
9.440000	24.565682
9.450000	24.565682
9.460000	24.565682
9.470000	24.565682
9.480000	24.565682
9.490000	24.565682
9.500000	24.569059
9.510000	24.569059
9.520000	24.569059
9.530000	24.569059
9.540000	24.569059
9.550000	24.569059
9.560000	24.569059
9.570000	24.569059
9.580000	24.569059
9.590000	24.569059
9.600000	24.569059
9.610000	24.569059
9.620000	24.569059
9.630000	24.569059
9.640000	24.569059
9.650000	24.569059
9.660000	24.569059
9.670000	24.569059
9.680000	24.569059
9.690000	24.569059
9.700000	24.569059
9.710000	24.569059
9.720000	24.569059
9.730000	24.569059
9.740000	24.569059
9.750000	24.569059
9.760000	24.569059
9.770000	24.569059
9.780000	24.569059
9.790000	24.569059
9.800000	24.569059
9.810000	24.569059
9.820000	24.569059
9.830000	24.569059
9.840000	24.569059
9.850000	24.569059
9.860000	24.569059
9.870000	24.569059
9.880000	24.569059
9.890000	24.569059
9.900000	24.569059
9.910000	24.569059
9.920000	24.569059
9.930000	24.569059
9.940000	24.569059
9.950000	24.569059
9.960000	24.569059
9.970000	24.569059
9.980000	24.569059
9.990000	24.569059
10.000000	24.571714
10.010000	24.571714
10.020000	24.571714
10.030000	24.571714
10.040000	24.571714
10.050000	24.571714
10.060000	24.571714
10.070000	24.571714
10.080000	24.571714
10.090000	24.571714
10.100000	24.571714
10.110000	24.571714
10.120000	24.571714
10.130000	24.571714
10.140000	24.571714
10.150000	24.571714
10.160000	24.571714
10.170000	24.571714
10.180000	24.571714
10.190000	24.571714
10.200000	24.571714
10.210000	24.571714
10.220000	24.571714
10.230000	24.571714
10.240000	24.571714
10.250000	24.571714
10.260000	24.571714
10.270000	24.571714
10.280000	24.571714
10.290000	24.571714
10.300000	24.571714
10.310000	24.571714
10.320000	24.571714
10.330000	24.571714
10.340000	24.571714
10.350000	24.571714
10.360000	24.571714
10.370000	24.571714
10.380000	24.571714
10.390000	24.571714
10.400000	24.571714
10.410000	24.571714
10.420000	24.571714
10.430000	24.571714
10.440000	24.571714
10.450000	24.571714
10.460000	24.571714
10.470000	24.571714
10.480000	24.571714
10.490000	24.571714
10.500000	24.574081
10.510000	24.574081
10.520000	24.574081
10.530000	24.574081
10.540000	24.574081
10.550000	24.574081
10.560000	24.574081
10.570000	24.574081
10.580000	24.574081
10.590000	24.574081
10.600000	24.574081
10.610000	24.574081
10.620000	24.574081
10.630000	24.574081
10.640000	24.574081
10.650000	24.574081
10.660000	24.574081
10.670000	24.574081
10.680000	24.574081
10.690000	24.574081
10.700000	24.574081
10.710000	24.574081
10.720000	24.574081
10.730000	24.574081
10.740000	24.574081
10.750000	24.574081
10.760000	24.574081
10.770000	24.574081
10.780000	24.574081
10.790000	24.574081
10.800000	24.574081
10.810000	24.574081
10.820000	24.574081
10.830000	24.574081
10.840000	24.574081
10.850000	24.574081
10.860000	24.574081
10.870000	24.574081
10.880000	24.574081
10.890000	24.574081
10.900000	24.574081
10.910000	24.574081
10.920000	24.574081
10.930000	24.574081
10.940000	24.574081
10.950000	24.574081
10.960000	24.574081
10.970000	24.574081
10.980000	24.574081
10.990000	24.574081
11.000000	24.575831
11.010000	24.575831
11.020000	24.575831
11.030000	24.575831
11.040000	24.575831
11.050000	24.575831
11.060000	24.575831
11.070000	24.575831
11.080000	24.575831
11.090000	24.575831
11.100000	24.575831
11.110000	24.575831
11.120000	24.575831
11.130000	24.575831
11.140000	24.575831
11.150000	24.575831
11.160000	24.575831
11.170000	24.575831
11.180000	24.575831
11.190000	24.575831
11.200000	24.575831
11.210000	24.575831
11.220000	24.575831
11.230000	24.575831
11.240000	24.575831
11.250000	24.575831
11.260000	24.575831
11.270000	24.575831
11.280000	24.575831
11.290000	24.575831
11.300000	24.575831
11.310000	24.575831
11.320000	24.575831
11.330000	24.575831
11.340000	24.575831
11.350000	24.575831
11.360000	24.575831
11.370000	24.575831
11.380000	24.575831
11.390000	24.575831
11.400000	24.575831
11.410000	24.575831
11.420000	24.575831
11.430000	24.575831
11.440000	24.575831
11.450000	24.575831
11.460000	24.575831
11.470000	24.575831
11.480000	24.575831
11.490000	24.575831
11.500000	24.577702
11.510000	24.577702
11.520000	24.577702
11.530000	24.577702
11.540000	24.577702
11.550000	24.577702
11.560000	24.577702
11.570000	24.577702
11.580000	24.577702
11.590000	24.577702
11.600000	24.577702
11.610000	24.577702
11.620000	24.577702
11.630000	24.577702
11.640000	24.577702
11.650000	24.577702
11.660000	24.577702
11.670000	24.577702
11.680000	24.577702
11.690000	24.577702
11.700000	24.577702
11.710000	24.577702
11.720000	24.577702
11.730000	24.577702
11.740000	24.577702
11.750000	24.577702
11.760000	24.577702
11.770000	24.577702
11.780000	24.577702
11.790000	24.577702
11.800000	24.577702
11.810000	24.577702
11.820000	24.577702
11.830000	24.577702
11.840000	24.577702
11.850000	24.577702
11.860000	24.577702
11.870000	24.577702
11.880000	24.577702
11.890000	24.577702
11.900000	24.577702
11.910000	24.577702
11.920000	24.577702
11.930000	24.577702
11.940000	24.577702
11.950000	24.577702
11.960000	24.577702
11.970000	24.577702
11.980000	24.577702
11.990000	24.577702
12.000000	24.578720
12.010000	24.578720
12.020000	24.578720
12.030000	24.578720
12.040000	24.578720
12.050000	24.578720
12.060000	24.578720
12.070000	24.578720
12.080000	24.578720
12.090000	24.578720
12.100000	24.578720
12.110000	24.578720
12.120000	24.578720
12.130000	24.578720
12.140000	24.578720
12.150000	24.578720
12.160000	24.578720
12.170000	24.578720
12.180000	24.578720
12.190000	24.578720
12.200000	24.578720
12.210000	24.578720
12.220000	24.578720
12.230000	24.578720
12.240000	24.578720
12.250000	24.578720
12.260000	24.578720
12.270000	24.578720
12.280000	24.578720
12.290000	24.578720
12.300000	24.578720
12.310000	24.578720
12.320000	24.578720
12.330000	24.578720
12.340000	24.578720
12.350000	24.578720
12.360000	24.578720
12.370000	24.578720
12.380000	24.578720
12.390000	24.578720
12.400000	24.578720
12.410000	24.578720
12.420000	24.578720
12.430000	24.578720
12.440000	24.578720
12.450000	24.578720
12.460000	24.578720
12.470000	24.578720
12.480000	24.578720
12.490000	24.578720
12.500000	24.579190
12.510000	24.579190
12.520000	24.579190
12.530000	24.579190
12.540000	24.579190
12.550000	24.579190
12.560000	24.579190
12.570000	24.579190
12.580000	24.579190
12.590000	24.579190
12.600000	24.579190
12.610000	24.579190
12.620000	24.579190
12.630000	24.579190
12.640000	24.579190
12.650000	24.579190
12.660000	24.579190
12.670000	24.579190
12.680000	24.579190
12.690000	24.579190
12.700000	24.579190
12.710000	24.579190
12.720000	24.579190
12.730000	24.579190
12.740000	24.579190
12.750000	24.579190
12.760000	24.579190
12.770000	24.579190
12.780000	24.579190
12.790000	24.579190
12.800000	24.579190
12.810000	24.579190
12.820000	24.579190
12.830000	24.579190
12.840000	24.579190
12.850000	24.579190
12.860000	24.579190
12.870000	24.579190
12.880000	24.579190
12.890000	24.579190
12.900000	24.579190
12.910000	24.579190
12.920000	24.579190
12.930000	24.579190
12.940000	24.579190
12.950000	24.579190
12.960000	24.579190
12.970000	24.579190
12.980000	24.579190
12.990000	24.579190
13.000000	24.580025
13.010000	24.580025
13.020000	24.580025
13.030000	24.580025
13.040000	24.580025
13.050000	24.580025
13.060000	24.580025
13.070000	24.580025
13.080000	24.580025
13.090000	24.580025
13.100000	24.580025
13.110000	24.580025
13.120000	24.580025
13.130000	24.580025
13.140000	24.580025
13.150000	24.580025
13.160000	24.580025
13.170000	24.580025
13.180000	24.580025
13.190000	24.580025
13.200000	24.580025
13.210000	24.580025
13.220000	24.580025
13.230000	24.580025
13.240000	24.580025
13.250000	24.580025
13.260000	24.580025
13.270000	24.580025
13.280000	24.580025
13.290000	24.580025
13.300000	24.580025
13.310000	24.580025
13.320000	24.580025
13.330000	24.580025
13.340000	24.580025
13.350000	24.580025
13.360000	24.580025
13.370000	24.580025
13.380000	24.580025
13.390000	24.580025
13.400000	24.580025
13.410000	24.580025
13.420000	24.580025
13.430000	24.580025
13.440000	24.580025
13.450000	24.580025
13.460000	24.580025
13.470000	24.580025
13.480000	24.580025
13.490000	24.580025
13.500000	24.580112
13.510000	24.580112
13.520000	24.580112
13.530000	24.580112
13.540000	24.580112
13.550000	24.580112
13.560000	24.580112
13.570000	24.580112
13.580000	24.580112
13.590000	24.580112
13.600000	24.580112
13.610000	24.580112
13.620000	24.580112
13.630000	24.580112
13.640000	24.580112
13.650000	24.580112
13.660000	24.580112
13.670000	24.580112
13.680000	24.580112
13.690000	24.580112
13.700000	24.580112
13.710000	24.580112
13.720000	24.580112
13.730000	24.580112
13.740000	24.580112
13.750000	24.580112
13.760000	24.580112
13.770000	24.580112
13.780000	24.580112
13.790000	24.580112
13.800000	24.580112
13.810000	24.580112
13.820000	24.580112
13.830000	24.580112
13.840000	24.580112
13.850000	24.580112
13.860000	24.580112
13.870000	24.580112
13.880000	24.580112
13.890000	24.580112
13.900000	24.580112
13.910000	24.580112
13.920000	24.580112
13.930000	24.580112
13.940000	24.580112
13.950000	24.580112
13.960000	24.580112
13.970000	24.580112
13.980000	24.580112
13.990000	24.580112
14.000000	24.580191
14.010000	24.580191
14.020000	24.580191
14.030000	24.580191
14.040000	24.580191
14.050000	24.580191
14.060000	24.580191
14.070000	24.580191
14.080000	24.580191
14.090000	24.580191
14.100000	24.580191
14.110000	24.580191
14.120000	24.580191
14.130000	24.580191
14.140000	24.580191
14.150000	24.580191
14.160000	24.580191
14.170000	24.580191
14.180000	24.580191
14.190000	24.580191
14.200000	24.580191
14.210000	24.580191
14.220000	24.580191
14.230000	24.580191
14.240000	24.580191
14.250000	24.580191
14.260000	24.580191
14.270000	24.580191
14.280000	24.580191
14.290000	24.580191
14.300000	24.580191
14.310000	24.580191
14.320000	24.580191
14.330000	24.580191
14.340000	24.580191
14.350000	24.580191
14.360000	24.580191
14.370000	24.580191
14.380000	24.580191
14.390000	24.580191
14.400000	24.580191
14.410000	24.580191
14.420000	24.580191
14.430000	24.580191
14.440000	24.580191
14.450000	24.580191
14.460000	24.580191
14.470000	24.580191
14.480000	24.580191
14.490000	24.580191
14.500000	24.579912
14.510000	24.579912
14.520000	24.579912
14.530000	24.579912
14.540000	24.579912
14.550000	24.579912
14.560000	24.579912
14.570000	24.579912
14.580000	24.579912
14.590000	24.579912
14.600000	24.579912
14.610000	24.579912
14.620000	24.579912
14.630000	24.579912
14.640000	24.579912
14.650000	24.579912
14.660000	24.579912
14.670000	24.579912
14.680000	24.579912
14.690000	24.579912
14.700000	24.579912
14.710000	24.579912
14.720000	24.579912
14.730000	24.579912
14.740000	24.579912
14.750000	24.579912
14.760000	24.579912
14.770000	24.579912
14.780000	24.579912
14.790000	24.579912
14.800000	24.579912
14.810000	24.579912
14.820000	24.579912
14.830000	24.579912
14.840000	24.579912
14.850000	24.579912
14.860000	24.579912
14.870000	24.579912
14.880000	24.579912
14.890000	24.579912
14.900000	24.579912
14.910000	24.579912
14.920000	24.579912
14.930000	24.579912
14.940000	24.579912
14.950000	24.579912
14.960000	24.579912
14.970000	24.579912
14.980000	24.579912
14.990000	24.579912
15.000000	24.579286
15.010000	24.579286
15.020000	24.579286
15.030000	24.579286
15.040000	24.579286
15.050000	24.579286
15.060000	24.579286
15.070000	24.579286
15.080000	24.579286
15.090000	24.579286
15.100000	24.579286
15.110000	24.579286
15.120000	24.579286
15.130000	24.579286
15.140000	24.579286
15.150000	24.579286
15.160000	24.579286
15.170000	24.579286
15.180000	24.579286
15.190000	24.579286
15.200000	24.579286
15.210000	24.579286
15.220000	24.579286
15.230000	24.579286
15.240000	24.579286
15.250000	24.579286
15.260000	24.579286
15.270000	24.579286
15.280000	24.579286
15.290000	24.579286
15.300000	24.579286
15.310000	24.579286
15.320000	24.579286
15.330000	24.579286
15.340000	24.579286
15.350000	24.579286
15.360000	24.579286
15.370000	24.579286
15.380000	24.579286
15.390000	24.579286
15.400000	24.579286
15.410000	24.579286
15.420000	24.579286
15.430000	24.579286
15.440000	24.579286
15.450000	24.579286
15.460000	24.579286
15.470000	24.579286
15.480000	24.579286
15.490000	24.579286
15.500000	24.578442
15.510000	24.578442
15.520000	24.578442
15.530000	24.578442
15.540000	24.578442
15.550000	24.578442
15.560000	24.578442
15.570000	24.578442
15.580000	24.578442
15.590000	24.578442
15.600000	24.578442
15.610000	24.578442
15.620000	24.578442
15.630000	24.578442
15.640000	24.578442
15.650000	24.578442
15.660000	24.578442
15.670000	24.578442
15.680000	24.578442
15.690000	24.578442
15.700000	24.578442
15.710000	24.578442
15.720000	24.578442
15.730000	24.578442
15.740000	24.578442
15.750000	24.578442
15.760000	24.578442
15.770000	24.578442
15.780000	24.578442
15.790000	24.578442
15.800000	24.578442
15.810000	24.578442
15.820000	24.578442
15.830000	24.578442
15.840000	24.578442
15.850000	24.578442
15.860000	24.578442
15.870000	24.578442
15.880000	24.578442
15.890000	24.578442
15.900000	24.578442
15.910000	24.578442
15.920000	24.578442
15.930000	24.578442
15.940000	24.578442
15.950000	24.578442
15.960000	24.578442
15.970000	24.578442
15.980000	24.578442
15.990000	24.578442
16.000000	24.577388
16.010000	24.577388
16.020000	24.577388
16.030000	24.577388
16.040000	24.577388
16.050000	24.577388
16.060000	24.577388
16.070000	24.577388
16.080000	24.577388
16.090000	24.577388
16.100000	24.577388
16.110000	24.577388
16.120000	24.577388
16.130000	24.577388
16.140000	24.577388
16.150000	24.577388
16.160000	24.577388
16.170000	24.577388
16.180000	24.577388
16.190000	24.577388
16.200000	24.577388
16.210000	24.577388
16.220000	24.577388
16.230000	24.577388
16.240000	24.577388
16.250000	24.577388
16.260000	24.577388
16.270000	24.577388
16.280000	24.577388
16.290000	24.577388
16.300000	24.577388
16.310000	24.577388
16.320000	24.577388
16.330000	24.577388
16.340000	24.577388
16.350000	24.577388
16.360000	24.577388
16.370000	24.577388
16.380000	24.577388
16.390000	24.577388
16.400000	24.577388
16.410000	24.577388
16.420000	24.577388
16.430000	24.577388
16.440000	24.577388
16.450000	24.577388
16.460000	24.577388
16.470000	24.577388
16.480000	24.577388
16.490000	24.577388
16.500000	24.576031
16.510000	24.576031
16.520000	24.576031
16.530000	24.576031
16.540000	24.576031
16.550000	24.576031
16.560000	24.576031
16.570000	24.576031
16.580000	24.576031
16.590000	24.576031
16.600000	24.576031
16.610000	24.576031
16.620000	24.576031
16.630000	24.576031
16.640000	24.576031
16.650000	24.576031
16.660000	24.576031
16.670000	24.576031
16.680000	24.576031
16.690000	24.576031
16.700000	24.576031
16.710000	24.576031
16.720000	24.576031
16.730000	24.576031
16.740000	24.576031
16.750000	24.576031
16.760000	24.576031
16.770000	24.576031
16.780000	24.576031
16.790000	24.576031
16.800000	24.576031
16.810000	24.576031
16.820000	24.576031
16.830000	24.576031
16.840000	24.576031
16.850000	24.576031
16.860000	24.576031
16.870000	24.576031
16.880000	24.576031
16.890000	24.576031
16.900000	24.576031
16.910000	24.576031
16.920000	24.576031
16.930000	24.576031
16.940000	24.576031
16.950000	24.576031
16.960000	24.576031
16.970000	24.576031
16.980000	24.576031
16.990000	24.576031
17.000000	24.574812
17.010000	24.574812
17.020000	24.574812
17.030000	24.574812
17.040000	24.574812
17.050000	24.574812
17.060000	24.574812
17.070000	24.574812
17.080000	24.574812
17.090000	24.574812
17.100000	24.574812
17.110000	24.574812
17.120000	24.574812
17.130000	24.574812
17.140000	24.574812
17.150000	24.574812
17.160000	24.574812
17.170000	24.574812
17.180000	24.574812
17.190000	24.574812
17.200000	24.574812
17.210000	24.574812
17.220000	24.574812
17.230000	24.574812
17.240000	24.574812
17.250000	24.574812
17.260000	24.574812
17.270000	24.574812
17.280000	24.574812
17.290000	24.574812
17.300000	24.574812
17.310000	24.574812
17.320000	24.574812
17.330000	24.574812
17.340000	24.574812
17.350000	24.574812
17.360000	24.574812
17.370000	24.574812
17.380000	24.574812
17.390000	24.574812
17.400000	24.574812
17.410000	24.574812
17.420000	24.574812
17.430000	24.574812
17.440000	24.574812
17.450000	24.574812
17.460000	24.574812
17.470000	24.574812
17.480000	24.574812
17.490000	24.574812
17.500000	24.573472
17.510000	24.573472
17.520000	24.573472
17.530000	24.573472
17.540000	24.573472
17.550000	24.573472
17.560000	24.573472
17.570000	24.573472
17.580000	24.573472
17.590000	24.573472
17.600000	24.573472
17.610000	24.573472
17.620000	24.573472
17.630000	24.573472
17.640000	24.573472
17.650000	24.573472
17.660000	24.573472
17.670000	24.573472
17.680000	24.573472
17.690000	24.573472
