LabVIEW Measurement	
Writer_Version	2
Reader_Version	2
Separator	Tab
Decimal_Separator	.
Multi_Headings	No
X_Columns	One
Time_Pref	Absolute
Operator	biomech-dyno
Date	2023/04/27
Time	17:41:55.9338632999999876419
***End_of_Header***	
	
Channels	1	
Samples	10	
Date	2023/04/27	
Time	20:08:29.9114566999999992439	
X_Dimension	Time	
X0	0.0000000000000000E+0	
Delta_X	0.010000	
***End_of_Header***		
X_Value	Untitled	Comment
0.000000	24.813454
0.010000	24.813454
0.020000	24.813454
0.030000	24.813454
0.040000	24.813454
0.050000	24.813454
0.060000	24.813454
0.070000	24.813454
0.080000	24.813454
0.090000	24.813454
0.100000	24.813454
0.110000	24.813454
0.120000	24.813454
0.130000	24.813454
0.140000	24.813454
0.150000	24.813454
0.160000	24.813454
0.170000	24.813454
0.180000	24.813454
0.190000	24.813454
0.200000	24.813454
0.210000	24.813454
0.220000	24.813454
0.230000	24.813454
0.240000	24.813454
0.250000	24.813454
0.260000	24.813454
0.270000	24.813454
0.280000	24.813454
0.290000	24.813454
0.300000	24.813454
0.310000	24.813454
0.320000	24.813454
0.330000	24.813454
0.340000	24.813454
0.350000	24.813454
0.360000	24.813454
0.370000	24.813454
0.380000	24.813454
0.390000	24.813454
0.400000	24.813454
0.410000	24.813454
0.420000	24.813454
0.430000	24.813454
0.440000	24.813454
0.450000	24.813454
0.460000	24.813454
0.470000	24.813454
0.480000	24.813454
0.490000	24.813454
0.500000	24.830130
0.510000	24.830130
0.520000	24.830130
0.530000	24.830130
0.540000	24.830130
0.550000	24.830130
0.560000	24.830130
0.570000	24.830130
0.580000	24.830130
0.590000	24.830130
0.600000	24.830130
0.610000	24.830130
0.620000	24.830130
0.630000	24.830130
0.640000	24.830130
0.650000	24.830130
0.660000	24.830130
0.670000	24.830130
0.680000	24.830130
0.690000	24.830130
0.700000	24.830130
0.710000	24.830130
0.720000	24.830130
0.730000	24.830130
0.740000	24.830130
0.750000	24.830130
0.760000	24.830130
0.770000	24.830130
0.780000	24.830130
0.790000	24.830130
0.800000	24.830130
0.810000	24.830130
0.820000	24.830130
0.830000	24.830130
0.840000	24.830130
0.850000	24.830130
0.860000	24.830130
0.870000	24.830130
0.880000	24.830130
0.890000	24.830130
0.900000	24.830130
0.910000	24.830130
0.920000	24.830130
0.930000	24.830130
0.940000	24.830130
0.950000	24.830130
0.960000	24.830130
0.970000	24.830130
0.980000	24.830130
0.990000	24.830130
1.000000	24.910745
1.010000	24.910745
1.020000	24.910745
1.030000	24.910745
1.040000	24.910745
1.050000	24.910745
1.060000	24.910745
1.070000	24.910745
1.080000	24.910745
1.090000	24.910745
1.100000	24.910745
1.110000	24.910745
1.120000	24.910745
1.130000	24.910745
1.140000	24.910745
1.150000	24.910745
1.160000	24.910745
1.170000	24.910745
1.180000	24.910745
1.190000	24.910745
1.200000	24.910745
1.210000	24.910745
1.220000	24.910745
1.230000	24.910745
1.240000	24.910745
1.250000	24.910745
1.260000	24.910745
1.270000	24.910745
1.280000	24.910745
1.290000	24.910745
1.300000	24.910745
1.310000	24.910745
1.320000	24.910745
1.330000	24.910745
1.340000	24.910745
1.350000	24.910745
1.360000	24.910745
1.370000	24.910745
1.380000	24.910745
1.390000	24.910745
1.400000	24.910745
1.410000	24.910745
1.420000	24.910745
1.430000	24.910745
1.440000	24.910745
1.450000	24.910745
1.460000	24.910745
1.470000	24.910745
1.480000	24.910745
1.490000	24.910745
1.500000	25.086496
1.510000	25.086496
1.520000	25.086496
1.530000	25.086496
1.540000	25.086496
1.550000	25.086496
1.560000	25.086496
1.570000	25.086496
1.580000	25.086496
1.590000	25.086496
1.600000	25.086496
1.610000	25.086496
1.620000	25.086496
1.630000	25.086496
1.640000	25.086496
1.650000	25.086496
1.660000	25.086496
1.670000	25.086496
1.680000	25.086496
1.690000	25.086496
1.700000	25.086496
1.710000	25.086496
1.720000	25.086496
1.730000	25.086496
1.740000	25.086496
1.750000	25.086496
1.760000	25.086496
1.770000	25.086496
1.780000	25.086496
1.790000	25.086496
1.800000	25.086496
1.810000	25.086496
1.820000	25.086496
1.830000	25.086496
1.840000	25.086496
1.850000	25.086496
1.860000	25.086496
1.870000	25.086496
1.880000	25.086496
1.890000	25.086496
1.900000	25.086496
1.910000	25.086496
1.920000	25.086496
1.930000	25.086496
1.940000	25.086496
1.950000	25.086496
1.960000	25.086496
1.970000	25.086496
1.980000	25.086496
1.990000	25.086496
2.000000	25.338168
2.010000	25.338168
2.020000	25.338168
2.030000	25.338168
2.040000	25.338168
2.050000	25.338168
2.060000	25.338168
2.070000	25.338168
2.080000	25.338168
2.090000	25.338168
2.100000	25.338168
2.110000	25.338168
2.120000	25.338168
2.130000	25.338168
2.140000	25.338168
2.150000	25.338168
2.160000	25.338168
2.170000	25.338168
2.180000	25.338168
2.190000	25.338168
2.200000	25.338168
2.210000	25.338168
2.220000	25.338168
2.230000	25.338168
2.240000	25.338168
2.250000	25.338168
2.260000	25.338168
2.270000	25.338168
2.280000	25.338168
2.290000	25.338168
2.300000	25.338168
2.310000	25.338168
2.320000	25.338168
2.330000	25.338168
2.340000	25.338168
2.350000	25.338168
2.360000	25.338168
2.370000	25.338168
2.380000	25.338168
2.390000	25.338168
2.400000	25.338168
2.410000	25.338168
2.420000	25.338168
2.430000	25.338168
2.440000	25.338168
2.450000	25.338168
2.460000	25.338168
2.470000	25.338168
2.480000	25.338168
2.490000	25.338168
2.500000	25.644928
2.510000	25.644928
2.520000	25.644928
2.530000	25.644928
2.540000	25.644928
2.550000	25.644928
2.560000	25.644928
2.570000	25.644928
2.580000	25.644928
2.590000	25.644928
2.600000	25.644928
2.610000	25.644928
2.620000	25.644928
2.630000	25.644928
2.640000	25.644928
2.650000	25.644928
2.660000	25.644928
2.670000	25.644928
2.680000	25.644928
2.690000	25.644928
2.700000	25.644928
2.710000	25.644928
2.720000	25.644928
2.730000	25.644928
2.740000	25.644928
2.750000	25.644928
2.760000	25.644928
2.770000	25.644928
2.780000	25.644928
2.790000	25.644928
2.800000	25.644928
2.810000	25.644928
2.820000	25.644928
2.830000	25.644928
2.840000	25.644928
2.850000	25.644928
2.860000	25.644928
2.870000	25.644928
2.880000	25.644928
2.890000	25.644928
2.900000	25.644928
2.910000	25.644928
2.920000	25.644928
2.930000	25.644928
2.940000	25.644928
2.950000	25.644928
2.960000	25.644928
2.970000	25.644928
2.980000	25.644928
2.990000	25.644928
3.000000	25.976580
3.010000	25.976580
3.020000	25.976580
3.030000	25.976580
3.040000	25.976580
3.050000	25.976580
3.060000	25.976580
3.070000	25.976580
3.080000	25.976580
3.090000	25.976580
3.100000	25.976580
3.110000	25.976580
3.120000	25.976580
3.130000	25.976580
3.140000	25.976580
3.150000	25.976580
3.160000	25.976580
3.170000	25.976580
3.180000	25.976580
3.190000	25.976580
3.200000	25.976580
3.210000	25.976580
3.220000	25.976580
3.230000	25.976580
3.240000	25.976580
3.250000	25.976580
3.260000	25.976580
3.270000	25.976580
3.280000	25.976580
3.290000	25.976580
3.300000	25.976580
3.310000	25.976580
3.320000	25.976580
3.330000	25.976580
3.340000	25.976580
3.350000	25.976580
3.360000	25.976580
3.370000	25.976580
3.380000	25.976580
3.390000	25.976580
3.400000	25.976580
3.410000	25.976580
3.420000	25.976580
3.430000	25.976580
3.440000	25.976580
3.450000	25.976580
3.460000	25.976580
3.470000	25.976580
3.480000	25.976580
3.490000	25.976580
3.500000	26.254906
3.510000	26.254906
3.520000	26.254906
3.530000	26.254906
3.540000	26.254906
3.550000	26.254906
3.560000	26.254906
3.570000	26.254906
3.580000	26.254906
3.590000	26.254906
3.600000	26.254906
3.610000	26.254906
3.620000	26.254906
3.630000	26.254906
3.640000	26.254906
3.650000	26.254906
3.660000	26.254906
3.670000	26.254906
3.680000	26.254906
3.690000	26.254906
3.700000	26.254906
3.710000	26.254906
3.720000	26.254906
3.730000	26.254906
3.740000	26.254906
3.750000	26.254906
3.760000	26.254906
3.770000	26.254906
3.780000	26.254906
3.790000	26.254906
3.800000	26.254906
3.810000	26.254906
3.820000	26.254906
3.830000	26.254906
3.840000	26.254906
3.850000	26.254906
3.860000	26.254906
3.870000	26.254906
3.880000	26.254906
3.890000	26.254906
3.900000	26.254906
3.910000	26.254906
3.920000	26.254906
3.930000	26.254906
3.940000	26.254906
3.950000	26.254906
3.960000	26.254906
3.970000	26.254906
3.980000	26.254906
3.990000	26.254906
4.000000	26.459533
4.010000	26.459533
4.020000	26.459533
4.030000	26.459533
4.040000	26.459533
4.050000	26.459533
4.060000	26.459533
4.070000	26.459533
4.080000	26.459533
4.090000	26.459533
4.100000	26.459533
4.110000	26.459533
4.120000	26.459533
4.130000	26.459533
4.140000	26.459533
4.150000	26.459533
4.160000	26.459533
4.170000	26.459533
4.180000	26.459533
4.190000	26.459533
4.200000	26.459533
4.210000	26.459533
4.220000	26.459533
4.230000	26.459533
4.240000	26.459533
4.250000	26.459533
4.260000	26.459533
4.270000	26.459533
4.280000	26.459533
4.290000	26.459533
4.300000	26.459533
4.310000	26.459533
4.320000	26.459533
4.330000	26.459533
4.340000	26.459533
4.350000	26.459533
4.360000	26.459533
4.370000	26.459533
4.380000	26.459533
4.390000	26.459533
4.400000	26.459533
4.410000	26.459533
4.420000	26.459533
4.430000	26.459533
4.440000	26.459533
4.450000	26.459533
4.460000	26.459533
4.470000	26.459533
4.480000	26.459533
4.490000	26.459533
4.500000	26.601260
4.510000	26.601260
4.520000	26.601260
4.530000	26.601260
4.540000	26.601260
4.550000	26.601260
4.560000	26.601260
4.570000	26.601260
4.580000	26.601260
4.590000	26.601260
4.600000	26.601260
4.610000	26.601260
4.620000	26.601260
4.630000	26.601260
4.640000	26.601260
4.650000	26.601260
4.660000	26.601260
4.670000	26.601260
4.680000	26.601260
4.690000	26.601260
4.700000	26.601260
4.710000	26.601260
4.720000	26.601260
4.730000	26.601260
4.740000	26.601260
4.750000	26.601260
4.760000	26.601260
4.770000	26.601260
4.780000	26.601260
4.790000	26.601260
4.800000	26.601260
4.810000	26.601260
4.820000	26.601260
4.830000	26.601260
4.840000	26.601260
4.850000	26.601260
4.860000	26.601260
4.870000	26.601260
4.880000	26.601260
4.890000	26.601260
4.900000	26.601260
4.910000	26.601260
4.920000	26.601260
4.930000	26.601260
4.940000	26.601260
4.950000	26.601260
4.960000	26.601260
4.970000	26.601260
4.980000	26.601260
4.990000	26.601260
5.000000	26.693071
5.010000	26.693071
5.020000	26.693071
5.030000	26.693071
5.040000	26.693071
5.050000	26.693071
5.060000	26.693071
5.070000	26.693071
5.080000	26.693071
5.090000	26.693071
5.100000	26.693071
5.110000	26.693071
5.120000	26.693071
5.130000	26.693071
5.140000	26.693071
5.150000	26.693071
5.160000	26.693071
5.170000	26.693071
5.180000	26.693071
5.190000	26.693071
5.200000	26.693071
5.210000	26.693071
5.220000	26.693071
5.230000	26.693071
5.240000	26.693071
5.250000	26.693071
5.260000	26.693071
5.270000	26.693071
5.280000	26.693071
5.290000	26.693071
5.300000	26.693071
5.310000	26.693071
5.320000	26.693071
5.330000	26.693071
5.340000	26.693071
5.350000	26.693071
5.360000	26.693071
5.370000	26.693071
5.380000	26.693071
5.390000	26.693071
5.400000	26.693071
5.410000	26.693071
5.420000	26.693071
5.430000	26.693071
5.440000	26.693071
5.450000	26.693071
5.460000	26.693071
5.470000	26.693071
5.480000	26.693071
5.490000	26.693071
5.500000	26.751816
5.510000	26.751816
5.520000	26.751816
5.530000	26.751816
5.540000	26.751816
5.550000	26.751816
5.560000	26.751816
5.570000	26.751816
5.580000	26.751816
5.590000	26.751816
5.600000	26.751816
5.610000	26.751816
5.620000	26.751816
5.630000	26.751816
5.640000	26.751816
5.650000	26.751816
5.660000	26.751816
5.670000	26.751816
5.680000	26.751816
5.690000	26.751816
5.700000	26.751816
5.710000	26.751816
5.720000	26.751816
5.730000	26.751816
5.740000	26.751816
5.750000	26.751816
5.760000	26.751816
5.770000	26.751816
5.780000	26.751816
5.790000	26.751816
5.800000	26.751816
5.810000	26.751816
5.820000	26.751816
5.830000	26.751816
5.840000	26.751816
5.850000	26.751816
5.860000	26.751816
5.870000	26.751816
5.880000	26.751816
5.890000	26.751816
5.900000	26.751816
5.910000	26.751816
5.920000	26.751816
5.930000	26.751816
5.940000	26.751816
5.950000	26.751816
5.960000	26.751816
5.970000	26.751816
5.980000	26.751816
5.990000	26.751816
6.000000	26.785658
6.010000	26.785658
6.020000	26.785658
6.030000	26.785658
6.040000	26.785658
6.050000	26.785658
6.060000	26.785658
6.070000	26.785658
6.080000	26.785658
6.090000	26.785658
6.100000	26.785658
6.110000	26.785658
6.120000	26.785658
6.130000	26.785658
6.140000	26.785658
6.150000	26.785658
6.160000	26.785658
6.170000	26.785658
6.180000	26.785658
6.190000	26.785658
6.200000	26.785658
6.210000	26.785658
6.220000	26.785658
6.230000	26.785658
6.240000	26.785658
6.250000	26.785658
6.260000	26.785658
6.270000	26.785658
6.280000	26.785658
6.290000	26.785658
6.300000	26.785658
6.310000	26.785658
6.320000	26.785658
6.330000	26.785658
6.340000	26.785658
6.350000	26.785658
6.360000	26.785658
6.370000	26.785658
6.380000	26.785658
6.390000	26.785658
6.400000	26.785658
6.410000	26.785658
6.420000	26.785658
6.430000	26.785658
6.440000	26.785658
6.450000	26.785658
6.460000	26.785658
6.470000	26.785658
6.480000	26.785658
6.490000	26.785658
6.500000	26.804322
6.510000	26.804322
6.520000	26.804322
6.530000	26.804322
6.540000	26.804322
6.550000	26.804322
6.560000	26.804322
6.570000	26.804322
6.580000	26.804322
6.590000	26.804322
6.600000	26.804322
6.610000	26.804322
6.620000	26.804322
6.630000	26.804322
6.640000	26.804322
6.650000	26.804322
6.660000	26.804322
6.670000	26.804322
6.680000	26.804322
6.690000	26.804322
6.700000	26.804322
6.710000	26.804322
6.720000	26.804322
6.730000	26.804322
6.740000	26.804322
6.750000	26.804322
6.760000	26.804322
6.770000	26.804322
6.780000	26.804322
6.790000	26.804322
6.800000	26.804322
6.810000	26.804322
6.820000	26.804322
6.830000	26.804322
6.840000	26.804322
6.850000	26.804322
6.860000	26.804322
6.870000	26.804322
6.880000	26.804322
6.890000	26.804322
6.900000	26.804322
6.910000	26.804322
6.920000	26.804322
6.930000	26.804322
6.940000	26.804322
6.950000	26.804322
6.960000	26.804322
6.970000	26.804322
6.980000	26.804322
6.990000	26.804322
7.000000	26.811293
7.010000	26.811293
7.020000	26.811293
7.030000	26.811293
7.040000	26.811293
7.050000	26.811293
7.060000	26.811293
7.070000	26.811293
7.080000	26.811293
7.090000	26.811293
7.100000	26.811293
7.110000	26.811293
7.120000	26.811293
7.130000	26.811293
7.140000	26.811293
7.150000	26.811293
7.160000	26.811293
7.170000	26.811293
7.180000	26.811293
7.190000	26.811293
7.200000	26.811293
7.210000	26.811293
7.220000	26.811293
7.230000	26.811293
7.240000	26.811293
7.250000	26.811293
7.260000	26.811293
7.270000	26.811293
7.280000	26.811293
7.290000	26.811293
7.300000	26.811293
7.310000	26.811293
7.320000	26.811293
7.330000	26.811293
7.340000	26.811293
7.350000	26.811293
7.360000	26.811293
7.370000	26.811293
7.380000	26.811293
7.390000	26.811293
7.400000	26.811293
7.410000	26.811293
7.420000	26.811293
7.430000	26.811293
7.440000	26.811293
7.450000	26.811293
7.460000	26.811293
7.470000	26.811293
7.480000	26.811293
7.490000	26.811293
7.500000	26.807940
7.510000	26.807940
7.520000	26.807940
7.530000	26.807940
7.540000	26.807940
7.550000	26.807940
7.560000	26.807940
7.570000	26.807940
7.580000	26.807940
7.590000	26.807940
7.600000	26.807940
7.610000	26.807940
7.620000	26.807940
7.630000	26.807940
7.640000	26.807940
7.650000	26.807940
7.660000	26.807940
7.670000	26.807940
7.680000	26.807940
7.690000	26.807940
7.700000	26.807940
7.710000	26.807940
7.720000	26.807940
7.730000	26.807940
7.740000	26.807940
7.750000	26.807940
7.760000	26.807940
7.770000	26.807940
7.780000	26.807940
7.790000	26.807940
7.800000	26.807940
7.810000	26.807940
7.820000	26.807940
7.830000	26.807940
7.840000	26.807940
7.850000	26.807940
7.860000	26.807940
7.870000	26.807940
7.880000	26.807940
7.890000	26.807940
7.900000	26.807940
7.910000	26.807940
7.920000	26.807940
7.930000	26.807940
7.940000	26.807940
7.950000	26.807940
7.960000	26.807940
7.970000	26.807940
7.980000	26.807940
7.990000	26.807940
8.000000	26.796859
8.010000	26.796859
8.020000	26.796859
8.030000	26.796859
8.040000	26.796859
8.050000	26.796859
8.060000	26.796859
8.070000	26.796859
8.080000	26.796859
8.090000	26.796859
8.100000	26.796859
8.110000	26.796859
8.120000	26.796859
8.130000	26.796859
8.140000	26.796859
8.150000	26.796859
8.160000	26.796859
8.170000	26.796859
8.180000	26.796859
8.190000	26.796859
8.200000	26.796859
8.210000	26.796859
8.220000	26.796859
8.230000	26.796859
8.240000	26.796859
8.250000	26.796859
8.260000	26.796859
8.270000	26.796859
8.280000	26.796859
8.290000	26.796859
8.300000	26.796859
8.310000	26.796859
8.320000	26.796859
8.330000	26.796859
8.340000	26.796859
8.350000	26.796859
8.360000	26.796859
8.370000	26.796859
8.380000	26.796859
8.390000	26.796859
8.400000	26.796859
8.410000	26.796859
8.420000	26.796859
8.430000	26.796859
8.440000	26.796859
8.450000	26.796859
8.460000	26.796859
8.470000	26.796859
8.480000	26.796859
8.490000	26.796859
8.500000	26.777576
8.510000	26.777576
8.520000	26.777576
8.530000	26.777576
8.540000	26.777576
8.550000	26.777576
8.560000	26.777576
8.570000	26.777576
8.580000	26.777576
8.590000	26.777576
8.600000	26.777576
8.610000	26.777576
8.620000	26.777576
8.630000	26.777576
8.640000	26.777576
8.650000	26.777576
8.660000	26.777576
8.670000	26.777576
8.680000	26.777576
8.690000	26.777576
8.700000	26.777576
8.710000	26.777576
8.720000	26.777576
8.730000	26.777576
8.740000	26.777576
8.750000	26.777576
8.760000	26.777576
8.770000	26.777576
8.780000	26.777576
8.790000	26.777576
8.800000	26.777576
8.810000	26.777576
8.820000	26.777576
8.830000	26.777576
8.840000	26.777576
8.850000	26.777576
8.860000	26.777576
8.870000	26.777576
8.880000	26.777576
8.890000	26.777576
8.900000	26.777576
8.910000	26.777576
8.920000	26.777576
8.930000	26.777576
8.940000	26.777576
8.950000	26.777576
8.960000	26.777576
8.970000	26.777576
8.980000	26.777576
8.990000	26.777576
9.000000	26.755422
9.010000	26.755422
9.020000	26.755422
9.030000	26.755422
9.040000	26.755422
9.050000	26.755422
9.060000	26.755422
9.070000	26.755422
9.080000	26.755422
9.090000	26.755422
9.100000	26.755422
9.110000	26.755422
9.120000	26.755422
9.130000	26.755422
9.140000	26.755422
9.150000	26.755422
9.160000	26.755422
9.170000	26.755422
9.180000	26.755422
9.190000	26.755422
9.200000	26.755422
9.210000	26.755422
9.220000	26.755422
9.230000	26.755422
9.240000	26.755422
9.250000	26.755422
9.260000	26.755422
9.270000	26.755422
9.280000	26.755422
9.290000	26.755422
9.300000	26.755422
9.310000	26.755422
9.320000	26.755422
9.330000	26.755422
9.340000	26.755422
9.350000	26.755422
9.360000	26.755422
9.370000	26.755422
9.380000	26.755422
9.390000	26.755422
9.400000	26.755422
9.410000	26.755422
9.420000	26.755422
9.430000	26.755422
9.440000	26.755422
9.450000	26.755422
9.460000	26.755422
9.470000	26.755422
9.480000	26.755422
9.490000	26.755422
9.500000	26.727934
9.510000	26.727934
9.520000	26.727934
9.530000	26.727934
9.540000	26.727934
9.550000	26.727934
9.560000	26.727934
9.570000	26.727934
9.580000	26.727934
9.590000	26.727934
9.600000	26.727934
9.610000	26.727934
9.620000	26.727934
9.630000	26.727934
9.640000	26.727934
9.650000	26.727934
9.660000	26.727934
9.670000	26.727934
9.680000	26.727934
9.690000	26.727934
9.700000	26.727934
9.710000	26.727934
9.720000	26.727934
9.730000	26.727934
9.740000	26.727934
9.750000	26.727934
9.760000	26.727934
9.770000	26.727934
9.780000	26.727934
9.790000	26.727934
9.800000	26.727934
9.810000	26.727934
9.820000	26.727934
9.830000	26.727934
9.840000	26.727934
9.850000	26.727934
9.860000	26.727934
9.870000	26.727934
9.880000	26.727934
9.890000	26.727934
9.900000	26.727934
9.910000	26.727934
9.920000	26.727934
9.930000	26.727934
9.940000	26.727934
9.950000	26.727934
9.960000	26.727934
9.970000	26.727934
9.980000	26.727934
9.990000	26.727934
10.000000	26.697398
10.010000	26.697398
10.020000	26.697398
10.030000	26.697398
10.040000	26.697398
10.050000	26.697398
10.060000	26.697398
10.070000	26.697398
10.080000	26.697398
10.090000	26.697398
10.100000	26.697398
10.110000	26.697398
10.120000	26.697398
10.130000	26.697398
10.140000	26.697398
10.150000	26.697398
10.160000	26.697398
10.170000	26.697398
10.180000	26.697398
10.190000	26.697398
10.200000	26.697398
10.210000	26.697398
10.220000	26.697398
10.230000	26.697398
10.240000	26.697398
10.250000	26.697398
10.260000	26.697398
10.270000	26.697398
10.280000	26.697398
10.290000	26.697398
10.300000	26.697398
10.310000	26.697398
10.320000	26.697398
10.330000	26.697398
10.340000	26.697398
10.350000	26.697398
10.360000	26.697398
10.370000	26.697398
10.380000	26.697398
10.390000	26.697398
10.400000	26.697398
10.410000	26.697398
10.420000	26.697398
10.430000	26.697398
10.440000	26.697398
10.450000	26.697398
10.460000	26.697398
10.470000	26.697398
10.480000	26.697398
10.490000	26.697398
10.500000	26.665859
10.510000	26.665859
10.520000	26.665859
10.530000	26.665859
10.540000	26.665859
10.550000	26.665859
10.560000	26.665859
10.570000	26.665859
10.580000	26.665859
10.590000	26.665859
10.600000	26.665859
10.610000	26.665859
10.620000	26.665859
10.630000	26.665859
10.640000	26.665859
10.650000	26.665859
10.660000	26.665859
10.670000	26.665859
10.680000	26.665859
10.690000	26.665859
10.700000	26.665859
10.710000	26.665859
10.720000	26.665859
10.730000	26.665859
10.740000	26.665859
10.750000	26.665859
10.760000	26.665859
10.770000	26.665859
10.780000	26.665859
10.790000	26.665859
10.800000	26.665859
10.810000	26.665859
10.820000	26.665859
10.830000	26.665859
10.840000	26.665859
10.850000	26.665859
10.860000	26.665859
10.870000	26.665859
10.880000	26.665859
10.890000	26.665859
10.900000	26.665859
10.910000	26.665859
10.920000	26.665859
10.930000	26.665859
10.940000	26.665859
10.950000	26.665859
10.960000	26.665859
10.970000	26.665859
10.980000	26.665859
10.990000	26.665859
11.000000	26.634626
11.010000	26.634626
11.020000	26.634626
11.030000	26.634626
11.040000	26.634626
11.050000	26.634626
11.060000	26.634626
11.070000	26.634626
11.080000	26.634626
11.090000	26.634626
11.100000	26.634626
11.110000	26.634626
11.120000	26.634626
11.130000	26.634626
11.140000	26.634626
11.150000	26.634626
11.160000	26.634626
11.170000	26.634626
11.180000	26.634626
11.190000	26.634626
11.200000	26.634626
11.210000	26.634626
11.220000	26.634626
11.230000	26.634626
11.240000	26.634626
11.250000	26.634626
11.260000	26.634626
11.270000	26.634626
11.280000	26.634626
11.290000	26.634626
11.300000	26.634626
11.310000	26.634626
11.320000	26.634626
11.330000	26.634626
11.340000	26.634626
11.350000	26.634626
11.360000	26.634626
11.370000	26.634626
11.380000	26.634626
11.390000	26.634626
11.400000	26.634626
11.410000	26.634626
11.420000	26.634626
11.430000	26.634626
11.440000	26.634626
11.450000	26.634626
11.460000	26.634626
11.470000	26.634626
11.480000	26.634626
11.490000	26.634626
11.500000	26.602329
11.510000	26.602329
11.520000	26.602329
11.530000	26.602329
11.540000	26.602329
11.550000	26.602329
11.560000	26.602329
11.570000	26.602329
11.580000	26.602329
11.590000	26.602329
11.600000	26.602329
11.610000	26.602329
11.620000	26.602329
11.630000	26.602329
11.640000	26.602329
11.650000	26.602329
11.660000	26.602329
11.670000	26.602329
11.680000	26.602329
11.690000	26.602329
11.700000	26.602329
11.710000	26.602329
11.720000	26.602329
11.730000	26.602329
11.740000	26.602329
11.750000	26.602329
11.760000	26.602329
11.770000	26.602329
11.780000	26.602329
11.790000	26.602329
11.800000	26.602329
11.810000	26.602329
11.820000	26.602329
11.830000	26.602329
11.840000	26.602329
11.850000	26.602329
11.860000	26.602329
11.870000	26.602329
11.880000	26.602329
11.890000	26.602329
11.900000	26.602329
11.910000	26.602329
11.920000	26.602329
11.930000	26.602329
11.940000	26.602329
11.950000	26.602329
11.960000	26.602329
11.970000	26.602329
11.980000	26.602329
11.990000	26.602329
12.000000	26.568174
12.010000	26.568174
12.020000	26.568174
12.030000	26.568174
12.040000	26.568174
12.050000	26.568174
12.060000	26.568174
12.070000	26.568174
12.080000	26.568174
12.090000	26.568174
12.100000	26.568174
12.110000	26.568174
12.120000	26.568174
12.130000	26.568174
12.140000	26.568174
12.150000	26.568174
12.160000	26.568174
12.170000	26.568174
12.180000	26.568174
12.190000	26.568174
12.200000	26.568174
12.210000	26.568174
12.220000	26.568174
12.230000	26.568174
12.240000	26.568174
12.250000	26.568174
12.260000	26.568174
12.270000	26.568174
12.280000	26.568174
12.290000	26.568174
12.300000	26.568174
12.310000	26.568174
12.320000	26.568174
12.330000	26.568174
12.340000	26.568174
12.350000	26.568174
12.360000	26.568174
12.370000	26.568174
12.380000	26.568174
12.390000	26.568174
12.400000	26.568174
12.410000	26.568174
12.420000	26.568174
12.430000	26.568174
12.440000	26.568174
12.450000	26.568174
12.460000	26.568174
12.470000	26.568174
12.480000	26.568174
12.490000	26.568174
12.500000	26.534130
12.510000	26.534130
12.520000	26.534130
12.530000	26.534130
12.540000	26.534130
12.550000	26.534130
12.560000	26.534130
12.570000	26.534130
12.580000	26.534130
12.590000	26.534130
12.600000	26.534130
12.610000	26.534130
12.620000	26.534130
12.630000	26.534130
12.640000	26.534130
12.650000	26.534130
12.660000	26.534130
12.670000	26.534130
12.680000	26.534130
12.690000	26.534130
12.700000	26.534130
12.710000	26.534130
12.720000	26.534130
12.730000	26.534130
12.740000	26.534130
12.750000	26.534130
12.760000	26.534130
12.770000	26.534130
12.780000	26.534130
12.790000	26.534130
12.800000	26.534130
12.810000	26.534130
12.820000	26.534130
12.830000	26.534130
12.840000	26.534130
12.850000	26.534130
12.860000	26.534130
12.870000	26.534130
12.880000	26.534130
12.890000	26.534130
12.900000	26.534130
12.910000	26.534130
12.920000	26.534130
12.930000	26.534130
12.940000	26.534130
12.950000	26.534130
12.960000	26.534130
12.970000	26.534130
12.980000	26.534130
12.990000	26.534130
13.000000	26.501946
13.010000	26.501946
13.020000	26.501946
13.030000	26.501946
13.040000	26.501946
13.050000	26.501946
13.060000	26.501946
13.070000	26.501946
13.080000	26.501946
13.090000	26.501946
13.100000	26.501946
13.110000	26.501946
13.120000	26.501946
13.130000	26.501946
13.140000	26.501946
13.150000	26.501946
13.160000	26.501946
13.170000	26.501946
13.180000	26.501946
13.190000	26.501946
13.200000	26.501946
13.210000	26.501946
13.220000	26.501946
13.230000	26.501946
13.240000	26.501946
13.250000	26.501946
13.260000	26.501946
13.270000	26.501946
13.280000	26.501946
13.290000	26.501946
13.300000	26.501946
13.310000	26.501946
13.320000	26.501946
13.330000	26.501946
13.340000	26.501946
13.350000	26.501946
13.360000	26.501946
13.370000	26.501946
13.380000	26.501946
13.390000	26.501946
13.400000	26.501946
13.410000	26.501946
13.420000	26.501946
13.430000	26.501946
13.440000	26.501946
13.450000	26.501946
13.460000	26.501946
13.470000	26.501946
13.480000	26.501946
13.490000	26.501946
13.500000	26.472605
13.510000	26.472605
13.520000	26.472605
13.530000	26.472605
13.540000	26.472605
13.550000	26.472605
13.560000	26.472605
13.570000	26.472605
13.580000	26.472605
13.590000	26.472605
13.600000	26.472605
13.610000	26.472605
13.620000	26.472605
13.630000	26.472605
13.640000	26.472605
13.650000	26.472605
13.660000	26.472605
13.670000	26.472605
13.680000	26.472605
13.690000	26.472605
13.700000	26.472605
13.710000	26.472605
13.720000	26.472605
13.730000	26.472605
13.740000	26.472605
13.750000	26.472605
13.760000	26.472605
13.770000	26.472605
13.780000	26.472605
13.790000	26.472605
13.800000	26.472605
13.810000	26.472605
13.820000	26.472605
13.830000	26.472605
13.840000	26.472605
13.850000	26.472605
13.860000	26.472605
13.870000	26.472605
13.880000	26.472605
13.890000	26.472605
13.900000	26.472605
13.910000	26.472605
13.920000	26.472605
13.930000	26.472605
13.940000	26.472605
13.950000	26.472605
13.960000	26.472605
13.970000	26.472605
13.980000	26.472605
13.990000	26.472605
14.000000	26.444320
14.010000	26.444320
14.020000	26.444320
14.030000	26.444320
14.040000	26.444320
14.050000	26.444320
14.060000	26.444320
14.070000	26.444320
14.080000	26.444320
14.090000	26.444320
14.100000	26.444320
14.110000	26.444320
14.120000	26.444320
14.130000	26.444320
14.140000	26.444320
14.150000	26.444320
14.160000	26.444320
14.170000	26.444320
14.180000	26.444320
14.190000	26.444320
14.200000	26.444320
14.210000	26.444320
14.220000	26.444320
14.230000	26.444320
14.240000	26.444320
14.250000	26.444320
14.260000	26.444320
14.270000	26.444320
14.280000	26.444320
14.290000	26.444320
14.300000	26.444320
14.310000	26.444320
14.320000	26.444320
14.330000	26.444320
14.340000	26.444320
14.350000	26.444320
14.360000	26.444320
14.370000	26.444320
14.380000	26.444320
14.390000	26.444320
14.400000	26.444320
14.410000	26.444320
14.420000	26.444320
14.430000	26.444320
14.440000	26.444320
14.450000	26.444320
14.460000	26.444320
14.470000	26.444320
14.480000	26.444320
14.490000	26.444320
14.500000	26.416103
14.510000	26.416103
14.520000	26.416103
14.530000	26.416103
14.540000	26.416103
14.550000	26.416103
14.560000	26.416103
14.570000	26.416103
14.580000	26.416103
14.590000	26.416103
14.600000	26.416103
14.610000	26.416103
14.620000	26.416103
14.630000	26.416103
14.640000	26.416103
14.650000	26.416103
14.660000	26.416103
14.670000	26.416103
14.680000	26.416103
14.690000	26.416103
14.700000	26.416103
14.710000	26.416103
14.720000	26.416103
14.730000	26.416103
14.740000	26.416103
14.750000	26.416103
14.760000	26.416103
14.770000	26.416103
14.780000	26.416103
14.790000	26.416103
14.800000	26.416103
14.810000	26.416103
14.820000	26.416103
14.830000	26.416103
14.840000	26.416103
14.850000	26.416103
14.860000	26.416103
14.870000	26.416103
14.880000	26.416103
14.890000	26.416103
14.900000	26.416103
14.910000	26.416103
14.920000	26.416103
14.930000	26.416103
14.940000	26.416103
14.950000	26.416103
14.960000	26.416103
14.970000	26.416103
14.980000	26.416103
14.990000	26.416103
15.000000	26.387812
15.010000	26.387812
15.020000	26.387812
15.030000	26.387812
15.040000	26.387812
15.050000	26.387812
15.060000	26.387812
15.070000	26.387812
15.080000	26.387812
15.090000	26.387812
15.100000	26.387812
15.110000	26.387812
15.120000	26.387812
15.130000	26.387812
15.140000	26.387812
15.150000	26.387812
15.160000	26.387812
15.170000	26.387812
15.180000	26.387812
15.190000	26.387812
15.200000	26.387812
15.210000	26.387812
15.220000	26.387812
15.230000	26.387812
15.240000	26.387812
15.250000	26.387812
15.260000	26.387812
15.270000	26.387812
15.280000	26.387812
15.290000	26.387812
15.300000	26.387812
15.310000	26.387812
15.320000	26.387812
15.330000	26.387812
15.340000	26.387812
15.350000	26.387812
15.360000	26.387812
15.370000	26.387812
15.380000	26.387812
15.390000	26.387812
15.400000	26.387812
15.410000	26.387812
15.420000	26.387812
15.430000	26.387812
15.440000	26.387812
15.450000	26.387812
15.460000	26.387812
15.470000	26.387812
15.480000	26.387812
15.490000	26.387812
15.500000	26.359681
15.510000	26.359681
15.520000	26.359681
15.530000	26.359681
15.540000	26.359681
15.550000	26.359681
15.560000	26.359681
15.570000	26.359681
15.580000	26.359681
15.590000	26.359681
15.600000	26.359681
15.610000	26.359681
15.620000	26.359681
15.630000	26.359681
15.640000	26.359681
15.650000	26.359681
15.660000	26.359681
15.670000	26.359681
15.680000	26.359681
15.690000	26.359681
15.700000	26.359681
15.710000	26.359681
15.720000	26.359681
15.730000	26.359681
15.740000	26.359681
15.750000	26.359681
15.760000	26.359681
15.770000	26.359681
15.780000	26.359681
15.790000	26.359681
15.800000	26.359681
15.810000	26.359681
15.820000	26.359681
15.830000	26.359681
15.840000	26.359681
15.850000	26.359681
15.860000	26.359681
15.870000	26.359681
15.880000	26.359681
15.890000	26.359681
15.900000	26.359681
15.910000	26.359681
15.920000	26.359681
15.930000	26.359681
15.940000	26.359681
15.950000	26.359681
15.960000	26.359681
15.970000	26.359681
15.980000	26.359681
15.990000	26.359681
16.000000	26.332491
16.010000	26.332491
16.020000	26.332491
16.030000	26.332491
16.040000	26.332491
16.050000	26.332491
16.060000	26.332491
16.070000	26.332491
16.080000	26.332491
16.090000	26.332491
16.100000	26.332491
16.110000	26.332491
16.120000	26.332491
16.130000	26.332491
16.140000	26.332491
16.150000	26.332491
16.160000	26.332491
16.170000	26.332491
16.180000	26.332491
16.190000	26.332491
16.200000	26.332491
16.210000	26.332491
16.220000	26.332491
16.230000	26.332491
16.240000	26.332491
16.250000	26.332491
16.260000	26.332491
16.270000	26.332491
16.280000	26.332491
16.290000	26.332491
16.300000	26.332491
16.310000	26.332491
16.320000	26.332491
16.330000	26.332491
16.340000	26.332491
16.350000	26.332491
16.360000	26.332491
16.370000	26.332491
16.380000	26.332491
16.390000	26.332491
16.400000	26.332491
16.410000	26.332491
16.420000	26.332491
16.430000	26.332491
16.440000	26.332491
16.450000	26.332491
16.460000	26.332491
16.470000	26.332491
16.480000	26.332491
16.490000	26.332491
16.500000	26.305237
16.510000	26.305237
16.520000	26.305237
16.530000	26.305237
16.540000	26.305237
16.550000	26.305237
16.560000	26.305237
16.570000	26.305237
16.580000	26.305237
16.590000	26.305237
16.600000	26.305237
16.610000	26.305237
16.620000	26.305237
16.630000	26.305237
16.640000	26.305237
16.650000	26.305237
16.660000	26.305237
16.670000	26.305237
16.680000	26.305237
16.690000	26.305237
16.700000	26.305237
16.710000	26.305237
16.720000	26.305237
16.730000	26.305237
16.740000	26.305237
16.750000	26.305237
16.760000	26.305237
16.770000	26.305237
16.780000	26.305237
16.790000	26.305237
16.800000	26.305237
16.810000	26.305237
16.820000	26.305237
16.830000	26.305237
16.840000	26.305237
16.850000	26.305237
16.860000	26.305237
16.870000	26.305237
16.880000	26.305237
16.890000	26.305237
16.900000	26.305237
16.910000	26.305237
16.920000	26.305237
16.930000	26.305237
16.940000	26.305237
16.950000	26.305237
16.960000	26.305237
16.970000	26.305237
16.980000	26.305237
16.990000	26.305237
17.000000	26.278481
17.010000	26.278481
17.020000	26.278481
17.030000	26.278481
17.040000	26.278481
17.050000	26.278481
17.060000	26.278481
17.070000	26.278481
17.080000	26.278481
17.090000	26.278481
17.100000	26.278481
17.110000	26.278481
17.120000	26.278481
17.130000	26.278481
17.140000	26.278481
17.150000	26.278481
17.160000	26.278481
17.170000	26.278481
17.180000	26.278481
17.190000	26.278481
17.200000	26.278481
17.210000	26.278481
17.220000	26.278481
17.230000	26.278481
17.240000	26.278481
17.250000	26.278481
17.260000	26.278481
17.270000	26.278481
17.280000	26.278481
17.290000	26.278481
17.300000	26.278481
17.310000	26.278481
17.320000	26.278481
17.330000	26.278481
17.340000	26.278481
17.350000	26.278481
17.360000	26.278481
17.370000	26.278481
17.380000	26.278481
17.390000	26.278481
17.400000	26.278481
17.410000	26.278481
17.420000	26.278481
17.430000	26.278481
17.440000	26.278481
17.450000	26.278481
17.460000	26.278481
17.470000	26.278481
17.480000	26.278481
17.490000	26.278481
