LabVIEW Measurement	
Writer_Version	2
Reader_Version	2
Separator	Tab
Decimal_Separator	.
Multi_Headings	No
X_Columns	One
Time_Pref	Absolute
Operator	biomech-dyno
Date	2023/05/01
Time	15:28:10.3296671999997826969
***End_of_Header***	
	
Channels	1	
Samples	10	
Date	2023/05/01	
Time	16:06:38.8207796999995284017	
X_Dimension	Time	
X0	0.0000000000000000E+0	
Delta_X	0.010000	
***End_of_Header***		
X_Value	Untitled	Comment
0.000000	24.458059
0.010000	24.458059
0.020000	24.458059
0.030000	24.458059
0.040000	24.458059
0.050000	24.458059
0.060000	24.458059
0.070000	24.458059
0.080000	24.458059
0.090000	24.458059
0.100000	24.458059
0.110000	24.458059
0.120000	24.458059
0.130000	24.458059
0.140000	24.458059
0.150000	24.458059
0.160000	24.458059
0.170000	24.458059
0.180000	24.458059
0.190000	24.458059
0.200000	24.458059
0.210000	24.458059
0.220000	24.458059
0.230000	24.458059
0.240000	24.458059
0.250000	24.458059
0.260000	24.458059
0.270000	24.458059
0.280000	24.458059
0.290000	24.458059
0.300000	24.458059
0.310000	24.458059
0.320000	24.458059
0.330000	24.458059
0.340000	24.458059
0.350000	24.458059
0.360000	24.458059
0.370000	24.458059
0.380000	24.458059
0.390000	24.458059
0.400000	24.458059
0.410000	24.458059
0.420000	24.458059
0.430000	24.458059
0.440000	24.458059
0.450000	24.458059
0.460000	24.458059
0.470000	24.458059
0.480000	24.458059
0.490000	24.458059
0.500000	24.461785
0.510000	24.461785
0.520000	24.461785
0.530000	24.461785
0.540000	24.461785
0.550000	24.461785
0.560000	24.461785
0.570000	24.461785
0.580000	24.461785
0.590000	24.461785
0.600000	24.461785
0.610000	24.461785
0.620000	24.461785
0.630000	24.461785
0.640000	24.461785
0.650000	24.461785
0.660000	24.461785
0.670000	24.461785
0.680000	24.461785
0.690000	24.461785
0.700000	24.461785
0.710000	24.461785
0.720000	24.461785
0.730000	24.461785
0.740000	24.461785
0.750000	24.461785
0.760000	24.461785
0.770000	24.461785
0.780000	24.461785
0.790000	24.461785
0.800000	24.461785
0.810000	24.461785
0.820000	24.461785
0.830000	24.461785
0.840000	24.461785
0.850000	24.461785
0.860000	24.461785
0.870000	24.461785
0.880000	24.461785
0.890000	24.461785
0.900000	24.461785
0.910000	24.461785
0.920000	24.461785
0.930000	24.461785
0.940000	24.461785
0.950000	24.461785
0.960000	24.461785
0.970000	24.461785
0.980000	24.461785
0.990000	24.461785
1.000000	24.471616
1.010000	24.471616
1.020000	24.471616
1.030000	24.471616
1.040000	24.471616
1.050000	24.471616
1.060000	24.471616
1.070000	24.471616
1.080000	24.471616
1.090000	24.471616
1.100000	24.471616
1.110000	24.471616
1.120000	24.471616
1.130000	24.471616
1.140000	24.471616
1.150000	24.471616
1.160000	24.471616
1.170000	24.471616
1.180000	24.471616
1.190000	24.471616
1.200000	24.471616
1.210000	24.471616
1.220000	24.471616
1.230000	24.471616
1.240000	24.471616
1.250000	24.471616
1.260000	24.471616
1.270000	24.471616
1.280000	24.471616
1.290000	24.471616
1.300000	24.471616
1.310000	24.471616
1.320000	24.471616
1.330000	24.471616
1.340000	24.471616
1.350000	24.471616
1.360000	24.471616
1.370000	24.471616
1.380000	24.471616
1.390000	24.471616
1.400000	24.471616
1.410000	24.471616
1.420000	24.471616
1.430000	24.471616
1.440000	24.471616
1.450000	24.471616
1.460000	24.471616
1.470000	24.471616
1.480000	24.471616
1.490000	24.471616
1.500000	24.489668
1.510000	24.489668
1.520000	24.489668
1.530000	24.489668
1.540000	24.489668
1.550000	24.489668
1.560000	24.489668
1.570000	24.489668
1.580000	24.489668
1.590000	24.489668
1.600000	24.489668
1.610000	24.489668
1.620000	24.489668
1.630000	24.489668
1.640000	24.489668
1.650000	24.489668
1.660000	24.489668
1.670000	24.489668
1.680000	24.489668
1.690000	24.489668
1.700000	24.489668
1.710000	24.489668
1.720000	24.489668
1.730000	24.489668
1.740000	24.489668
1.750000	24.489668
1.760000	24.489668
1.770000	24.489668
1.780000	24.489668
1.790000	24.489668
1.800000	24.489668
1.810000	24.489668
1.820000	24.489668
1.830000	24.489668
1.840000	24.489668
1.850000	24.489668
1.860000	24.489668
1.870000	24.489668
1.880000	24.489668
1.890000	24.489668
1.900000	24.489668
1.910000	24.489668
1.920000	24.489668
1.930000	24.489668
1.940000	24.489668
1.950000	24.489668
1.960000	24.489668
1.970000	24.489668
1.980000	24.489668
1.990000	24.489668
2.000000	24.515017
2.010000	24.515017
2.020000	24.515017
2.030000	24.515017
2.040000	24.515017
2.050000	24.515017
2.060000	24.515017
2.070000	24.515017
2.080000	24.515017
2.090000	24.515017
2.100000	24.515017
2.110000	24.515017
2.120000	24.515017
2.130000	24.515017
2.140000	24.515017
2.150000	24.515017
2.160000	24.515017
2.170000	24.515017
2.180000	24.515017
2.190000	24.515017
2.200000	24.515017
2.210000	24.515017
2.220000	24.515017
2.230000	24.515017
2.240000	24.515017
2.250000	24.515017
2.260000	24.515017
2.270000	24.515017
2.280000	24.515017
2.290000	24.515017
2.300000	24.515017
2.310000	24.515017
2.320000	24.515017
2.330000	24.515017
2.340000	24.515017
2.350000	24.515017
2.360000	24.515017
2.370000	24.515017
2.380000	24.515017
2.390000	24.515017
2.400000	24.515017
2.410000	24.515017
2.420000	24.515017
2.430000	24.515017
2.440000	24.515017
2.450000	24.515017
2.460000	24.515017
2.470000	24.515017
2.480000	24.515017
2.490000	24.515017
2.500000	24.545185
2.510000	24.545185
2.520000	24.545185
2.530000	24.545185
2.540000	24.545185
2.550000	24.545185
2.560000	24.545185
2.570000	24.545185
2.580000	24.545185
2.590000	24.545185
2.600000	24.545185
2.610000	24.545185
2.620000	24.545185
2.630000	24.545185
2.640000	24.545185
2.650000	24.545185
2.660000	24.545185
2.670000	24.545185
2.680000	24.545185
2.690000	24.545185
2.700000	24.545185
2.710000	24.545185
2.720000	24.545185
2.730000	24.545185
2.740000	24.545185
2.750000	24.545185
2.760000	24.545185
2.770000	24.545185
2.780000	24.545185
2.790000	24.545185
2.800000	24.545185
2.810000	24.545185
2.820000	24.545185
2.830000	24.545185
2.840000	24.545185
2.850000	24.545185
2.860000	24.545185
2.870000	24.545185
2.880000	24.545185
2.890000	24.545185
2.900000	24.545185
2.910000	24.545185
2.920000	24.545185
2.930000	24.545185
2.940000	24.545185
2.950000	24.545185
2.960000	24.545185
2.970000	24.545185
2.980000	24.545185
2.990000	24.545185
3.000000	24.579059
3.010000	24.579059
3.020000	24.579059
3.030000	24.579059
3.040000	24.579059
3.050000	24.579059
3.060000	24.579059
3.070000	24.579059
3.080000	24.579059
3.090000	24.579059
3.100000	24.579059
3.110000	24.579059
3.120000	24.579059
3.130000	24.579059
3.140000	24.579059
3.150000	24.579059
3.160000	24.579059
3.170000	24.579059
3.180000	24.579059
3.190000	24.579059
3.200000	24.579059
3.210000	24.579059
3.220000	24.579059
3.230000	24.579059
3.240000	24.579059
3.250000	24.579059
3.260000	24.579059
3.270000	24.579059
3.280000	24.579059
3.290000	24.579059
3.300000	24.579059
3.310000	24.579059
3.320000	24.579059
3.330000	24.579059
3.340000	24.579059
3.350000	24.579059
3.360000	24.579059
3.370000	24.579059
3.380000	24.579059
3.390000	24.579059
3.400000	24.579059
3.410000	24.579059
3.420000	24.579059
3.430000	24.579059
3.440000	24.579059
3.450000	24.579059
3.460000	24.579059
3.470000	24.579059
3.480000	24.579059
3.490000	24.579059
3.500000	24.610483
3.510000	24.610483
3.520000	24.610483
3.530000	24.610483
3.540000	24.610483
3.550000	24.610483
3.560000	24.610483
3.570000	24.610483
3.580000	24.610483
3.590000	24.610483
3.600000	24.610483
3.610000	24.610483
3.620000	24.610483
3.630000	24.610483
3.640000	24.610483
3.650000	24.610483
3.660000	24.610483
3.670000	24.610483
3.680000	24.610483
3.690000	24.610483
3.700000	24.610483
3.710000	24.610483
3.720000	24.610483
3.730000	24.610483
3.740000	24.610483
3.750000	24.610483
3.760000	24.610483
3.770000	24.610483
3.780000	24.610483
3.790000	24.610483
3.800000	24.610483
3.810000	24.610483
3.820000	24.610483
3.830000	24.610483
3.840000	24.610483
3.850000	24.610483
3.860000	24.610483
3.870000	24.610483
3.880000	24.610483
3.890000	24.610483
3.900000	24.610483
3.910000	24.610483
3.920000	24.610483
3.930000	24.610483
3.940000	24.610483
3.950000	24.610483
3.960000	24.610483
3.970000	24.610483
3.980000	24.610483
3.990000	24.610483
4.000000	24.635958
4.010000	24.635958
4.020000	24.635958
4.030000	24.635958
4.040000	24.635958
4.050000	24.635958
4.060000	24.635958
4.070000	24.635958
4.080000	24.635958
4.090000	24.635958
4.100000	24.635958
4.110000	24.635958
4.120000	24.635958
4.130000	24.635958
4.140000	24.635958
4.150000	24.635958
4.160000	24.635958
4.170000	24.635958
4.180000	24.635958
4.190000	24.635958
4.200000	24.635958
4.210000	24.635958
4.220000	24.635958
4.230000	24.635958
4.240000	24.635958
4.250000	24.635958
4.260000	24.635958
4.270000	24.635958
4.280000	24.635958
4.290000	24.635958
4.300000	24.635958
4.310000	24.635958
4.320000	24.635958
4.330000	24.635958
4.340000	24.635958
4.350000	24.635958
4.360000	24.635958
4.370000	24.635958
4.380000	24.635958
4.390000	24.635958
4.400000	24.635958
4.410000	24.635958
4.420000	24.635958
4.430000	24.635958
4.440000	24.635958
4.450000	24.635958
4.460000	24.635958
4.470000	24.635958
4.480000	24.635958
4.490000	24.635958
4.500000	24.657502
4.510000	24.657502
4.520000	24.657502
4.530000	24.657502
4.540000	24.657502
4.550000	24.657502
4.560000	24.657502
4.570000	24.657502
4.580000	24.657502
4.590000	24.657502
4.600000	24.657502
4.610000	24.657502
4.620000	24.657502
4.630000	24.657502
4.640000	24.657502
4.650000	24.657502
4.660000	24.657502
4.670000	24.657502
4.680000	24.657502
4.690000	24.657502
4.700000	24.657502
4.710000	24.657502
4.720000	24.657502
4.730000	24.657502
4.740000	24.657502
4.750000	24.657502
4.760000	24.657502
4.770000	24.657502
4.780000	24.657502
4.790000	24.657502
4.800000	24.657502
4.810000	24.657502
4.820000	24.657502
4.830000	24.657502
4.840000	24.657502
4.850000	24.657502
4.860000	24.657502
4.870000	24.657502
4.880000	24.657502
4.890000	24.657502
4.900000	24.657502
4.910000	24.657502
4.920000	24.657502
4.930000	24.657502
4.940000	24.657502
4.950000	24.657502
4.960000	24.657502
4.970000	24.657502
4.980000	24.657502
4.990000	24.657502
5.000000	24.675292
5.010000	24.675292
5.020000	24.675292
5.030000	24.675292
5.040000	24.675292
5.050000	24.675292
5.060000	24.675292
5.070000	24.675292
5.080000	24.675292
5.090000	24.675292
5.100000	24.675292
5.110000	24.675292
5.120000	24.675292
5.130000	24.675292
5.140000	24.675292
5.150000	24.675292
5.160000	24.675292
5.170000	24.675292
5.180000	24.675292
5.190000	24.675292
5.200000	24.675292
5.210000	24.675292
5.220000	24.675292
5.230000	24.675292
5.240000	24.675292
5.250000	24.675292
5.260000	24.675292
5.270000	24.675292
5.280000	24.675292
5.290000	24.675292
5.300000	24.675292
5.310000	24.675292
5.320000	24.675292
5.330000	24.675292
5.340000	24.675292
5.350000	24.675292
5.360000	24.675292
5.370000	24.675292
5.380000	24.675292
5.390000	24.675292
5.400000	24.675292
5.410000	24.675292
5.420000	24.675292
5.430000	24.675292
5.440000	24.675292
5.450000	24.675292
5.460000	24.675292
5.470000	24.675292
5.480000	24.675292
5.490000	24.675292
5.500000	24.689447
5.510000	24.689447
5.520000	24.689447
5.530000	24.689447
5.540000	24.689447
5.550000	24.689447
5.560000	24.689447
5.570000	24.689447
5.580000	24.689447
5.590000	24.689447
5.600000	24.689447
5.610000	24.689447
5.620000	24.689447
5.630000	24.689447
5.640000	24.689447
5.650000	24.689447
5.660000	24.689447
5.670000	24.689447
5.680000	24.689447
5.690000	24.689447
5.700000	24.689447
5.710000	24.689447
5.720000	24.689447
5.730000	24.689447
5.740000	24.689447
5.750000	24.689447
5.760000	24.689447
5.770000	24.689447
5.780000	24.689447
5.790000	24.689447
5.800000	24.689447
5.810000	24.689447
5.820000	24.689447
5.830000	24.689447
5.840000	24.689447
5.850000	24.689447
5.860000	24.689447
5.870000	24.689447
5.880000	24.689447
5.890000	24.689447
5.900000	24.689447
5.910000	24.689447
5.920000	24.689447
5.930000	24.689447
5.940000	24.689447
5.950000	24.689447
5.960000	24.689447
5.970000	24.689447
5.980000	24.689447
5.990000	24.689447
6.000000	24.700160
6.010000	24.700160
6.020000	24.700160
6.030000	24.700160
6.040000	24.700160
6.050000	24.700160
6.060000	24.700160
6.070000	24.700160
6.080000	24.700160
6.090000	24.700160
6.100000	24.700160
6.110000	24.700160
6.120000	24.700160
6.130000	24.700160
6.140000	24.700160
6.150000	24.700160
6.160000	24.700160
6.170000	24.700160
6.180000	24.700160
6.190000	24.700160
6.200000	24.700160
6.210000	24.700160
6.220000	24.700160
6.230000	24.700160
6.240000	24.700160
6.250000	24.700160
6.260000	24.700160
6.270000	24.700160
6.280000	24.700160
6.290000	24.700160
6.300000	24.700160
6.310000	24.700160
6.320000	24.700160
6.330000	24.700160
6.340000	24.700160
6.350000	24.700160
6.360000	24.700160
6.370000	24.700160
6.380000	24.700160
6.390000	24.700160
6.400000	24.700160
6.410000	24.700160
6.420000	24.700160
6.430000	24.700160
6.440000	24.700160
6.450000	24.700160
6.460000	24.700160
6.470000	24.700160
6.480000	24.700160
6.490000	24.700160
6.500000	24.708362
6.510000	24.708362
6.520000	24.708362
6.530000	24.708362
6.540000	24.708362
6.550000	24.708362
6.560000	24.708362
6.570000	24.708362
6.580000	24.708362
6.590000	24.708362
6.600000	24.708362
6.610000	24.708362
6.620000	24.708362
6.630000	24.708362
6.640000	24.708362
6.650000	24.708362
6.660000	24.708362
6.670000	24.708362
6.680000	24.708362
6.690000	24.708362
6.700000	24.708362
6.710000	24.708362
6.720000	24.708362
6.730000	24.708362
6.740000	24.708362
6.750000	24.708362
6.760000	24.708362
6.770000	24.708362
6.780000	24.708362
6.790000	24.708362
6.800000	24.708362
6.810000	24.708362
6.820000	24.708362
6.830000	24.708362
6.840000	24.708362
6.850000	24.708362
6.860000	24.708362
6.870000	24.708362
6.880000	24.708362
6.890000	24.708362
6.900000	24.708362
6.910000	24.708362
6.920000	24.708362
6.930000	24.708362
6.940000	24.708362
6.950000	24.708362
6.960000	24.708362
6.970000	24.708362
6.980000	24.708362
6.990000	24.708362
7.000000	24.715140
7.010000	24.715140
7.020000	24.715140
7.030000	24.715140
7.040000	24.715140
7.050000	24.715140
7.060000	24.715140
7.070000	24.715140
7.080000	24.715140
7.090000	24.715140
7.100000	24.715140
7.110000	24.715140
7.120000	24.715140
7.130000	24.715140
7.140000	24.715140
7.150000	24.715140
7.160000	24.715140
7.170000	24.715140
7.180000	24.715140
7.190000	24.715140
7.200000	24.715140
7.210000	24.715140
7.220000	24.715140
7.230000	24.715140
7.240000	24.715140
7.250000	24.715140
7.260000	24.715140
7.270000	24.715140
7.280000	24.715140
7.290000	24.715140
7.300000	24.715140
7.310000	24.715140
7.320000	24.715140
7.330000	24.715140
7.340000	24.715140
7.350000	24.715140
7.360000	24.715140
7.370000	24.715140
7.380000	24.715140
7.390000	24.715140
7.400000	24.715140
7.410000	24.715140
7.420000	24.715140
7.430000	24.715140
7.440000	24.715140
7.450000	24.715140
7.460000	24.715140
7.470000	24.715140
7.480000	24.715140
7.490000	24.715140
7.500000	24.720503
7.510000	24.720503
7.520000	24.720503
7.530000	24.720503
7.540000	24.720503
7.550000	24.720503
7.560000	24.720503
7.570000	24.720503
7.580000	24.720503
7.590000	24.720503
7.600000	24.720503
7.610000	24.720503
7.620000	24.720503
7.630000	24.720503
7.640000	24.720503
7.650000	24.720503
7.660000	24.720503
7.670000	24.720503
7.680000	24.720503
7.690000	24.720503
7.700000	24.720503
7.710000	24.720503
7.720000	24.720503
7.730000	24.720503
7.740000	24.720503
7.750000	24.720503
7.760000	24.720503
7.770000	24.720503
7.780000	24.720503
7.790000	24.720503
7.800000	24.720503
7.810000	24.720503
7.820000	24.720503
7.830000	24.720503
7.840000	24.720503
7.850000	24.720503
7.860000	24.720503
7.870000	24.720503
7.880000	24.720503
7.890000	24.720503
7.900000	24.720503
7.910000	24.720503
7.920000	24.720503
7.930000	24.720503
7.940000	24.720503
7.950000	24.720503
7.960000	24.720503
7.970000	24.720503
7.980000	24.720503
7.990000	24.720503
8.000000	24.725743
8.010000	24.725743
8.020000	24.725743
8.030000	24.725743
8.040000	24.725743
8.050000	24.725743
8.060000	24.725743
8.070000	24.725743
8.080000	24.725743
8.090000	24.725743
8.100000	24.725743
8.110000	24.725743
8.120000	24.725743
8.130000	24.725743
8.140000	24.725743
8.150000	24.725743
8.160000	24.725743
8.170000	24.725743
8.180000	24.725743
8.190000	24.725743
8.200000	24.725743
8.210000	24.725743
8.220000	24.725743
8.230000	24.725743
8.240000	24.725743
8.250000	24.725743
8.260000	24.725743
8.270000	24.725743
8.280000	24.725743
8.290000	24.725743
8.300000	24.725743
8.310000	24.725743
8.320000	24.725743
8.330000	24.725743
8.340000	24.725743
8.350000	24.725743
8.360000	24.725743
8.370000	24.725743
8.380000	24.725743
8.390000	24.725743
8.400000	24.725743
8.410000	24.725743
8.420000	24.725743
8.430000	24.725743
8.440000	24.725743
8.450000	24.725743
8.460000	24.725743
8.470000	24.725743
8.480000	24.725743
8.490000	24.725743
8.500000	24.728745
8.510000	24.728745
8.520000	24.728745
8.530000	24.728745
8.540000	24.728745
8.550000	24.728745
8.560000	24.728745
8.570000	24.728745
8.580000	24.728745
8.590000	24.728745
8.600000	24.728745
8.610000	24.728745
8.620000	24.728745
8.630000	24.728745
8.640000	24.728745
8.650000	24.728745
8.660000	24.728745
8.670000	24.728745
8.680000	24.728745
8.690000	24.728745
8.700000	24.728745
8.710000	24.728745
8.720000	24.728745
8.730000	24.728745
8.740000	24.728745
8.750000	24.728745
8.760000	24.728745
8.770000	24.728745
8.780000	24.728745
8.790000	24.728745
8.800000	24.728745
8.810000	24.728745
8.820000	24.728745
8.830000	24.728745
8.840000	24.728745
8.850000	24.728745
8.860000	24.728745
8.870000	24.728745
8.880000	24.728745
8.890000	24.728745
8.900000	24.728745
8.910000	24.728745
8.920000	24.728745
8.930000	24.728745
8.940000	24.728745
8.950000	24.728745
8.960000	24.728745
8.970000	24.728745
8.980000	24.728745
8.990000	24.728745
9.000000	24.730783
9.010000	24.730783
9.020000	24.730783
9.030000	24.730783
9.040000	24.730783
9.050000	24.730783
9.060000	24.730783
9.070000	24.730783
9.080000	24.730783
9.090000	24.730783
9.100000	24.730783
9.110000	24.730783
9.120000	24.730783
9.130000	24.730783
9.140000	24.730783
9.150000	24.730783
9.160000	24.730783
9.170000	24.730783
9.180000	24.730783
9.190000	24.730783
9.200000	24.730783
9.210000	24.730783
9.220000	24.730783
9.230000	24.730783
9.240000	24.730783
9.250000	24.730783
9.260000	24.730783
9.270000	24.730783
9.280000	24.730783
9.290000	24.730783
9.300000	24.730783
9.310000	24.730783
9.320000	24.730783
9.330000	24.730783
9.340000	24.730783
9.350000	24.730783
9.360000	24.730783
9.370000	24.730783
9.380000	24.730783
9.390000	24.730783
9.400000	24.730783
9.410000	24.730783
9.420000	24.730783
9.430000	24.730783
9.440000	24.730783
9.450000	24.730783
9.460000	24.730783
9.470000	24.730783
9.480000	24.730783
9.490000	24.730783
9.500000	24.731668
9.510000	24.731668
9.520000	24.731668
9.530000	24.731668
9.540000	24.731668
9.550000	24.731668
9.560000	24.731668
9.570000	24.731668
9.580000	24.731668
9.590000	24.731668
9.600000	24.731668
9.610000	24.731668
9.620000	24.731668
9.630000	24.731668
9.640000	24.731668
9.650000	24.731668
9.660000	24.731668
9.670000	24.731668
9.680000	24.731668
9.690000	24.731668
9.700000	24.731668
9.710000	24.731668
9.720000	24.731668
9.730000	24.731668
9.740000	24.731668
9.750000	24.731668
9.760000	24.731668
9.770000	24.731668
9.780000	24.731668
9.790000	24.731668
9.800000	24.731668
9.810000	24.731668
9.820000	24.731668
9.830000	24.731668
9.840000	24.731668
9.850000	24.731668
9.860000	24.731668
9.870000	24.731668
9.880000	24.731668
9.890000	24.731668
9.900000	24.731668
9.910000	24.731668
9.920000	24.731668
9.930000	24.731668
9.940000	24.731668
9.950000	24.731668
9.960000	24.731668
9.970000	24.731668
9.980000	24.731668
9.990000	24.731668
10.000000	24.732380
10.010000	24.732380
10.020000	24.732380
10.030000	24.732380
10.040000	24.732380
10.050000	24.732380
10.060000	24.732380
10.070000	24.732380
10.080000	24.732380
10.090000	24.732380
10.100000	24.732380
10.110000	24.732380
10.120000	24.732380
10.130000	24.732380
10.140000	24.732380
10.150000	24.732380
10.160000	24.732380
10.170000	24.732380
10.180000	24.732380
10.190000	24.732380
10.200000	24.732380
10.210000	24.732380
10.220000	24.732380
10.230000	24.732380
10.240000	24.732380
10.250000	24.732380
10.260000	24.732380
10.270000	24.732380
10.280000	24.732380
10.290000	24.732380
10.300000	24.732380
10.310000	24.732380
10.320000	24.732380
10.330000	24.732380
10.340000	24.732380
10.350000	24.732380
10.360000	24.732380
10.370000	24.732380
10.380000	24.732380
10.390000	24.732380
10.400000	24.732380
10.410000	24.732380
10.420000	24.732380
10.430000	24.732380
10.440000	24.732380
10.450000	24.732380
10.460000	24.732380
10.470000	24.732380
10.480000	24.732380
10.490000	24.732380
10.500000	24.732761
10.510000	24.732761
10.520000	24.732761
10.530000	24.732761
10.540000	24.732761
10.550000	24.732761
10.560000	24.732761
10.570000	24.732761
10.580000	24.732761
10.590000	24.732761
10.600000	24.732761
10.610000	24.732761
10.620000	24.732761
10.630000	24.732761
10.640000	24.732761
10.650000	24.732761
10.660000	24.732761
10.670000	24.732761
10.680000	24.732761
10.690000	24.732761
10.700000	24.732761
10.710000	24.732761
10.720000	24.732761
10.730000	24.732761
10.740000	24.732761
10.750000	24.732761
10.760000	24.732761
10.770000	24.732761
10.780000	24.732761
10.790000	24.732761
10.800000	24.732761
10.810000	24.732761
10.820000	24.732761
10.830000	24.732761
10.840000	24.732761
10.850000	24.732761
10.860000	24.732761
10.870000	24.732761
10.880000	24.732761
10.890000	24.732761
10.900000	24.732761
10.910000	24.732761
10.920000	24.732761
10.930000	24.732761
10.940000	24.732761
10.950000	24.732761
10.960000	24.732761
10.970000	24.732761
10.980000	24.732761
10.990000	24.732761
11.000000	24.732449
11.010000	24.732449
11.020000	24.732449
11.030000	24.732449
11.040000	24.732449
11.050000	24.732449
11.060000	24.732449
11.070000	24.732449
11.080000	24.732449
11.090000	24.732449
11.100000	24.732449
11.110000	24.732449
11.120000	24.732449
11.130000	24.732449
11.140000	24.732449
11.150000	24.732449
11.160000	24.732449
11.170000	24.732449
11.180000	24.732449
11.190000	24.732449
11.200000	24.732449
11.210000	24.732449
11.220000	24.732449
11.230000	24.732449
11.240000	24.732449
11.250000	24.732449
11.260000	24.732449
11.270000	24.732449
11.280000	24.732449
11.290000	24.732449
11.300000	24.732449
11.310000	24.732449
11.320000	24.732449
11.330000	24.732449
11.340000	24.732449
11.350000	24.732449
11.360000	24.732449
11.370000	24.732449
11.380000	24.732449
11.390000	24.732449
11.400000	24.732449
11.410000	24.732449
11.420000	24.732449
11.430000	24.732449
11.440000	24.732449
11.450000	24.732449
11.460000	24.732449
11.470000	24.732449
11.480000	24.732449
11.490000	24.732449
11.500000	24.732024
11.510000	24.732024
11.520000	24.732024
11.530000	24.732024
11.540000	24.732024
11.550000	24.732024
11.560000	24.732024
11.570000	24.732024
11.580000	24.732024
11.590000	24.732024
11.600000	24.732024
11.610000	24.732024
11.620000	24.732024
11.630000	24.732024
11.640000	24.732024
11.650000	24.732024
11.660000	24.732024
11.670000	24.732024
11.680000	24.732024
11.690000	24.732024
11.700000	24.732024
11.710000	24.732024
11.720000	24.732024
11.730000	24.732024
11.740000	24.732024
11.750000	24.732024
11.760000	24.732024
11.770000	24.732024
11.780000	24.732024
11.790000	24.732024
11.800000	24.732024
11.810000	24.732024
11.820000	24.732024
11.830000	24.732024
11.840000	24.732024
11.850000	24.732024
11.860000	24.732024
11.870000	24.732024
11.880000	24.732024
11.890000	24.732024
11.900000	24.732024
11.910000	24.732024
11.920000	24.732024
11.930000	24.732024
11.940000	24.732024
11.950000	24.732024
11.960000	24.732024
11.970000	24.732024
11.980000	24.732024
11.990000	24.732024
12.000000	24.730983
12.010000	24.730983
12.020000	24.730983
12.030000	24.730983
12.040000	24.730983
12.050000	24.730983
12.060000	24.730983
12.070000	24.730983
12.080000	24.730983
12.090000	24.730983
12.100000	24.730983
12.110000	24.730983
12.120000	24.730983
12.130000	24.730983
12.140000	24.730983
12.150000	24.730983
12.160000	24.730983
12.170000	24.730983
12.180000	24.730983
12.190000	24.730983
12.200000	24.730983
12.210000	24.730983
12.220000	24.730983
12.230000	24.730983
12.240000	24.730983
12.250000	24.730983
12.260000	24.730983
12.270000	24.730983
12.280000	24.730983
12.290000	24.730983
12.300000	24.730983
12.310000	24.730983
12.320000	24.730983
12.330000	24.730983
12.340000	24.730983
12.350000	24.730983
12.360000	24.730983
12.370000	24.730983
12.380000	24.730983
12.390000	24.730983
12.400000	24.730983
12.410000	24.730983
12.420000	24.730983
12.430000	24.730983
12.440000	24.730983
12.450000	24.730983
12.460000	24.730983
12.470000	24.730983
12.480000	24.730983
12.490000	24.730983
12.500000	24.729751
12.510000	24.729751
12.520000	24.729751
12.530000	24.729751
12.540000	24.729751
12.550000	24.729751
12.560000	24.729751
12.570000	24.729751
12.580000	24.729751
12.590000	24.729751
12.600000	24.729751
12.610000	24.729751
12.620000	24.729751
12.630000	24.729751
12.640000	24.729751
12.650000	24.729751
12.660000	24.729751
12.670000	24.729751
12.680000	24.729751
12.690000	24.729751
12.700000	24.729751
12.710000	24.729751
12.720000	24.729751
12.730000	24.729751
12.740000	24.729751
12.750000	24.729751
12.760000	24.729751
12.770000	24.729751
12.780000	24.729751
12.790000	24.729751
12.800000	24.729751
12.810000	24.729751
12.820000	24.729751
12.830000	24.729751
12.840000	24.729751
12.850000	24.729751
12.860000	24.729751
12.870000	24.729751
12.880000	24.729751
12.890000	24.729751
12.900000	24.729751
12.910000	24.729751
12.920000	24.729751
12.930000	24.729751
12.940000	24.729751
12.950000	24.729751
12.960000	24.729751
12.970000	24.729751
12.980000	24.729751
12.990000	24.729751
13.000000	24.728146
13.010000	24.728146
13.020000	24.728146
13.030000	24.728146
13.040000	24.728146
13.050000	24.728146
13.060000	24.728146
13.070000	24.728146
13.080000	24.728146
13.090000	24.728146
13.100000	24.728146
13.110000	24.728146
13.120000	24.728146
13.130000	24.728146
13.140000	24.728146
13.150000	24.728146
13.160000	24.728146
13.170000	24.728146
13.180000	24.728146
13.190000	24.728146
13.200000	24.728146
13.210000	24.728146
13.220000	24.728146
13.230000	24.728146
13.240000	24.728146
13.250000	24.728146
13.260000	24.728146
13.270000	24.728146
13.280000	24.728146
13.290000	24.728146
13.300000	24.728146
13.310000	24.728146
13.320000	24.728146
13.330000	24.728146
13.340000	24.728146
13.350000	24.728146
13.360000	24.728146
13.370000	24.728146
13.380000	24.728146
13.390000	24.728146
13.400000	24.728146
13.410000	24.728146
13.420000	24.728146
13.430000	24.728146
13.440000	24.728146
13.450000	24.728146
13.460000	24.728146
13.470000	24.728146
13.480000	24.728146
13.490000	24.728146
13.500000	24.725856
13.510000	24.725856
13.520000	24.725856
13.530000	24.725856
13.540000	24.725856
13.550000	24.725856
13.560000	24.725856
13.570000	24.725856
13.580000	24.725856
13.590000	24.725856
13.600000	24.725856
13.610000	24.725856
13.620000	24.725856
13.630000	24.725856
13.640000	24.725856
13.650000	24.725856
13.660000	24.725856
13.670000	24.725856
13.680000	24.725856
13.690000	24.725856
13.700000	24.725856
13.710000	24.725856
13.720000	24.725856
13.730000	24.725856
13.740000	24.725856
13.750000	24.725856
13.760000	24.725856
13.770000	24.725856
13.780000	24.725856
13.790000	24.725856
13.800000	24.725856
13.810000	24.725856
13.820000	24.725856
13.830000	24.725856
13.840000	24.725856
13.850000	24.725856
13.860000	24.725856
13.870000	24.725856
13.880000	24.725856
13.890000	24.725856
13.900000	24.725856
13.910000	24.725856
13.920000	24.725856
13.930000	24.725856
13.940000	24.725856
13.950000	24.725856
13.960000	24.725856
13.970000	24.725856
13.980000	24.725856
13.990000	24.725856
14.000000	24.723557
14.010000	24.723557
14.020000	24.723557
14.030000	24.723557
14.040000	24.723557
14.050000	24.723557
14.060000	24.723557
14.070000	24.723557
14.080000	24.723557
14.090000	24.723557
14.100000	24.723557
14.110000	24.723557
14.120000	24.723557
14.130000	24.723557
14.140000	24.723557
14.150000	24.723557
14.160000	24.723557
14.170000	24.723557
14.180000	24.723557
14.190000	24.723557
14.200000	24.723557
14.210000	24.723557
14.220000	24.723557
14.230000	24.723557
14.240000	24.723557
14.250000	24.723557
14.260000	24.723557
14.270000	24.723557
14.280000	24.723557
14.290000	24.723557
14.300000	24.723557
14.310000	24.723557
14.320000	24.723557
14.330000	24.723557
14.340000	24.723557
14.350000	24.723557
14.360000	24.723557
14.370000	24.723557
14.380000	24.723557
14.390000	24.723557
14.400000	24.723557
14.410000	24.723557
14.420000	24.723557
14.430000	24.723557
14.440000	24.723557
14.450000	24.723557
14.460000	24.723557
14.470000	24.723557
14.480000	24.723557
14.490000	24.723557
14.500000	24.721205
14.510000	24.721205
14.520000	24.721205
14.530000	24.721205
14.540000	24.721205
14.550000	24.721205
14.560000	24.721205
14.570000	24.721205
14.580000	24.721205
14.590000	24.721205
14.600000	24.721205
14.610000	24.721205
14.620000	24.721205
14.630000	24.721205
14.640000	24.721205
14.650000	24.721205
14.660000	24.721205
14.670000	24.721205
14.680000	24.721205
14.690000	24.721205
14.700000	24.721205
14.710000	24.721205
14.720000	24.721205
14.730000	24.721205
14.740000	24.721205
14.750000	24.721205
14.760000	24.721205
14.770000	24.721205
14.780000	24.721205
14.790000	24.721205
14.800000	24.721205
14.810000	24.721205
14.820000	24.721205
14.830000	24.721205
14.840000	24.721205
14.850000	24.721205
14.860000	24.721205
14.870000	24.721205
14.880000	24.721205
14.890000	24.721205
14.900000	24.721205
14.910000	24.721205
14.920000	24.721205
14.930000	24.721205
14.940000	24.721205
14.950000	24.721205
14.960000	24.721205
14.970000	24.721205
14.980000	24.721205
14.990000	24.721205
15.000000	24.718316
15.010000	24.718316
15.020000	24.718316
15.030000	24.718316
15.040000	24.718316
15.050000	24.718316
15.060000	24.718316
15.070000	24.718316
15.080000	24.718316
15.090000	24.718316
15.100000	24.718316
15.110000	24.718316
15.120000	24.718316
15.130000	24.718316
15.140000	24.718316
15.150000	24.718316
15.160000	24.718316
15.170000	24.718316
15.180000	24.718316
15.190000	24.718316
15.200000	24.718316
15.210000	24.718316
15.220000	24.718316
15.230000	24.718316
15.240000	24.718316
15.250000	24.718316
15.260000	24.718316
15.270000	24.718316
15.280000	24.718316
15.290000	24.718316
15.300000	24.718316
15.310000	24.718316
15.320000	24.718316
15.330000	24.718316
15.340000	24.718316
15.350000	24.718316
15.360000	24.718316
15.370000	24.718316
15.380000	24.718316
15.390000	24.718316
15.400000	24.718316
15.410000	24.718316
15.420000	24.718316
15.430000	24.718316
15.440000	24.718316
15.450000	24.718316
15.460000	24.718316
15.470000	24.718316
15.480000	24.718316
15.490000	24.718316
15.500000	24.715669
15.510000	24.715669
15.520000	24.715669
15.530000	24.715669
15.540000	24.715669
15.550000	24.715669
15.560000	24.715669
15.570000	24.715669
15.580000	24.715669
15.590000	24.715669
15.600000	24.715669
15.610000	24.715669
15.620000	24.715669
15.630000	24.715669
15.640000	24.715669
15.650000	24.715669
15.660000	24.715669
15.670000	24.715669
15.680000	24.715669
15.690000	24.715669
15.700000	24.715669
15.710000	24.715669
15.720000	24.715669
15.730000	24.715669
15.740000	24.715669
15.750000	24.715669
15.760000	24.715669
15.770000	24.715669
15.780000	24.715669
15.790000	24.715669
15.800000	24.715669
15.810000	24.715669
15.820000	24.715669
15.830000	24.715669
15.840000	24.715669
15.850000	24.715669
15.860000	24.715669
15.870000	24.715669
15.880000	24.715669
15.890000	24.715669
15.900000	24.715669
15.910000	24.715669
15.920000	24.715669
15.930000	24.715669
15.940000	24.715669
15.950000	24.715669
15.960000	24.715669
15.970000	24.715669
15.980000	24.715669
15.990000	24.715669
16.000000	24.712623
16.010000	24.712623
16.020000	24.712623
16.030000	24.712623
16.040000	24.712623
16.050000	24.712623
16.060000	24.712623
16.070000	24.712623
16.080000	24.712623
16.090000	24.712623
16.100000	24.712623
16.110000	24.712623
16.120000	24.712623
16.130000	24.712623
16.140000	24.712623
16.150000	24.712623
16.160000	24.712623
16.170000	24.712623
16.180000	24.712623
16.190000	24.712623
16.200000	24.712623
16.210000	24.712623
16.220000	24.712623
16.230000	24.712623
16.240000	24.712623
16.250000	24.712623
16.260000	24.712623
16.270000	24.712623
16.280000	24.712623
16.290000	24.712623
16.300000	24.712623
16.310000	24.712623
16.320000	24.712623
16.330000	24.712623
16.340000	24.712623
16.350000	24.712623
16.360000	24.712623
16.370000	24.712623
16.380000	24.712623
16.390000	24.712623
16.400000	24.712623
16.410000	24.712623
16.420000	24.712623
16.430000	24.712623
16.440000	24.712623
16.450000	24.712623
16.460000	24.712623
16.470000	24.712623
16.480000	24.712623
16.490000	24.712623
16.500000	24.709299
16.510000	24.709299
16.520000	24.709299
16.530000	24.709299
16.540000	24.709299
16.550000	24.709299
16.560000	24.709299
16.570000	24.709299
16.580000	24.709299
16.590000	24.709299
16.600000	24.709299
16.610000	24.709299
16.620000	24.709299
16.630000	24.709299
16.640000	24.709299
16.650000	24.709299
16.660000	24.709299
16.670000	24.709299
16.680000	24.709299
16.690000	24.709299
16.700000	24.709299
16.710000	24.709299
16.720000	24.709299
16.730000	24.709299
16.740000	24.709299
16.750000	24.709299
16.760000	24.709299
16.770000	24.709299
16.780000	24.709299
16.790000	24.709299
16.800000	24.709299
16.810000	24.709299
16.820000	24.709299
16.830000	24.709299
16.840000	24.709299
16.850000	24.709299
16.860000	24.709299
16.870000	24.709299
16.880000	24.709299
16.890000	24.709299
16.900000	24.709299
16.910000	24.709299
16.920000	24.709299
16.930000	24.709299
16.940000	24.709299
16.950000	24.709299
16.960000	24.709299
16.970000	24.709299
16.980000	24.709299
16.990000	24.709299
17.000000	24.706088
17.010000	24.706088
17.020000	24.706088
17.030000	24.706088
17.040000	24.706088
17.050000	24.706088
17.060000	24.706088
17.070000	24.706088
17.080000	24.706088
17.090000	24.706088
17.100000	24.706088
17.110000	24.706088
17.120000	24.706088
17.130000	24.706088
17.140000	24.706088
17.150000	24.706088
17.160000	24.706088
17.170000	24.706088
17.180000	24.706088
17.190000	24.706088
17.200000	24.706088
17.210000	24.706088
17.220000	24.706088
17.230000	24.706088
17.240000	24.706088
17.250000	24.706088
17.260000	24.706088
17.270000	24.706088
17.280000	24.706088
17.290000	24.706088
17.300000	24.706088
17.310000	24.706088
17.320000	24.706088
17.330000	24.706088
17.340000	24.706088
17.350000	24.706088
17.360000	24.706088
17.370000	24.706088
17.380000	24.706088
17.390000	24.706088
17.400000	24.706088
17.410000	24.706088
17.420000	24.706088
17.430000	24.706088
17.440000	24.706088
17.450000	24.706088
17.460000	24.706088
17.470000	24.706088
17.480000	24.706088
17.490000	24.706088
17.500000	24.703198
17.510000	24.703198
17.520000	24.703198
17.530000	24.703198
17.540000	24.703198
17.550000	24.703198
17.560000	24.703198
17.570000	24.703198
17.580000	24.703198
17.590000	24.703198
17.600000	24.703198
17.610000	24.703198
17.620000	24.703198
17.630000	24.703198
17.640000	24.703198
17.650000	24.703198
17.660000	24.703198
17.670000	24.703198
17.680000	24.703198
17.690000	24.703198
