LabVIEW Measurement	
Writer_Version	2
Reader_Version	2
Separator	Tab
Decimal_Separator	.
Multi_Headings	No
X_Columns	One
Time_Pref	Absolute
Operator	biomech-dyno
Date	2023/04/27
Time	17:41:55.9338632999999876419
***End_of_Header***	
	
Channels	1	
Samples	10	
Date	2023/04/27	
Time	20:10:57.1966344999998515804	
X_Dimension	Time	
X0	0.0000000000000000E+0	
Delta_X	0.010000	
***End_of_Header***		
X_Value	Untitled	Comment
0.000000	25.070434
0.010000	25.070434
0.020000	25.070434
0.030000	25.070434
0.040000	25.070434
0.050000	25.070434
0.060000	25.070434
0.070000	25.070434
0.080000	25.070434
0.090000	25.070434
0.100000	25.070434
0.110000	25.070434
0.120000	25.070434
0.130000	25.070434
0.140000	25.070434
0.150000	25.070434
0.160000	25.070434
0.170000	25.070434
0.180000	25.070434
0.190000	25.070434
0.200000	25.070434
0.210000	25.070434
0.220000	25.070434
0.230000	25.070434
0.240000	25.070434
0.250000	25.070434
0.260000	25.070434
0.270000	25.070434
0.280000	25.070434
0.290000	25.070434
0.300000	25.070434
0.310000	25.070434
0.320000	25.070434
0.330000	25.070434
0.340000	25.070434
0.350000	25.070434
0.360000	25.070434
0.370000	25.070434
0.380000	25.070434
0.390000	25.070434
0.400000	25.070434
0.410000	25.070434
0.420000	25.070434
0.430000	25.070434
0.440000	25.070434
0.450000	25.070434
0.460000	25.070434
0.470000	25.070434
0.480000	25.070434
0.490000	25.070434
0.500000	25.113751
0.510000	25.113751
0.520000	25.113751
0.530000	25.113751
0.540000	25.113751
0.550000	25.113751
0.560000	25.113751
0.570000	25.113751
0.580000	25.113751
0.590000	25.113751
0.600000	25.113751
0.610000	25.113751
0.620000	25.113751
0.630000	25.113751
0.640000	25.113751
0.650000	25.113751
0.660000	25.113751
0.670000	25.113751
0.680000	25.113751
0.690000	25.113751
0.700000	25.113751
0.710000	25.113751
0.720000	25.113751
0.730000	25.113751
0.740000	25.113751
0.750000	25.113751
0.760000	25.113751
0.770000	25.113751
0.780000	25.113751
0.790000	25.113751
0.800000	25.113751
0.810000	25.113751
0.820000	25.113751
0.830000	25.113751
0.840000	25.113751
0.850000	25.113751
0.860000	25.113751
0.870000	25.113751
0.880000	25.113751
0.890000	25.113751
0.900000	25.113751
0.910000	25.113751
0.920000	25.113751
0.930000	25.113751
0.940000	25.113751
0.950000	25.113751
0.960000	25.113751
0.970000	25.113751
0.980000	25.113751
0.990000	25.113751
1.000000	25.435087
1.010000	25.435087
1.020000	25.435087
1.030000	25.435087
1.040000	25.435087
1.050000	25.435087
1.060000	25.435087
1.070000	25.435087
1.080000	25.435087
1.090000	25.435087
1.100000	25.435087
1.110000	25.435087
1.120000	25.435087
1.130000	25.435087
1.140000	25.435087
1.150000	25.435087
1.160000	25.435087
1.170000	25.435087
1.180000	25.435087
1.190000	25.435087
1.200000	25.435087
1.210000	25.435087
1.220000	25.435087
1.230000	25.435087
1.240000	25.435087
1.250000	25.435087
1.260000	25.435087
1.270000	25.435087
1.280000	25.435087
1.290000	25.435087
1.300000	25.435087
1.310000	25.435087
1.320000	25.435087
1.330000	25.435087
1.340000	25.435087
1.350000	25.435087
1.360000	25.435087
1.370000	25.435087
1.380000	25.435087
1.390000	25.435087
1.400000	25.435087
1.410000	25.435087
1.420000	25.435087
1.430000	25.435087
1.440000	25.435087
1.450000	25.435087
1.460000	25.435087
1.470000	25.435087
1.480000	25.435087
1.490000	25.435087
1.500000	26.175238
1.510000	26.175238
1.520000	26.175238
1.530000	26.175238
1.540000	26.175238
1.550000	26.175238
1.560000	26.175238
1.570000	26.175238
1.580000	26.175238
1.590000	26.175238
1.600000	26.175238
1.610000	26.175238
1.620000	26.175238
1.630000	26.175238
1.640000	26.175238
1.650000	26.175238
1.660000	26.175238
1.670000	26.175238
1.680000	26.175238
1.690000	26.175238
1.700000	26.175238
1.710000	26.175238
1.720000	26.175238
1.730000	26.175238
1.740000	26.175238
1.750000	26.175238
1.760000	26.175238
1.770000	26.175238
1.780000	26.175238
1.790000	26.175238
1.800000	26.175238
1.810000	26.175238
1.820000	26.175238
1.830000	26.175238
1.840000	26.175238
1.850000	26.175238
1.860000	26.175238
1.870000	26.175238
1.880000	26.175238
1.890000	26.175238
1.900000	26.175238
1.910000	26.175238
1.920000	26.175238
1.930000	26.175238
1.940000	26.175238
1.950000	26.175238
1.960000	26.175238
1.970000	26.175238
1.980000	26.175238
1.990000	26.175238
2.000000	27.266239
2.010000	27.266239
2.020000	27.266239
2.030000	27.266239
2.040000	27.266239
2.050000	27.266239
2.060000	27.266239
2.070000	27.266239
2.080000	27.266239
2.090000	27.266239
2.100000	27.266239
2.110000	27.266239
2.120000	27.266239
2.130000	27.266239
2.140000	27.266239
2.150000	27.266239
2.160000	27.266239
2.170000	27.266239
2.180000	27.266239
2.190000	27.266239
2.200000	27.266239
2.210000	27.266239
2.220000	27.266239
2.230000	27.266239
2.240000	27.266239
2.250000	27.266239
2.260000	27.266239
2.270000	27.266239
2.280000	27.266239
2.290000	27.266239
2.300000	27.266239
2.310000	27.266239
2.320000	27.266239
2.330000	27.266239
2.340000	27.266239
2.350000	27.266239
2.360000	27.266239
2.370000	27.266239
2.380000	27.266239
2.390000	27.266239
2.400000	27.266239
2.410000	27.266239
2.420000	27.266239
2.430000	27.266239
2.440000	27.266239
2.450000	27.266239
2.460000	27.266239
2.470000	27.266239
2.480000	27.266239
2.490000	27.266239
2.500000	28.622687
2.510000	28.622687
2.520000	28.622687
2.530000	28.622687
2.540000	28.622687
2.550000	28.622687
2.560000	28.622687
2.570000	28.622687
2.580000	28.622687
2.590000	28.622687
2.600000	28.622687
2.610000	28.622687
2.620000	28.622687
2.630000	28.622687
2.640000	28.622687
2.650000	28.622687
2.660000	28.622687
2.670000	28.622687
2.680000	28.622687
2.690000	28.622687
2.700000	28.622687
2.710000	28.622687
2.720000	28.622687
2.730000	28.622687
2.740000	28.622687
2.750000	28.622687
2.760000	28.622687
2.770000	28.622687
2.780000	28.622687
2.790000	28.622687
2.800000	28.622687
2.810000	28.622687
2.820000	28.622687
2.830000	28.622687
2.840000	28.622687
2.850000	28.622687
2.860000	28.622687
2.870000	28.622687
2.880000	28.622687
2.890000	28.622687
2.900000	28.622687
2.910000	28.622687
2.920000	28.622687
2.930000	28.622687
2.940000	28.622687
2.950000	28.622687
2.960000	28.622687
2.970000	28.622687
2.980000	28.622687
2.990000	28.622687
3.000000	30.102785
3.010000	30.102785
3.020000	30.102785
3.030000	30.102785
3.040000	30.102785
3.050000	30.102785
3.060000	30.102785
3.070000	30.102785
3.080000	30.102785
3.090000	30.102785
3.100000	30.102785
3.110000	30.102785
3.120000	30.102785
3.130000	30.102785
3.140000	30.102785
3.150000	30.102785
3.160000	30.102785
3.170000	30.102785
3.180000	30.102785
3.190000	30.102785
3.200000	30.102785
3.210000	30.102785
3.220000	30.102785
3.230000	30.102785
3.240000	30.102785
3.250000	30.102785
3.260000	30.102785
3.270000	30.102785
3.280000	30.102785
3.290000	30.102785
3.300000	30.102785
3.310000	30.102785
3.320000	30.102785
3.330000	30.102785
3.340000	30.102785
3.350000	30.102785
3.360000	30.102785
3.370000	30.102785
3.380000	30.102785
3.390000	30.102785
3.400000	30.102785
3.410000	30.102785
3.420000	30.102785
3.430000	30.102785
3.440000	30.102785
3.450000	30.102785
3.460000	30.102785
3.470000	30.102785
3.480000	30.102785
3.490000	30.102785
3.500000	31.357192
3.510000	31.357192
3.520000	31.357192
3.530000	31.357192
3.540000	31.357192
3.550000	31.357192
3.560000	31.357192
3.570000	31.357192
3.580000	31.357192
3.590000	31.357192
3.600000	31.357192
3.610000	31.357192
3.620000	31.357192
3.630000	31.357192
3.640000	31.357192
3.650000	31.357192
3.660000	31.357192
3.670000	31.357192
3.680000	31.357192
3.690000	31.357192
3.700000	31.357192
3.710000	31.357192
3.720000	31.357192
3.730000	31.357192
3.740000	31.357192
3.750000	31.357192
3.760000	31.357192
3.770000	31.357192
3.780000	31.357192
3.790000	31.357192
3.800000	31.357192
3.810000	31.357192
3.820000	31.357192
3.830000	31.357192
3.840000	31.357192
3.850000	31.357192
3.860000	31.357192
3.870000	31.357192
3.880000	31.357192
3.890000	31.357192
3.900000	31.357192
3.910000	31.357192
3.920000	31.357192
3.930000	31.357192
3.940000	31.357192
3.950000	31.357192
3.960000	31.357192
3.970000	31.357192
3.980000	31.357192
3.990000	31.357192
4.000000	32.265156
4.010000	32.265156
4.020000	32.265156
4.030000	32.265156
4.040000	32.265156
4.050000	32.265156
4.060000	32.265156
4.070000	32.265156
4.080000	32.265156
4.090000	32.265156
4.100000	32.265156
4.110000	32.265156
4.120000	32.265156
4.130000	32.265156
4.140000	32.265156
4.150000	32.265156
4.160000	32.265156
4.170000	32.265156
4.180000	32.265156
4.190000	32.265156
4.200000	32.265156
4.210000	32.265156
4.220000	32.265156
4.230000	32.265156
4.240000	32.265156
4.250000	32.265156
4.260000	32.265156
4.270000	32.265156
4.280000	32.265156
4.290000	32.265156
4.300000	32.265156
4.310000	32.265156
4.320000	32.265156
4.330000	32.265156
4.340000	32.265156
4.350000	32.265156
4.360000	32.265156
4.370000	32.265156
4.380000	32.265156
4.390000	32.265156
4.400000	32.265156
4.410000	32.265156
4.420000	32.265156
4.430000	32.265156
4.440000	32.265156
4.450000	32.265156
4.460000	32.265156
4.470000	32.265156
4.480000	32.265156
4.490000	32.265156
4.500000	32.881432
4.510000	32.881432
4.520000	32.881432
4.530000	32.881432
4.540000	32.881432
4.550000	32.881432
4.560000	32.881432
4.570000	32.881432
4.580000	32.881432
4.590000	32.881432
4.600000	32.881432
4.610000	32.881432
4.620000	32.881432
4.630000	32.881432
4.640000	32.881432
4.650000	32.881432
4.660000	32.881432
4.670000	32.881432
4.680000	32.881432
4.690000	32.881432
4.700000	32.881432
4.710000	32.881432
4.720000	32.881432
4.730000	32.881432
4.740000	32.881432
4.750000	32.881432
4.760000	32.881432
4.770000	32.881432
4.780000	32.881432
4.790000	32.881432
4.800000	32.881432
4.810000	32.881432
4.820000	32.881432
4.830000	32.881432
4.840000	32.881432
4.850000	32.881432
4.860000	32.881432
4.870000	32.881432
4.880000	32.881432
4.890000	32.881432
4.900000	32.881432
4.910000	32.881432
4.920000	32.881432
4.930000	32.881432
4.940000	32.881432
4.950000	32.881432
4.960000	32.881432
4.970000	32.881432
4.980000	32.881432
4.990000	32.881432
5.000000	33.299725
5.010000	33.299725
5.020000	33.299725
5.030000	33.299725
5.040000	33.299725
5.050000	33.299725
5.060000	33.299725
5.070000	33.299725
5.080000	33.299725
5.090000	33.299725
5.100000	33.299725
5.110000	33.299725
5.120000	33.299725
5.130000	33.299725
5.140000	33.299725
5.150000	33.299725
5.160000	33.299725
5.170000	33.299725
5.180000	33.299725
5.190000	33.299725
5.200000	33.299725
5.210000	33.299725
5.220000	33.299725
5.230000	33.299725
5.240000	33.299725
5.250000	33.299725
5.260000	33.299725
5.270000	33.299725
5.280000	33.299725
5.290000	33.299725
5.300000	33.299725
5.310000	33.299725
5.320000	33.299725
5.330000	33.299725
5.340000	33.299725
5.350000	33.299725
5.360000	33.299725
5.370000	33.299725
5.380000	33.299725
5.390000	33.299725
5.400000	33.299725
5.410000	33.299725
5.420000	33.299725
5.430000	33.299725
5.440000	33.299725
5.450000	33.299725
5.460000	33.299725
5.470000	33.299725
5.480000	33.299725
5.490000	33.299725
5.500000	33.569206
5.510000	33.569206
5.520000	33.569206
5.530000	33.569206
5.540000	33.569206
5.550000	33.569206
5.560000	33.569206
5.570000	33.569206
5.580000	33.569206
5.590000	33.569206
5.600000	33.569206
5.610000	33.569206
5.620000	33.569206
5.630000	33.569206
5.640000	33.569206
5.650000	33.569206
5.660000	33.569206
5.670000	33.569206
5.680000	33.569206
5.690000	33.569206
5.700000	33.569206
5.710000	33.569206
5.720000	33.569206
5.730000	33.569206
5.740000	33.569206
5.750000	33.569206
5.760000	33.569206
5.770000	33.569206
5.780000	33.569206
5.790000	33.569206
5.800000	33.569206
5.810000	33.569206
5.820000	33.569206
5.830000	33.569206
5.840000	33.569206
5.850000	33.569206
5.860000	33.569206
5.870000	33.569206
5.880000	33.569206
5.890000	33.569206
5.900000	33.569206
5.910000	33.569206
5.920000	33.569206
5.930000	33.569206
5.940000	33.569206
5.950000	33.569206
5.960000	33.569206
5.970000	33.569206
5.980000	33.569206
5.990000	33.569206
6.000000	33.722802
6.010000	33.722802
6.020000	33.722802
6.030000	33.722802
6.040000	33.722802
6.050000	33.722802
6.060000	33.722802
6.070000	33.722802
6.080000	33.722802
6.090000	33.722802
6.100000	33.722802
6.110000	33.722802
6.120000	33.722802
6.130000	33.722802
6.140000	33.722802
6.150000	33.722802
6.160000	33.722802
6.170000	33.722802
6.180000	33.722802
6.190000	33.722802
6.200000	33.722802
6.210000	33.722802
6.220000	33.722802
6.230000	33.722802
6.240000	33.722802
6.250000	33.722802
6.260000	33.722802
6.270000	33.722802
6.280000	33.722802
6.290000	33.722802
6.300000	33.722802
6.310000	33.722802
6.320000	33.722802
6.330000	33.722802
6.340000	33.722802
6.350000	33.722802
6.360000	33.722802
6.370000	33.722802
6.380000	33.722802
6.390000	33.722802
6.400000	33.722802
6.410000	33.722802
6.420000	33.722802
6.430000	33.722802
6.440000	33.722802
6.450000	33.722802
6.460000	33.722802
6.470000	33.722802
6.480000	33.722802
6.490000	33.722802
6.500000	33.793474
6.510000	33.793474
6.520000	33.793474
6.530000	33.793474
6.540000	33.793474
6.550000	33.793474
6.560000	33.793474
6.570000	33.793474
6.580000	33.793474
6.590000	33.793474
6.600000	33.793474
6.610000	33.793474
6.620000	33.793474
6.630000	33.793474
6.640000	33.793474
6.650000	33.793474
6.660000	33.793474
6.670000	33.793474
6.680000	33.793474
6.690000	33.793474
6.700000	33.793474
6.710000	33.793474
6.720000	33.793474
6.730000	33.793474
6.740000	33.793474
6.750000	33.793474
6.760000	33.793474
6.770000	33.793474
6.780000	33.793474
6.790000	33.793474
6.800000	33.793474
6.810000	33.793474
6.820000	33.793474
6.830000	33.793474
6.840000	33.793474
6.850000	33.793474
6.860000	33.793474
6.870000	33.793474
6.880000	33.793474
6.890000	33.793474
6.900000	33.793474
6.910000	33.793474
6.920000	33.793474
6.930000	33.793474
6.940000	33.793474
6.950000	33.793474
6.960000	33.793474
6.970000	33.793474
6.980000	33.793474
6.990000	33.793474
7.000000	33.802665
7.010000	33.802665
7.020000	33.802665
7.030000	33.802665
7.040000	33.802665
7.050000	33.802665
7.060000	33.802665
7.070000	33.802665
7.080000	33.802665
7.090000	33.802665
7.100000	33.802665
7.110000	33.802665
7.120000	33.802665
7.130000	33.802665
7.140000	33.802665
7.150000	33.802665
7.160000	33.802665
7.170000	33.802665
7.180000	33.802665
7.190000	33.802665
7.200000	33.802665
7.210000	33.802665
7.220000	33.802665
7.230000	33.802665
7.240000	33.802665
7.250000	33.802665
7.260000	33.802665
7.270000	33.802665
7.280000	33.802665
7.290000	33.802665
7.300000	33.802665
7.310000	33.802665
7.320000	33.802665
7.330000	33.802665
7.340000	33.802665
7.350000	33.802665
7.360000	33.802665
7.370000	33.802665
7.380000	33.802665
7.390000	33.802665
7.400000	33.802665
7.410000	33.802665
7.420000	33.802665
7.430000	33.802665
7.440000	33.802665
7.450000	33.802665
7.460000	33.802665
7.470000	33.802665
7.480000	33.802665
7.490000	33.802665
7.500000	33.762126
7.510000	33.762126
7.520000	33.762126
7.530000	33.762126
7.540000	33.762126
7.550000	33.762126
7.560000	33.762126
7.570000	33.762126
7.580000	33.762126
7.590000	33.762126
7.600000	33.762126
7.610000	33.762126
7.620000	33.762126
7.630000	33.762126
7.640000	33.762126
7.650000	33.762126
7.660000	33.762126
7.670000	33.762126
7.680000	33.762126
7.690000	33.762126
7.700000	33.762126
7.710000	33.762126
7.720000	33.762126
7.730000	33.762126
7.740000	33.762126
7.750000	33.762126
7.760000	33.762126
7.770000	33.762126
7.780000	33.762126
7.790000	33.762126
7.800000	33.762126
7.810000	33.762126
7.820000	33.762126
7.830000	33.762126
7.840000	33.762126
7.850000	33.762126
7.860000	33.762126
7.870000	33.762126
7.880000	33.762126
7.890000	33.762126
7.900000	33.762126
7.910000	33.762126
7.920000	33.762126
7.930000	33.762126
7.940000	33.762126
7.950000	33.762126
7.960000	33.762126
7.970000	33.762126
7.980000	33.762126
7.990000	33.762126
8.000000	33.692372
8.010000	33.692372
8.020000	33.692372
8.030000	33.692372
8.040000	33.692372
8.050000	33.692372
8.060000	33.692372
8.070000	33.692372
8.080000	33.692372
8.090000	33.692372
8.100000	33.692372
8.110000	33.692372
8.120000	33.692372
8.130000	33.692372
8.140000	33.692372
8.150000	33.692372
8.160000	33.692372
8.170000	33.692372
8.180000	33.692372
8.190000	33.692372
8.200000	33.692372
8.210000	33.692372
8.220000	33.692372
8.230000	33.692372
8.240000	33.692372
8.250000	33.692372
8.260000	33.692372
8.270000	33.692372
8.280000	33.692372
8.290000	33.692372
8.300000	33.692372
8.310000	33.692372
8.320000	33.692372
8.330000	33.692372
8.340000	33.692372
8.350000	33.692372
8.360000	33.692372
8.370000	33.692372
8.380000	33.692372
8.390000	33.692372
8.400000	33.692372
8.410000	33.692372
8.420000	33.692372
8.430000	33.692372
8.440000	33.692372
8.450000	33.692372
8.460000	33.692372
8.470000	33.692372
8.480000	33.692372
8.490000	33.692372
8.500000	33.599051
8.510000	33.599051
8.520000	33.599051
8.530000	33.599051
8.540000	33.599051
8.550000	33.599051
8.560000	33.599051
8.570000	33.599051
8.580000	33.599051
8.590000	33.599051
8.600000	33.599051
8.610000	33.599051
8.620000	33.599051
8.630000	33.599051
8.640000	33.599051
8.650000	33.599051
8.660000	33.599051
8.670000	33.599051
8.680000	33.599051
8.690000	33.599051
8.700000	33.599051
8.710000	33.599051
8.720000	33.599051
8.730000	33.599051
8.740000	33.599051
8.750000	33.599051
8.760000	33.599051
8.770000	33.599051
8.780000	33.599051
8.790000	33.599051
8.800000	33.599051
8.810000	33.599051
8.820000	33.599051
8.830000	33.599051
8.840000	33.599051
8.850000	33.599051
8.860000	33.599051
8.870000	33.599051
8.880000	33.599051
8.890000	33.599051
8.900000	33.599051
8.910000	33.599051
8.920000	33.599051
8.930000	33.599051
8.940000	33.599051
8.950000	33.599051
8.960000	33.599051
8.970000	33.599051
8.980000	33.599051
8.990000	33.599051
9.000000	33.482857
9.010000	33.482857
9.020000	33.482857
9.030000	33.482857
9.040000	33.482857
9.050000	33.482857
9.060000	33.482857
9.070000	33.482857
9.080000	33.482857
9.090000	33.482857
9.100000	33.482857
9.110000	33.482857
9.120000	33.482857
9.130000	33.482857
9.140000	33.482857
9.150000	33.482857
9.160000	33.482857
9.170000	33.482857
9.180000	33.482857
9.190000	33.482857
9.200000	33.482857
9.210000	33.482857
9.220000	33.482857
9.230000	33.482857
9.240000	33.482857
9.250000	33.482857
9.260000	33.482857
9.270000	33.482857
9.280000	33.482857
9.290000	33.482857
9.300000	33.482857
9.310000	33.482857
9.320000	33.482857
9.330000	33.482857
9.340000	33.482857
9.350000	33.482857
9.360000	33.482857
9.370000	33.482857
9.380000	33.482857
9.390000	33.482857
9.400000	33.482857
9.410000	33.482857
9.420000	33.482857
9.430000	33.482857
9.440000	33.482857
9.450000	33.482857
9.460000	33.482857
9.470000	33.482857
9.480000	33.482857
9.490000	33.482857
9.500000	33.352470
9.510000	33.352470
9.520000	33.352470
9.530000	33.352470
9.540000	33.352470
9.550000	33.352470
9.560000	33.352470
9.570000	33.352470
9.580000	33.352470
9.590000	33.352470
9.600000	33.352470
9.610000	33.352470
9.620000	33.352470
9.630000	33.352470
9.640000	33.352470
9.650000	33.352470
9.660000	33.352470
9.670000	33.352470
9.680000	33.352470
9.690000	33.352470
9.700000	33.352470
9.710000	33.352470
9.720000	33.352470
9.730000	33.352470
9.740000	33.352470
9.750000	33.352470
9.760000	33.352470
9.770000	33.352470
9.780000	33.352470
9.790000	33.352470
9.800000	33.352470
9.810000	33.352470
9.820000	33.352470
9.830000	33.352470
9.840000	33.352470
9.850000	33.352470
9.860000	33.352470
9.870000	33.352470
9.880000	33.352470
9.890000	33.352470
9.900000	33.352470
9.910000	33.352470
9.920000	33.352470
9.930000	33.352470
9.940000	33.352470
9.950000	33.352470
9.960000	33.352470
9.970000	33.352470
9.980000	33.352470
9.990000	33.352470
10.000000	33.213854
10.010000	33.213854
10.020000	33.213854
10.030000	33.213854
10.040000	33.213854
10.050000	33.213854
10.060000	33.213854
10.070000	33.213854
10.080000	33.213854
10.090000	33.213854
10.100000	33.213854
10.110000	33.213854
10.120000	33.213854
10.130000	33.213854
10.140000	33.213854
10.150000	33.213854
10.160000	33.213854
10.170000	33.213854
10.180000	33.213854
10.190000	33.213854
10.200000	33.213854
10.210000	33.213854
10.220000	33.213854
10.230000	33.213854
10.240000	33.213854
10.250000	33.213854
10.260000	33.213854
10.270000	33.213854
10.280000	33.213854
10.290000	33.213854
10.300000	33.213854
10.310000	33.213854
10.320000	33.213854
10.330000	33.213854
10.340000	33.213854
10.350000	33.213854
10.360000	33.213854
10.370000	33.213854
10.380000	33.213854
10.390000	33.213854
10.400000	33.213854
10.410000	33.213854
10.420000	33.213854
10.430000	33.213854
10.440000	33.213854
10.450000	33.213854
10.460000	33.213854
10.470000	33.213854
10.480000	33.213854
10.490000	33.213854
10.500000	33.071280
10.510000	33.071280
10.520000	33.071280
10.530000	33.071280
10.540000	33.071280
10.550000	33.071280
10.560000	33.071280
10.570000	33.071280
10.580000	33.071280
10.590000	33.071280
10.600000	33.071280
10.610000	33.071280
10.620000	33.071280
10.630000	33.071280
10.640000	33.071280
10.650000	33.071280
10.660000	33.071280
10.670000	33.071280
10.680000	33.071280
10.690000	33.071280
10.700000	33.071280
10.710000	33.071280
10.720000	33.071280
10.730000	33.071280
10.740000	33.071280
10.750000	33.071280
10.760000	33.071280
10.770000	33.071280
10.780000	33.071280
10.790000	33.071280
10.800000	33.071280
10.810000	33.071280
10.820000	33.071280
10.830000	33.071280
10.840000	33.071280
10.850000	33.071280
10.860000	33.071280
10.870000	33.071280
10.880000	33.071280
10.890000	33.071280
10.900000	33.071280
10.910000	33.071280
10.920000	33.071280
10.930000	33.071280
10.940000	33.071280
10.950000	33.071280
10.960000	33.071280
10.970000	33.071280
10.980000	33.071280
10.990000	33.071280
11.000000	32.926610
11.010000	32.926610
11.020000	32.926610
11.030000	32.926610
11.040000	32.926610
11.050000	32.926610
11.060000	32.926610
11.070000	32.926610
11.080000	32.926610
11.090000	32.926610
11.100000	32.926610
11.110000	32.926610
11.120000	32.926610
11.130000	32.926610
11.140000	32.926610
11.150000	32.926610
11.160000	32.926610
11.170000	32.926610
11.180000	32.926610
11.190000	32.926610
11.200000	32.926610
11.210000	32.926610
11.220000	32.926610
11.230000	32.926610
11.240000	32.926610
11.250000	32.926610
11.260000	32.926610
11.270000	32.926610
11.280000	32.926610
11.290000	32.926610
11.300000	32.926610
11.310000	32.926610
11.320000	32.926610
11.330000	32.926610
11.340000	32.926610
11.350000	32.926610
11.360000	32.926610
11.370000	32.926610
11.380000	32.926610
11.390000	32.926610
11.400000	32.926610
11.410000	32.926610
11.420000	32.926610
11.430000	32.926610
11.440000	32.926610
11.450000	32.926610
11.460000	32.926610
11.470000	32.926610
11.480000	32.926610
11.490000	32.926610
11.500000	32.781630
11.510000	32.781630
11.520000	32.781630
11.530000	32.781630
11.540000	32.781630
11.550000	32.781630
11.560000	32.781630
11.570000	32.781630
11.580000	32.781630
11.590000	32.781630
11.600000	32.781630
11.610000	32.781630
11.620000	32.781630
11.630000	32.781630
11.640000	32.781630
11.650000	32.781630
11.660000	32.781630
11.670000	32.781630
11.680000	32.781630
11.690000	32.781630
11.700000	32.781630
11.710000	32.781630
11.720000	32.781630
11.730000	32.781630
11.740000	32.781630
11.750000	32.781630
11.760000	32.781630
11.770000	32.781630
11.780000	32.781630
11.790000	32.781630
11.800000	32.781630
11.810000	32.781630
11.820000	32.781630
11.830000	32.781630
11.840000	32.781630
11.850000	32.781630
11.860000	32.781630
11.870000	32.781630
11.880000	32.781630
11.890000	32.781630
11.900000	32.781630
11.910000	32.781630
11.920000	32.781630
11.930000	32.781630
11.940000	32.781630
11.950000	32.781630
11.960000	32.781630
11.970000	32.781630
11.980000	32.781630
11.990000	32.781630
12.000000	32.635600
12.010000	32.635600
12.020000	32.635600
12.030000	32.635600
12.040000	32.635600
12.050000	32.635600
12.060000	32.635600
12.070000	32.635600
12.080000	32.635600
12.090000	32.635600
12.100000	32.635600
12.110000	32.635600
12.120000	32.635600
12.130000	32.635600
12.140000	32.635600
12.150000	32.635600
12.160000	32.635600
12.170000	32.635600
12.180000	32.635600
12.190000	32.635600
12.200000	32.635600
12.210000	32.635600
12.220000	32.635600
12.230000	32.635600
12.240000	32.635600
12.250000	32.635600
12.260000	32.635600
12.270000	32.635600
12.280000	32.635600
12.290000	32.635600
12.300000	32.635600
12.310000	32.635600
12.320000	32.635600
12.330000	32.635600
12.340000	32.635600
12.350000	32.635600
12.360000	32.635600
12.370000	32.635600
12.380000	32.635600
12.390000	32.635600
12.400000	32.635600
12.410000	32.635600
12.420000	32.635600
12.430000	32.635600
12.440000	32.635600
12.450000	32.635600
12.460000	32.635600
12.470000	32.635600
12.480000	32.635600
12.490000	32.635600
12.500000	32.487772
12.510000	32.487772
12.520000	32.487772
12.530000	32.487772
12.540000	32.487772
12.550000	32.487772
12.560000	32.487772
12.570000	32.487772
12.580000	32.487772
12.590000	32.487772
12.600000	32.487772
12.610000	32.487772
12.620000	32.487772
12.630000	32.487772
12.640000	32.487772
12.650000	32.487772
12.660000	32.487772
12.670000	32.487772
12.680000	32.487772
12.690000	32.487772
12.700000	32.487772
12.710000	32.487772
12.720000	32.487772
12.730000	32.487772
12.740000	32.487772
12.750000	32.487772
12.760000	32.487772
12.770000	32.487772
12.780000	32.487772
12.790000	32.487772
12.800000	32.487772
12.810000	32.487772
12.820000	32.487772
12.830000	32.487772
12.840000	32.487772
12.850000	32.487772
12.860000	32.487772
12.870000	32.487772
12.880000	32.487772
12.890000	32.487772
12.900000	32.487772
12.910000	32.487772
12.920000	32.487772
12.930000	32.487772
12.940000	32.487772
12.950000	32.487772
12.960000	32.487772
12.970000	32.487772
12.980000	32.487772
12.990000	32.487772
13.000000	32.336945
13.010000	32.336945
13.020000	32.336945
13.030000	32.336945
13.040000	32.336945
13.050000	32.336945
13.060000	32.336945
13.070000	32.336945
13.080000	32.336945
13.090000	32.336945
13.100000	32.336945
13.110000	32.336945
13.120000	32.336945
13.130000	32.336945
13.140000	32.336945
13.150000	32.336945
13.160000	32.336945
13.170000	32.336945
13.180000	32.336945
13.190000	32.336945
13.200000	32.336945
13.210000	32.336945
13.220000	32.336945
13.230000	32.336945
13.240000	32.336945
13.250000	32.336945
13.260000	32.336945
13.270000	32.336945
13.280000	32.336945
13.290000	32.336945
13.300000	32.336945
13.310000	32.336945
13.320000	32.336945
13.330000	32.336945
13.340000	32.336945
13.350000	32.336945
13.360000	32.336945
13.370000	32.336945
13.380000	32.336945
13.390000	32.336945
13.400000	32.336945
13.410000	32.336945
13.420000	32.336945
13.430000	32.336945
13.440000	32.336945
13.450000	32.336945
13.460000	32.336945
13.470000	32.336945
13.480000	32.336945
13.490000	32.336945
13.500000	32.188810
13.510000	32.188810
13.520000	32.188810
13.530000	32.188810
13.540000	32.188810
13.550000	32.188810
13.560000	32.188810
13.570000	32.188810
13.580000	32.188810
13.590000	32.188810
13.600000	32.188810
13.610000	32.188810
13.620000	32.188810
13.630000	32.188810
13.640000	32.188810
13.650000	32.188810
13.660000	32.188810
13.670000	32.188810
13.680000	32.188810
13.690000	32.188810
13.700000	32.188810
13.710000	32.188810
13.720000	32.188810
13.730000	32.188810
13.740000	32.188810
13.750000	32.188810
13.760000	32.188810
13.770000	32.188810
13.780000	32.188810
13.790000	32.188810
13.800000	32.188810
13.810000	32.188810
13.820000	32.188810
13.830000	32.188810
13.840000	32.188810
13.850000	32.188810
13.860000	32.188810
13.870000	32.188810
13.880000	32.188810
13.890000	32.188810
13.900000	32.188810
13.910000	32.188810
13.920000	32.188810
13.930000	32.188810
13.940000	32.188810
13.950000	32.188810
13.960000	32.188810
13.970000	32.188810
13.980000	32.188810
13.990000	32.188810
14.000000	32.045647
14.010000	32.045647
14.020000	32.045647
14.030000	32.045647
14.040000	32.045647
14.050000	32.045647
14.060000	32.045647
14.070000	32.045647
14.080000	32.045647
14.090000	32.045647
14.100000	32.045647
14.110000	32.045647
14.120000	32.045647
14.130000	32.045647
14.140000	32.045647
14.150000	32.045647
14.160000	32.045647
14.170000	32.045647
14.180000	32.045647
14.190000	32.045647
14.200000	32.045647
14.210000	32.045647
14.220000	32.045647
14.230000	32.045647
14.240000	32.045647
14.250000	32.045647
14.260000	32.045647
14.270000	32.045647
14.280000	32.045647
14.290000	32.045647
14.300000	32.045647
14.310000	32.045647
14.320000	32.045647
14.330000	32.045647
14.340000	32.045647
14.350000	32.045647
14.360000	32.045647
14.370000	32.045647
14.380000	32.045647
14.390000	32.045647
14.400000	32.045647
14.410000	32.045647
14.420000	32.045647
14.430000	32.045647
14.440000	32.045647
14.450000	32.045647
14.460000	32.045647
14.470000	32.045647
14.480000	32.045647
14.490000	32.045647
14.500000	31.903803
14.510000	31.903803
14.520000	31.903803
14.530000	31.903803
14.540000	31.903803
14.550000	31.903803
14.560000	31.903803
14.570000	31.903803
14.580000	31.903803
14.590000	31.903803
14.600000	31.903803
14.610000	31.903803
14.620000	31.903803
14.630000	31.903803
14.640000	31.903803
14.650000	31.903803
14.660000	31.903803
14.670000	31.903803
14.680000	31.903803
14.690000	31.903803
14.700000	31.903803
14.710000	31.903803
14.720000	31.903803
14.730000	31.903803
14.740000	31.903803
14.750000	31.903803
14.760000	31.903803
14.770000	31.903803
14.780000	31.903803
14.790000	31.903803
14.800000	31.903803
14.810000	31.903803
14.820000	31.903803
14.830000	31.903803
14.840000	31.903803
14.850000	31.903803
14.860000	31.903803
14.870000	31.903803
14.880000	31.903803
14.890000	31.903803
14.900000	31.903803
14.910000	31.903803
14.920000	31.903803
14.930000	31.903803
14.940000	31.903803
14.950000	31.903803
14.960000	31.903803
14.970000	31.903803
14.980000	31.903803
14.990000	31.903803
15.000000	31.766634
15.010000	31.766634
15.020000	31.766634
15.030000	31.766634
15.040000	31.766634
15.050000	31.766634
15.060000	31.766634
15.070000	31.766634
15.080000	31.766634
15.090000	31.766634
15.100000	31.766634
15.110000	31.766634
15.120000	31.766634
15.130000	31.766634
15.140000	31.766634
15.150000	31.766634
15.160000	31.766634
15.170000	31.766634
15.180000	31.766634
15.190000	31.766634
15.200000	31.766634
15.210000	31.766634
15.220000	31.766634
15.230000	31.766634
15.240000	31.766634
15.250000	31.766634
15.260000	31.766634
15.270000	31.766634
15.280000	31.766634
15.290000	31.766634
15.300000	31.766634
15.310000	31.766634
15.320000	31.766634
15.330000	31.766634
15.340000	31.766634
15.350000	31.766634
15.360000	31.766634
15.370000	31.766634
15.380000	31.766634
15.390000	31.766634
15.400000	31.766634
15.410000	31.766634
15.420000	31.766634
15.430000	31.766634
15.440000	31.766634
15.450000	31.766634
15.460000	31.766634
15.470000	31.766634
15.480000	31.766634
15.490000	31.766634
15.500000	31.635155
15.510000	31.635155
15.520000	31.635155
15.530000	31.635155
15.540000	31.635155
15.550000	31.635155
15.560000	31.635155
15.570000	31.635155
15.580000	31.635155
15.590000	31.635155
15.600000	31.635155
15.610000	31.635155
15.620000	31.635155
15.630000	31.635155
15.640000	31.635155
15.650000	31.635155
15.660000	31.635155
15.670000	31.635155
15.680000	31.635155
15.690000	31.635155
15.700000	31.635155
15.710000	31.635155
15.720000	31.635155
15.730000	31.635155
15.740000	31.635155
15.750000	31.635155
15.760000	31.635155
15.770000	31.635155
15.780000	31.635155
15.790000	31.635155
15.800000	31.635155
15.810000	31.635155
15.820000	31.635155
15.830000	31.635155
15.840000	31.635155
15.850000	31.635155
15.860000	31.635155
15.870000	31.635155
15.880000	31.635155
15.890000	31.635155
15.900000	31.635155
15.910000	31.635155
15.920000	31.635155
15.930000	31.635155
15.940000	31.635155
15.950000	31.635155
15.960000	31.635155
15.970000	31.635155
15.980000	31.635155
15.990000	31.635155
16.000000	31.508526
16.010000	31.508526
16.020000	31.508526
16.030000	31.508526
16.040000	31.508526
16.050000	31.508526
16.060000	31.508526
16.070000	31.508526
16.080000	31.508526
16.090000	31.508526
16.100000	31.508526
16.110000	31.508526
16.120000	31.508526
16.130000	31.508526
16.140000	31.508526
16.150000	31.508526
16.160000	31.508526
16.170000	31.508526
16.180000	31.508526
16.190000	31.508526
16.200000	31.508526
16.210000	31.508526
16.220000	31.508526
16.230000	31.508526
16.240000	31.508526
16.250000	31.508526
16.260000	31.508526
16.270000	31.508526
16.280000	31.508526
16.290000	31.508526
16.300000	31.508526
16.310000	31.508526
16.320000	31.508526
16.330000	31.508526
16.340000	31.508526
16.350000	31.508526
16.360000	31.508526
16.370000	31.508526
16.380000	31.508526
16.390000	31.508526
16.400000	31.508526
16.410000	31.508526
16.420000	31.508526
16.430000	31.508526
16.440000	31.508526
16.450000	31.508526
16.460000	31.508526
16.470000	31.508526
16.480000	31.508526
16.490000	31.508526
16.500000	31.385172
16.510000	31.385172
16.520000	31.385172
16.530000	31.385172
16.540000	31.385172
16.550000	31.385172
16.560000	31.385172
16.570000	31.385172
16.580000	31.385172
16.590000	31.385172
16.600000	31.385172
16.610000	31.385172
16.620000	31.385172
16.630000	31.385172
16.640000	31.385172
16.650000	31.385172
16.660000	31.385172
16.670000	31.385172
16.680000	31.385172
16.690000	31.385172
16.700000	31.385172
16.710000	31.385172
16.720000	31.385172
16.730000	31.385172
16.740000	31.385172
16.750000	31.385172
16.760000	31.385172
16.770000	31.385172
16.780000	31.385172
16.790000	31.385172
16.800000	31.385172
16.810000	31.385172
16.820000	31.385172
16.830000	31.385172
16.840000	31.385172
16.850000	31.385172
16.860000	31.385172
16.870000	31.385172
16.880000	31.385172
16.890000	31.385172
16.900000	31.385172
16.910000	31.385172
16.920000	31.385172
16.930000	31.385172
16.940000	31.385172
16.950000	31.385172
16.960000	31.385172
16.970000	31.385172
16.980000	31.385172
16.990000	31.385172
17.000000	31.258063
17.010000	31.258063
17.020000	31.258063
17.030000	31.258063
17.040000	31.258063
17.050000	31.258063
17.060000	31.258063
17.070000	31.258063
17.080000	31.258063
17.090000	31.258063
17.100000	31.258063
17.110000	31.258063
17.120000	31.258063
17.130000	31.258063
17.140000	31.258063
17.150000	31.258063
17.160000	31.258063
17.170000	31.258063
17.180000	31.258063
17.190000	31.258063
17.200000	31.258063
17.210000	31.258063
17.220000	31.258063
17.230000	31.258063
17.240000	31.258063
17.250000	31.258063
17.260000	31.258063
17.270000	31.258063
17.280000	31.258063
17.290000	31.258063
17.300000	31.258063
17.310000	31.258063
17.320000	31.258063
17.330000	31.258063
17.340000	31.258063
17.350000	31.258063
17.360000	31.258063
17.370000	31.258063
17.380000	31.258063
17.390000	31.258063
17.400000	31.258063
17.410000	31.258063
17.420000	31.258063
17.430000	31.258063
17.440000	31.258063
17.450000	31.258063
17.460000	31.258063
17.470000	31.258063
17.480000	31.258063
17.490000	31.258063
