LabVIEW Measurement	
Writer_Version	2
Reader_Version	2
Separator	Tab
Decimal_Separator	.
Multi_Headings	No
X_Columns	One
Time_Pref	Absolute
Operator	biomech-dyno
Date	2023/04/27
Time	17:41:55.9338632999999876419
***End_of_Header***	
	
Channels	1	
Samples	10	
Date	2023/04/27	
Time	20:06:45.9832733999999620576	
X_Dimension	Time	
X0	0.0000000000000000E+0	
Delta_X	0.010000	
***End_of_Header***		
X_Value	Untitled	Comment
0.000000	25.166959
0.010000	25.166959
0.020000	25.166959
0.030000	25.166959
0.040000	25.166959
0.050000	25.166959
0.060000	25.166959
0.070000	25.166959
0.080000	25.166959
0.090000	25.166959
0.100000	25.166959
0.110000	25.166959
0.120000	25.166959
0.130000	25.166959
0.140000	25.166959
0.150000	25.166959
0.160000	25.166959
0.170000	25.166959
0.180000	25.166959
0.190000	25.166959
0.200000	25.166959
0.210000	25.166959
0.220000	25.166959
0.230000	25.166959
0.240000	25.166959
0.250000	25.166959
0.260000	25.166959
0.270000	25.166959
0.280000	25.166959
0.290000	25.166959
0.300000	25.166959
0.310000	25.166959
0.320000	25.166959
0.330000	25.166959
0.340000	25.166959
0.350000	25.166959
0.360000	25.166959
0.370000	25.166959
0.380000	25.166959
0.390000	25.166959
0.400000	25.166959
0.410000	25.166959
0.420000	25.166959
0.430000	25.166959
0.440000	25.166959
0.450000	25.166959
0.460000	25.166959
0.470000	25.166959
0.480000	25.166959
0.490000	25.166959
0.500000	25.184785
0.510000	25.184785
0.520000	25.184785
0.530000	25.184785
0.540000	25.184785
0.550000	25.184785
0.560000	25.184785
0.570000	25.184785
0.580000	25.184785
0.590000	25.184785
0.600000	25.184785
0.610000	25.184785
0.620000	25.184785
0.630000	25.184785
0.640000	25.184785
0.650000	25.184785
0.660000	25.184785
0.670000	25.184785
0.680000	25.184785
0.690000	25.184785
0.700000	25.184785
0.710000	25.184785
0.720000	25.184785
0.730000	25.184785
0.740000	25.184785
0.750000	25.184785
0.760000	25.184785
0.770000	25.184785
0.780000	25.184785
0.790000	25.184785
0.800000	25.184785
0.810000	25.184785
0.820000	25.184785
0.830000	25.184785
0.840000	25.184785
0.850000	25.184785
0.860000	25.184785
0.870000	25.184785
0.880000	25.184785
0.890000	25.184785
0.900000	25.184785
0.910000	25.184785
0.920000	25.184785
0.930000	25.184785
0.940000	25.184785
0.950000	25.184785
0.960000	25.184785
0.970000	25.184785
0.980000	25.184785
0.990000	25.184785
1.000000	25.200277
1.010000	25.200277
1.020000	25.200277
1.030000	25.200277
1.040000	25.200277
1.050000	25.200277
1.060000	25.200277
1.070000	25.200277
1.080000	25.200277
1.090000	25.200277
1.100000	25.200277
1.110000	25.200277
1.120000	25.200277
1.130000	25.200277
1.140000	25.200277
1.150000	25.200277
1.160000	25.200277
1.170000	25.200277
1.180000	25.200277
1.190000	25.200277
1.200000	25.200277
1.210000	25.200277
1.220000	25.200277
1.230000	25.200277
1.240000	25.200277
1.250000	25.200277
1.260000	25.200277
1.270000	25.200277
1.280000	25.200277
1.290000	25.200277
1.300000	25.200277
1.310000	25.200277
1.320000	25.200277
1.330000	25.200277
1.340000	25.200277
1.350000	25.200277
1.360000	25.200277
1.370000	25.200277
1.380000	25.200277
1.390000	25.200277
1.400000	25.200277
1.410000	25.200277
1.420000	25.200277
1.430000	25.200277
1.440000	25.200277
1.450000	25.200277
1.460000	25.200277
1.470000	25.200277
1.480000	25.200277
1.490000	25.200277
1.500000	25.213590
1.510000	25.213590
1.520000	25.213590
1.530000	25.213590
1.540000	25.213590
1.550000	25.213590
1.560000	25.213590
1.570000	25.213590
1.580000	25.213590
1.590000	25.213590
1.600000	25.213590
1.610000	25.213590
1.620000	25.213590
1.630000	25.213590
1.640000	25.213590
1.650000	25.213590
1.660000	25.213590
1.670000	25.213590
1.680000	25.213590
1.690000	25.213590
1.700000	25.213590
1.710000	25.213590
1.720000	25.213590
1.730000	25.213590
1.740000	25.213590
1.750000	25.213590
1.760000	25.213590
1.770000	25.213590
1.780000	25.213590
1.790000	25.213590
1.800000	25.213590
1.810000	25.213590
1.820000	25.213590
1.830000	25.213590
1.840000	25.213590
1.850000	25.213590
1.860000	25.213590
1.870000	25.213590
1.880000	25.213590
1.890000	25.213590
1.900000	25.213590
1.910000	25.213590
1.920000	25.213590
1.930000	25.213590
1.940000	25.213590
1.950000	25.213590
1.960000	25.213590
1.970000	25.213590
1.980000	25.213590
1.990000	25.213590
2.000000	25.225467
2.010000	25.225467
2.020000	25.225467
2.030000	25.225467
2.040000	25.225467
2.050000	25.225467
2.060000	25.225467
2.070000	25.225467
2.080000	25.225467
2.090000	25.225467
2.100000	25.225467
2.110000	25.225467
2.120000	25.225467
2.130000	25.225467
2.140000	25.225467
2.150000	25.225467
2.160000	25.225467
2.170000	25.225467
2.180000	25.225467
2.190000	25.225467
2.200000	25.225467
2.210000	25.225467
2.220000	25.225467
2.230000	25.225467
2.240000	25.225467
2.250000	25.225467
2.260000	25.225467
2.270000	25.225467
2.280000	25.225467
2.290000	25.225467
2.300000	25.225467
2.310000	25.225467
2.320000	25.225467
2.330000	25.225467
2.340000	25.225467
2.350000	25.225467
2.360000	25.225467
2.370000	25.225467
2.380000	25.225467
2.390000	25.225467
2.400000	25.225467
2.410000	25.225467
2.420000	25.225467
2.430000	25.225467
2.440000	25.225467
2.450000	25.225467
2.460000	25.225467
2.470000	25.225467
2.480000	25.225467
2.490000	25.225467
2.500000	25.237761
2.510000	25.237761
2.520000	25.237761
2.530000	25.237761
2.540000	25.237761
2.550000	25.237761
2.560000	25.237761
2.570000	25.237761
2.580000	25.237761
2.590000	25.237761
2.600000	25.237761
2.610000	25.237761
2.620000	25.237761
2.630000	25.237761
2.640000	25.237761
2.650000	25.237761
2.660000	25.237761
2.670000	25.237761
2.680000	25.237761
2.690000	25.237761
2.700000	25.237761
2.710000	25.237761
2.720000	25.237761
2.730000	25.237761
2.740000	25.237761
2.750000	25.237761
2.760000	25.237761
2.770000	25.237761
2.780000	25.237761
2.790000	25.237761
2.800000	25.237761
2.810000	25.237761
2.820000	25.237761
2.830000	25.237761
2.840000	25.237761
2.850000	25.237761
2.860000	25.237761
2.870000	25.237761
2.880000	25.237761
2.890000	25.237761
2.900000	25.237761
2.910000	25.237761
2.920000	25.237761
2.930000	25.237761
2.940000	25.237761
2.950000	25.237761
2.960000	25.237761
2.970000	25.237761
2.980000	25.237761
2.990000	25.237761
3.000000	25.248773
3.010000	25.248773
3.020000	25.248773
3.030000	25.248773
3.040000	25.248773
3.050000	25.248773
3.060000	25.248773
3.070000	25.248773
3.080000	25.248773
3.090000	25.248773
3.100000	25.248773
3.110000	25.248773
3.120000	25.248773
3.130000	25.248773
3.140000	25.248773
3.150000	25.248773
3.160000	25.248773
3.170000	25.248773
3.180000	25.248773
3.190000	25.248773
3.200000	25.248773
3.210000	25.248773
3.220000	25.248773
3.230000	25.248773
3.240000	25.248773
3.250000	25.248773
3.260000	25.248773
3.270000	25.248773
3.280000	25.248773
3.290000	25.248773
3.300000	25.248773
3.310000	25.248773
3.320000	25.248773
3.330000	25.248773
3.340000	25.248773
3.350000	25.248773
3.360000	25.248773
3.370000	25.248773
3.380000	25.248773
3.390000	25.248773
3.400000	25.248773
3.410000	25.248773
3.420000	25.248773
3.430000	25.248773
3.440000	25.248773
3.450000	25.248773
3.460000	25.248773
3.470000	25.248773
3.480000	25.248773
3.490000	25.248773
3.500000	25.257106
3.510000	25.257106
3.520000	25.257106
3.530000	25.257106
3.540000	25.257106
3.550000	25.257106
3.560000	25.257106
3.570000	25.257106
3.580000	25.257106
3.590000	25.257106
3.600000	25.257106
3.610000	25.257106
3.620000	25.257106
3.630000	25.257106
3.640000	25.257106
3.650000	25.257106
3.660000	25.257106
3.670000	25.257106
3.680000	25.257106
3.690000	25.257106
3.700000	25.257106
3.710000	25.257106
3.720000	25.257106
3.730000	25.257106
3.740000	25.257106
3.750000	25.257106
3.760000	25.257106
3.770000	25.257106
3.780000	25.257106
3.790000	25.257106
3.800000	25.257106
3.810000	25.257106
3.820000	25.257106
3.830000	25.257106
3.840000	25.257106
3.850000	25.257106
3.860000	25.257106
3.870000	25.257106
3.880000	25.257106
3.890000	25.257106
3.900000	25.257106
3.910000	25.257106
3.920000	25.257106
3.930000	25.257106
3.940000	25.257106
3.950000	25.257106
3.960000	25.257106
3.970000	25.257106
3.980000	25.257106
3.990000	25.257106
4.000000	25.261516
4.010000	25.261516
4.020000	25.261516
4.030000	25.261516
4.040000	25.261516
4.050000	25.261516
4.060000	25.261516
4.070000	25.261516
4.080000	25.261516
4.090000	25.261516
4.100000	25.261516
4.110000	25.261516
4.120000	25.261516
4.130000	25.261516
4.140000	25.261516
4.150000	25.261516
4.160000	25.261516
4.170000	25.261516
4.180000	25.261516
4.190000	25.261516
4.200000	25.261516
4.210000	25.261516
4.220000	25.261516
4.230000	25.261516
4.240000	25.261516
4.250000	25.261516
4.260000	25.261516
4.270000	25.261516
4.280000	25.261516
4.290000	25.261516
4.300000	25.261516
4.310000	25.261516
4.320000	25.261516
4.330000	25.261516
4.340000	25.261516
4.350000	25.261516
4.360000	25.261516
4.370000	25.261516
4.380000	25.261516
4.390000	25.261516
4.400000	25.261516
4.410000	25.261516
4.420000	25.261516
4.430000	25.261516
4.440000	25.261516
4.450000	25.261516
4.460000	25.261516
4.470000	25.261516
4.480000	25.261516
4.490000	25.261516
4.500000	25.261593
4.510000	25.261593
4.520000	25.261593
4.530000	25.261593
4.540000	25.261593
4.550000	25.261593
4.560000	25.261593
4.570000	25.261593
4.580000	25.261593
4.590000	25.261593
4.600000	25.261593
4.610000	25.261593
4.620000	25.261593
4.630000	25.261593
4.640000	25.261593
4.650000	25.261593
4.660000	25.261593
4.670000	25.261593
4.680000	25.261593
4.690000	25.261593
4.700000	25.261593
4.710000	25.261593
4.720000	25.261593
4.730000	25.261593
4.740000	25.261593
4.750000	25.261593
4.760000	25.261593
4.770000	25.261593
4.780000	25.261593
4.790000	25.261593
4.800000	25.261593
4.810000	25.261593
4.820000	25.261593
4.830000	25.261593
4.840000	25.261593
4.850000	25.261593
4.860000	25.261593
4.870000	25.261593
4.880000	25.261593
4.890000	25.261593
4.900000	25.261593
4.910000	25.261593
4.920000	25.261593
4.930000	25.261593
4.940000	25.261593
4.950000	25.261593
4.960000	25.261593
4.970000	25.261593
4.980000	25.261593
4.990000	25.261593
5.000000	25.261284
5.010000	25.261284
5.020000	25.261284
5.030000	25.261284
5.040000	25.261284
5.050000	25.261284
5.060000	25.261284
5.070000	25.261284
5.080000	25.261284
5.090000	25.261284
5.100000	25.261284
5.110000	25.261284
5.120000	25.261284
5.130000	25.261284
5.140000	25.261284
5.150000	25.261284
5.160000	25.261284
5.170000	25.261284
5.180000	25.261284
5.190000	25.261284
5.200000	25.261284
5.210000	25.261284
5.220000	25.261284
5.230000	25.261284
5.240000	25.261284
5.250000	25.261284
5.260000	25.261284
5.270000	25.261284
5.280000	25.261284
5.290000	25.261284
5.300000	25.261284
5.310000	25.261284
5.320000	25.261284
5.330000	25.261284
5.340000	25.261284
5.350000	25.261284
5.360000	25.261284
5.370000	25.261284
5.380000	25.261284
5.390000	25.261284
5.400000	25.261284
5.410000	25.261284
5.420000	25.261284
5.430000	25.261284
5.440000	25.261284
5.450000	25.261284
5.460000	25.261284
5.470000	25.261284
5.480000	25.261284
5.490000	25.261284
5.500000	25.261610
5.510000	25.261610
5.520000	25.261610
5.530000	25.261610
5.540000	25.261610
5.550000	25.261610
5.560000	25.261610
5.570000	25.261610
5.580000	25.261610
5.590000	25.261610
5.600000	25.261610
5.610000	25.261610
5.620000	25.261610
5.630000	25.261610
5.640000	25.261610
5.650000	25.261610
5.660000	25.261610
5.670000	25.261610
5.680000	25.261610
5.690000	25.261610
5.700000	25.261610
5.710000	25.261610
5.720000	25.261610
5.730000	25.261610
5.740000	25.261610
5.750000	25.261610
5.760000	25.261610
5.770000	25.261610
5.780000	25.261610
5.790000	25.261610
5.800000	25.261610
5.810000	25.261610
5.820000	25.261610
5.830000	25.261610
5.840000	25.261610
5.850000	25.261610
5.860000	25.261610
5.870000	25.261610
5.880000	25.261610
5.890000	25.261610
5.900000	25.261610
5.910000	25.261610
5.920000	25.261610
5.930000	25.261610
5.940000	25.261610
5.950000	25.261610
5.960000	25.261610
5.970000	25.261610
5.980000	25.261610
5.990000	25.261610
6.000000	25.262665
6.010000	25.262665
6.020000	25.262665
6.030000	25.262665
6.040000	25.262665
6.050000	25.262665
6.060000	25.262665
6.070000	25.262665
6.080000	25.262665
6.090000	25.262665
6.100000	25.262665
6.110000	25.262665
6.120000	25.262665
6.130000	25.262665
6.140000	25.262665
6.150000	25.262665
6.160000	25.262665
6.170000	25.262665
6.180000	25.262665
6.190000	25.262665
6.200000	25.262665
6.210000	25.262665
6.220000	25.262665
6.230000	25.262665
6.240000	25.262665
6.250000	25.262665
6.260000	25.262665
6.270000	25.262665
6.280000	25.262665
6.290000	25.262665
6.300000	25.262665
6.310000	25.262665
6.320000	25.262665
6.330000	25.262665
6.340000	25.262665
6.350000	25.262665
6.360000	25.262665
6.370000	25.262665
6.380000	25.262665
6.390000	25.262665
6.400000	25.262665
6.410000	25.262665
6.420000	25.262665
6.430000	25.262665
6.440000	25.262665
6.450000	25.262665
6.460000	25.262665
6.470000	25.262665
6.480000	25.262665
6.490000	25.262665
6.500000	25.264476
6.510000	25.264476
6.520000	25.264476
6.530000	25.264476
6.540000	25.264476
6.550000	25.264476
6.560000	25.264476
6.570000	25.264476
6.580000	25.264476
6.590000	25.264476
6.600000	25.264476
6.610000	25.264476
6.620000	25.264476
6.630000	25.264476
6.640000	25.264476
6.650000	25.264476
6.660000	25.264476
6.670000	25.264476
6.680000	25.264476
6.690000	25.264476
6.700000	25.264476
6.710000	25.264476
6.720000	25.264476
6.730000	25.264476
6.740000	25.264476
6.750000	25.264476
6.760000	25.264476
6.770000	25.264476
6.780000	25.264476
6.790000	25.264476
6.800000	25.264476
6.810000	25.264476
6.820000	25.264476
6.830000	25.264476
6.840000	25.264476
6.850000	25.264476
6.860000	25.264476
6.870000	25.264476
6.880000	25.264476
6.890000	25.264476
6.900000	25.264476
6.910000	25.264476
6.920000	25.264476
6.930000	25.264476
6.940000	25.264476
6.950000	25.264476
6.960000	25.264476
6.970000	25.264476
6.980000	25.264476
6.990000	25.264476
7.000000	25.266681
7.010000	25.266681
7.020000	25.266681
7.030000	25.266681
7.040000	25.266681
7.050000	25.266681
7.060000	25.266681
7.070000	25.266681
7.080000	25.266681
7.090000	25.266681
7.100000	25.266681
7.110000	25.266681
7.120000	25.266681
7.130000	25.266681
7.140000	25.266681
7.150000	25.266681
7.160000	25.266681
7.170000	25.266681
7.180000	25.266681
7.190000	25.266681
7.200000	25.266681
7.210000	25.266681
7.220000	25.266681
7.230000	25.266681
7.240000	25.266681
7.250000	25.266681
7.260000	25.266681
7.270000	25.266681
7.280000	25.266681
7.290000	25.266681
7.300000	25.266681
7.310000	25.266681
7.320000	25.266681
7.330000	25.266681
7.340000	25.266681
7.350000	25.266681
7.360000	25.266681
7.370000	25.266681
7.380000	25.266681
7.390000	25.266681
7.400000	25.266681
7.410000	25.266681
7.420000	25.266681
7.430000	25.266681
7.440000	25.266681
7.450000	25.266681
7.460000	25.266681
7.470000	25.266681
7.480000	25.266681
7.490000	25.266681
7.500000	25.270335
7.510000	25.270335
7.520000	25.270335
7.530000	25.270335
7.540000	25.270335
7.550000	25.270335
7.560000	25.270335
7.570000	25.270335
7.580000	25.270335
7.590000	25.270335
7.600000	25.270335
7.610000	25.270335
7.620000	25.270335
7.630000	25.270335
7.640000	25.270335
7.650000	25.270335
7.660000	25.270335
7.670000	25.270335
7.680000	25.270335
7.690000	25.270335
7.700000	25.270335
7.710000	25.270335
7.720000	25.270335
7.730000	25.270335
7.740000	25.270335
7.750000	25.270335
7.760000	25.270335
7.770000	25.270335
7.780000	25.270335
7.790000	25.270335
7.800000	25.270335
7.810000	25.270335
7.820000	25.270335
7.830000	25.270335
7.840000	25.270335
7.850000	25.270335
7.860000	25.270335
7.870000	25.270335
7.880000	25.270335
7.890000	25.270335
7.900000	25.270335
7.910000	25.270335
7.920000	25.270335
7.930000	25.270335
7.940000	25.270335
7.950000	25.270335
7.960000	25.270335
7.970000	25.270335
7.980000	25.270335
7.990000	25.270335
8.000000	25.274624
8.010000	25.274624
8.020000	25.274624
8.030000	25.274624
8.040000	25.274624
8.050000	25.274624
8.060000	25.274624
8.070000	25.274624
8.080000	25.274624
8.090000	25.274624
8.100000	25.274624
8.110000	25.274624
8.120000	25.274624
8.130000	25.274624
8.140000	25.274624
8.150000	25.274624
8.160000	25.274624
8.170000	25.274624
8.180000	25.274624
8.190000	25.274624
8.200000	25.274624
8.210000	25.274624
8.220000	25.274624
8.230000	25.274624
8.240000	25.274624
8.250000	25.274624
8.260000	25.274624
8.270000	25.274624
8.280000	25.274624
8.290000	25.274624
8.300000	25.274624
8.310000	25.274624
8.320000	25.274624
8.330000	25.274624
8.340000	25.274624
8.350000	25.274624
8.360000	25.274624
8.370000	25.274624
8.380000	25.274624
8.390000	25.274624
8.400000	25.274624
8.410000	25.274624
8.420000	25.274624
8.430000	25.274624
8.440000	25.274624
8.450000	25.274624
8.460000	25.274624
8.470000	25.274624
8.480000	25.274624
8.490000	25.274624
8.500000	25.278295
8.510000	25.278295
8.520000	25.278295
8.530000	25.278295
8.540000	25.278295
8.550000	25.278295
8.560000	25.278295
8.570000	25.278295
8.580000	25.278295
8.590000	25.278295
8.600000	25.278295
8.610000	25.278295
8.620000	25.278295
8.630000	25.278295
8.640000	25.278295
8.650000	25.278295
8.660000	25.278295
8.670000	25.278295
8.680000	25.278295
8.690000	25.278295
8.700000	25.278295
8.710000	25.278295
8.720000	25.278295
8.730000	25.278295
8.740000	25.278295
8.750000	25.278295
8.760000	25.278295
8.770000	25.278295
8.780000	25.278295
8.790000	25.278295
8.800000	25.278295
8.810000	25.278295
8.820000	25.278295
8.830000	25.278295
8.840000	25.278295
8.850000	25.278295
8.860000	25.278295
8.870000	25.278295
8.880000	25.278295
8.890000	25.278295
8.900000	25.278295
8.910000	25.278295
8.920000	25.278295
8.930000	25.278295
8.940000	25.278295
8.950000	25.278295
8.960000	25.278295
8.970000	25.278295
8.980000	25.278295
8.990000	25.278295
9.000000	25.282523
9.010000	25.282523
9.020000	25.282523
9.030000	25.282523
9.040000	25.282523
9.050000	25.282523
9.060000	25.282523
9.070000	25.282523
9.080000	25.282523
9.090000	25.282523
9.100000	25.282523
9.110000	25.282523
9.120000	25.282523
9.130000	25.282523
9.140000	25.282523
9.150000	25.282523
9.160000	25.282523
9.170000	25.282523
9.180000	25.282523
9.190000	25.282523
9.200000	25.282523
9.210000	25.282523
9.220000	25.282523
9.230000	25.282523
9.240000	25.282523
9.250000	25.282523
9.260000	25.282523
9.270000	25.282523
9.280000	25.282523
9.290000	25.282523
9.300000	25.282523
9.310000	25.282523
9.320000	25.282523
9.330000	25.282523
9.340000	25.282523
9.350000	25.282523
9.360000	25.282523
9.370000	25.282523
9.380000	25.282523
9.390000	25.282523
9.400000	25.282523
9.410000	25.282523
9.420000	25.282523
9.430000	25.282523
9.440000	25.282523
9.450000	25.282523
9.460000	25.282523
9.470000	25.282523
9.480000	25.282523
9.490000	25.282523
9.500000	25.286657
9.510000	25.286657
9.520000	25.286657
9.530000	25.286657
9.540000	25.286657
9.550000	25.286657
9.560000	25.286657
9.570000	25.286657
9.580000	25.286657
9.590000	25.286657
9.600000	25.286657
9.610000	25.286657
9.620000	25.286657
9.630000	25.286657
9.640000	25.286657
9.650000	25.286657
9.660000	25.286657
9.670000	25.286657
9.680000	25.286657
9.690000	25.286657
9.700000	25.286657
9.710000	25.286657
9.720000	25.286657
9.730000	25.286657
9.740000	25.286657
9.750000	25.286657
9.760000	25.286657
9.770000	25.286657
9.780000	25.286657
9.790000	25.286657
9.800000	25.286657
9.810000	25.286657
9.820000	25.286657
9.830000	25.286657
9.840000	25.286657
9.850000	25.286657
9.860000	25.286657
9.870000	25.286657
9.880000	25.286657
9.890000	25.286657
9.900000	25.286657
9.910000	25.286657
9.920000	25.286657
9.930000	25.286657
9.940000	25.286657
9.950000	25.286657
9.960000	25.286657
9.970000	25.286657
9.980000	25.286657
9.990000	25.286657
10.000000	25.291631
10.010000	25.291631
10.020000	25.291631
10.030000	25.291631
10.040000	25.291631
10.050000	25.291631
10.060000	25.291631
10.070000	25.291631
10.080000	25.291631
10.090000	25.291631
10.100000	25.291631
10.110000	25.291631
10.120000	25.291631
10.130000	25.291631
10.140000	25.291631
10.150000	25.291631
10.160000	25.291631
10.170000	25.291631
10.180000	25.291631
10.190000	25.291631
10.200000	25.291631
10.210000	25.291631
10.220000	25.291631
10.230000	25.291631
10.240000	25.291631
10.250000	25.291631
10.260000	25.291631
10.270000	25.291631
10.280000	25.291631
10.290000	25.291631
10.300000	25.291631
10.310000	25.291631
10.320000	25.291631
10.330000	25.291631
10.340000	25.291631
10.350000	25.291631
10.360000	25.291631
10.370000	25.291631
10.380000	25.291631
10.390000	25.291631
10.400000	25.291631
10.410000	25.291631
10.420000	25.291631
10.430000	25.291631
10.440000	25.291631
10.450000	25.291631
10.460000	25.291631
10.470000	25.291631
10.480000	25.291631
10.490000	25.291631
10.500000	25.295523
10.510000	25.295523
10.520000	25.295523
10.530000	25.295523
10.540000	25.295523
10.550000	25.295523
10.560000	25.295523
10.570000	25.295523
10.580000	25.295523
10.590000	25.295523
10.600000	25.295523
10.610000	25.295523
10.620000	25.295523
10.630000	25.295523
10.640000	25.295523
10.650000	25.295523
10.660000	25.295523
10.670000	25.295523
10.680000	25.295523
10.690000	25.295523
10.700000	25.295523
10.710000	25.295523
10.720000	25.295523
10.730000	25.295523
10.740000	25.295523
10.750000	25.295523
10.760000	25.295523
10.770000	25.295523
10.780000	25.295523
10.790000	25.295523
10.800000	25.295523
10.810000	25.295523
10.820000	25.295523
10.830000	25.295523
10.840000	25.295523
10.850000	25.295523
10.860000	25.295523
10.870000	25.295523
10.880000	25.295523
10.890000	25.295523
10.900000	25.295523
10.910000	25.295523
10.920000	25.295523
10.930000	25.295523
10.940000	25.295523
10.950000	25.295523
10.960000	25.295523
10.970000	25.295523
10.980000	25.295523
10.990000	25.295523
11.000000	25.299321
11.010000	25.299321
11.020000	25.299321
11.030000	25.299321
11.040000	25.299321
11.050000	25.299321
11.060000	25.299321
11.070000	25.299321
11.080000	25.299321
11.090000	25.299321
11.100000	25.299321
11.110000	25.299321
11.120000	25.299321
11.130000	25.299321
11.140000	25.299321
11.150000	25.299321
11.160000	25.299321
11.170000	25.299321
11.180000	25.299321
11.190000	25.299321
11.200000	25.299321
11.210000	25.299321
11.220000	25.299321
11.230000	25.299321
11.240000	25.299321
11.250000	25.299321
11.260000	25.299321
11.270000	25.299321
11.280000	25.299321
11.290000	25.299321
11.300000	25.299321
11.310000	25.299321
11.320000	25.299321
11.330000	25.299321
11.340000	25.299321
11.350000	25.299321
11.360000	25.299321
11.370000	25.299321
11.380000	25.299321
11.390000	25.299321
11.400000	25.299321
11.410000	25.299321
11.420000	25.299321
11.430000	25.299321
11.440000	25.299321
11.450000	25.299321
11.460000	25.299321
11.470000	25.299321
11.480000	25.299321
11.490000	25.299321
11.500000	25.302862
11.510000	25.302862
11.520000	25.302862
11.530000	25.302862
11.540000	25.302862
11.550000	25.302862
11.560000	25.302862
11.570000	25.302862
11.580000	25.302862
11.590000	25.302862
11.600000	25.302862
11.610000	25.302862
11.620000	25.302862
11.630000	25.302862
11.640000	25.302862
11.650000	25.302862
11.660000	25.302862
11.670000	25.302862
11.680000	25.302862
11.690000	25.302862
11.700000	25.302862
11.710000	25.302862
11.720000	25.302862
11.730000	25.302862
11.740000	25.302862
11.750000	25.302862
11.760000	25.302862
11.770000	25.302862
11.780000	25.302862
11.790000	25.302862
11.800000	25.302862
11.810000	25.302862
11.820000	25.302862
11.830000	25.302862
11.840000	25.302862
11.850000	25.302862
11.860000	25.302862
11.870000	25.302862
11.880000	25.302862
11.890000	25.302862
11.900000	25.302862
11.910000	25.302862
11.920000	25.302862
11.930000	25.302862
11.940000	25.302862
11.950000	25.302862
11.960000	25.302862
11.970000	25.302862
11.980000	25.302862
11.990000	25.302862
12.000000	25.304842
12.010000	25.304842
12.020000	25.304842
12.030000	25.304842
12.040000	25.304842
12.050000	25.304842
12.060000	25.304842
12.070000	25.304842
12.080000	25.304842
12.090000	25.304842
12.100000	25.304842
12.110000	25.304842
12.120000	25.304842
12.130000	25.304842
12.140000	25.304842
12.150000	25.304842
12.160000	25.304842
12.170000	25.304842
12.180000	25.304842
12.190000	25.304842
12.200000	25.304842
12.210000	25.304842
12.220000	25.304842
12.230000	25.304842
12.240000	25.304842
12.250000	25.304842
12.260000	25.304842
12.270000	25.304842
12.280000	25.304842
12.290000	25.304842
12.300000	25.304842
12.310000	25.304842
12.320000	25.304842
12.330000	25.304842
12.340000	25.304842
12.350000	25.304842
12.360000	25.304842
12.370000	25.304842
12.380000	25.304842
12.390000	25.304842
12.400000	25.304842
12.410000	25.304842
12.420000	25.304842
12.430000	25.304842
12.440000	25.304842
12.450000	25.304842
12.460000	25.304842
12.470000	25.304842
12.480000	25.304842
12.490000	25.304842
12.500000	25.306291
12.510000	25.306291
12.520000	25.306291
12.530000	25.306291
12.540000	25.306291
12.550000	25.306291
12.560000	25.306291
12.570000	25.306291
12.580000	25.306291
12.590000	25.306291
12.600000	25.306291
12.610000	25.306291
12.620000	25.306291
12.630000	25.306291
12.640000	25.306291
12.650000	25.306291
12.660000	25.306291
12.670000	25.306291
12.680000	25.306291
12.690000	25.306291
12.700000	25.306291
12.710000	25.306291
12.720000	25.306291
12.730000	25.306291
12.740000	25.306291
12.750000	25.306291
12.760000	25.306291
12.770000	25.306291
12.780000	25.306291
12.790000	25.306291
12.800000	25.306291
12.810000	25.306291
12.820000	25.306291
12.830000	25.306291
12.840000	25.306291
12.850000	25.306291
12.860000	25.306291
12.870000	25.306291
12.880000	25.306291
12.890000	25.306291
12.900000	25.306291
12.910000	25.306291
12.920000	25.306291
12.930000	25.306291
12.940000	25.306291
12.950000	25.306291
12.960000	25.306291
12.970000	25.306291
12.980000	25.306291
12.990000	25.306291
13.000000	25.306882
13.010000	25.306882
13.020000	25.306882
13.030000	25.306882
13.040000	25.306882
13.050000	25.306882
13.060000	25.306882
13.070000	25.306882
13.080000	25.306882
13.090000	25.306882
13.100000	25.306882
13.110000	25.306882
13.120000	25.306882
13.130000	25.306882
13.140000	25.306882
13.150000	25.306882
13.160000	25.306882
13.170000	25.306882
13.180000	25.306882
13.190000	25.306882
13.200000	25.306882
13.210000	25.306882
13.220000	25.306882
13.230000	25.306882
13.240000	25.306882
13.250000	25.306882
13.260000	25.306882
13.270000	25.306882
13.280000	25.306882
13.290000	25.306882
13.300000	25.306882
13.310000	25.306882
13.320000	25.306882
13.330000	25.306882
13.340000	25.306882
13.350000	25.306882
13.360000	25.306882
13.370000	25.306882
13.380000	25.306882
13.390000	25.306882
13.400000	25.306882
13.410000	25.306882
13.420000	25.306882
13.430000	25.306882
13.440000	25.306882
13.450000	25.306882
13.460000	25.306882
13.470000	25.306882
13.480000	25.306882
13.490000	25.306882
13.500000	25.306797
13.510000	25.306797
13.520000	25.306797
13.530000	25.306797
13.540000	25.306797
13.550000	25.306797
13.560000	25.306797
13.570000	25.306797
13.580000	25.306797
13.590000	25.306797
13.600000	25.306797
13.610000	25.306797
13.620000	25.306797
13.630000	25.306797
13.640000	25.306797
13.650000	25.306797
13.660000	25.306797
13.670000	25.306797
13.680000	25.306797
13.690000	25.306797
13.700000	25.306797
13.710000	25.306797
13.720000	25.306797
13.730000	25.306797
13.740000	25.306797
13.750000	25.306797
13.760000	25.306797
13.770000	25.306797
13.780000	25.306797
13.790000	25.306797
13.800000	25.306797
13.810000	25.306797
13.820000	25.306797
13.830000	25.306797
13.840000	25.306797
13.850000	25.306797
13.860000	25.306797
13.870000	25.306797
13.880000	25.306797
13.890000	25.306797
13.900000	25.306797
13.910000	25.306797
13.920000	25.306797
13.930000	25.306797
13.940000	25.306797
13.950000	25.306797
13.960000	25.306797
13.970000	25.306797
13.980000	25.306797
13.990000	25.306797
14.000000	25.306265
14.010000	25.306265
14.020000	25.306265
14.030000	25.306265
14.040000	25.306265
14.050000	25.306265
14.060000	25.306265
14.070000	25.306265
14.080000	25.306265
14.090000	25.306265
14.100000	25.306265
14.110000	25.306265
14.120000	25.306265
14.130000	25.306265
14.140000	25.306265
14.150000	25.306265
14.160000	25.306265
14.170000	25.306265
14.180000	25.306265
14.190000	25.306265
14.200000	25.306265
14.210000	25.306265
14.220000	25.306265
14.230000	25.306265
14.240000	25.306265
14.250000	25.306265
14.260000	25.306265
14.270000	25.306265
14.280000	25.306265
14.290000	25.306265
14.300000	25.306265
14.310000	25.306265
14.320000	25.306265
14.330000	25.306265
14.340000	25.306265
14.350000	25.306265
14.360000	25.306265
14.370000	25.306265
14.380000	25.306265
14.390000	25.306265
14.400000	25.306265
14.410000	25.306265
14.420000	25.306265
14.430000	25.306265
14.440000	25.306265
14.450000	25.306265
14.460000	25.306265
14.470000	25.306265
14.480000	25.306265
14.490000	25.306265
14.500000	25.305828
14.510000	25.305828
14.520000	25.305828
14.530000	25.305828
14.540000	25.305828
14.550000	25.305828
14.560000	25.305828
14.570000	25.305828
14.580000	25.305828
14.590000	25.305828
14.600000	25.305828
14.610000	25.305828
14.620000	25.305828
14.630000	25.305828
14.640000	25.305828
14.650000	25.305828
14.660000	25.305828
14.670000	25.305828
14.680000	25.305828
14.690000	25.305828
14.700000	25.305828
14.710000	25.305828
14.720000	25.305828
14.730000	25.305828
14.740000	25.305828
14.750000	25.305828
14.760000	25.305828
14.770000	25.305828
14.780000	25.305828
14.790000	25.305828
14.800000	25.305828
14.810000	25.305828
14.820000	25.305828
14.830000	25.305828
14.840000	25.305828
14.850000	25.305828
14.860000	25.305828
14.870000	25.305828
14.880000	25.305828
14.890000	25.305828
14.900000	25.305828
14.910000	25.305828
14.920000	25.305828
14.930000	25.305828
14.940000	25.305828
14.950000	25.305828
14.960000	25.305828
14.970000	25.305828
14.980000	25.305828
14.990000	25.305828
15.000000	25.305057
15.010000	25.305057
15.020000	25.305057
15.030000	25.305057
15.040000	25.305057
15.050000	25.305057
15.060000	25.305057
15.070000	25.305057
15.080000	25.305057
15.090000	25.305057
15.100000	25.305057
15.110000	25.305057
15.120000	25.305057
15.130000	25.305057
15.140000	25.305057
15.150000	25.305057
15.160000	25.305057
15.170000	25.305057
15.180000	25.305057
15.190000	25.305057
15.200000	25.305057
15.210000	25.305057
15.220000	25.305057
15.230000	25.305057
15.240000	25.305057
15.250000	25.305057
15.260000	25.305057
15.270000	25.305057
15.280000	25.305057
15.290000	25.305057
15.300000	25.305057
15.310000	25.305057
15.320000	25.305057
15.330000	25.305057
15.340000	25.305057
15.350000	25.305057
15.360000	25.305057
15.370000	25.305057
15.380000	25.305057
15.390000	25.305057
15.400000	25.305057
15.410000	25.305057
15.420000	25.305057
15.430000	25.305057
15.440000	25.305057
15.450000	25.305057
15.460000	25.305057
15.470000	25.305057
15.480000	25.305057
15.490000	25.305057
15.500000	25.303308
15.510000	25.303308
15.520000	25.303308
15.530000	25.303308
15.540000	25.303308
15.550000	25.303308
15.560000	25.303308
15.570000	25.303308
15.580000	25.303308
15.590000	25.303308
15.600000	25.303308
15.610000	25.303308
15.620000	25.303308
15.630000	25.303308
15.640000	25.303308
15.650000	25.303308
15.660000	25.303308
15.670000	25.303308
15.680000	25.303308
15.690000	25.303308
15.700000	25.303308
15.710000	25.303308
15.720000	25.303308
15.730000	25.303308
15.740000	25.303308
15.750000	25.303308
15.760000	25.303308
15.770000	25.303308
15.780000	25.303308
15.790000	25.303308
15.800000	25.303308
15.810000	25.303308
15.820000	25.303308
15.830000	25.303308
15.840000	25.303308
15.850000	25.303308
15.860000	25.303308
15.870000	25.303308
15.880000	25.303308
15.890000	25.303308
15.900000	25.303308
15.910000	25.303308
15.920000	25.303308
15.930000	25.303308
15.940000	25.303308
15.950000	25.303308
15.960000	25.303308
15.970000	25.303308
15.980000	25.303308
15.990000	25.303308
16.000000	25.301276
16.010000	25.301276
16.020000	25.301276
16.030000	25.301276
16.040000	25.301276
16.050000	25.301276
16.060000	25.301276
16.070000	25.301276
16.080000	25.301276
16.090000	25.301276
16.100000	25.301276
16.110000	25.301276
16.120000	25.301276
16.130000	25.301276
16.140000	25.301276
16.150000	25.301276
16.160000	25.301276
16.170000	25.301276
16.180000	25.301276
16.190000	25.301276
16.200000	25.301276
16.210000	25.301276
16.220000	25.301276
16.230000	25.301276
16.240000	25.301276
16.250000	25.301276
16.260000	25.301276
16.270000	25.301276
16.280000	25.301276
16.290000	25.301276
16.300000	25.301276
16.310000	25.301276
16.320000	25.301276
16.330000	25.301276
16.340000	25.301276
16.350000	25.301276
16.360000	25.301276
16.370000	25.301276
16.380000	25.301276
16.390000	25.301276
16.400000	25.301276
16.410000	25.301276
16.420000	25.301276
16.430000	25.301276
16.440000	25.301276
16.450000	25.301276
16.460000	25.301276
16.470000	25.301276
16.480000	25.301276
16.490000	25.301276
16.500000	25.298944
16.510000	25.298944
16.520000	25.298944
16.530000	25.298944
16.540000	25.298944
16.550000	25.298944
16.560000	25.298944
16.570000	25.298944
16.580000	25.298944
16.590000	25.298944
16.600000	25.298944
16.610000	25.298944
16.620000	25.298944
16.630000	25.298944
16.640000	25.298944
16.650000	25.298944
16.660000	25.298944
16.670000	25.298944
16.680000	25.298944
16.690000	25.298944
16.700000	25.298944
16.710000	25.298944
16.720000	25.298944
16.730000	25.298944
16.740000	25.298944
16.750000	25.298944
16.760000	25.298944
16.770000	25.298944
16.780000	25.298944
16.790000	25.298944
16.800000	25.298944
16.810000	25.298944
16.820000	25.298944
16.830000	25.298944
16.840000	25.298944
16.850000	25.298944
16.860000	25.298944
16.870000	25.298944
16.880000	25.298944
16.890000	25.298944
16.900000	25.298944
16.910000	25.298944
16.920000	25.298944
16.930000	25.298944
16.940000	25.298944
16.950000	25.298944
16.960000	25.298944
16.970000	25.298944
16.980000	25.298944
16.990000	25.298944
17.000000	25.296106
17.010000	25.296106
17.020000	25.296106
17.030000	25.296106
17.040000	25.296106
17.050000	25.296106
17.060000	25.296106
17.070000	25.296106
17.080000	25.296106
17.090000	25.296106
17.100000	25.296106
17.110000	25.296106
17.120000	25.296106
17.130000	25.296106
17.140000	25.296106
17.150000	25.296106
17.160000	25.296106
17.170000	25.296106
17.180000	25.296106
17.190000	25.296106
17.200000	25.296106
17.210000	25.296106
17.220000	25.296106
17.230000	25.296106
17.240000	25.296106
17.250000	25.296106
17.260000	25.296106
17.270000	25.296106
17.280000	25.296106
17.290000	25.296106
17.300000	25.296106
17.310000	25.296106
17.320000	25.296106
17.330000	25.296106
17.340000	25.296106
17.350000	25.296106
17.360000	25.296106
17.370000	25.296106
17.380000	25.296106
17.390000	25.296106
17.400000	25.296106
17.410000	25.296106
17.420000	25.296106
17.430000	25.296106
17.440000	25.296106
17.450000	25.296106
17.460000	25.296106
17.470000	25.296106
17.480000	25.296106
17.490000	25.296106
