LabVIEW Measurement	
Writer_Version	2
Reader_Version	2
Separator	Tab
Decimal_Separator	.
Multi_Headings	No
X_Columns	One
Time_Pref	Absolute
Operator	biomech-dyno
Date	2023/05/01
Time	15:28:10.3296671999997826969
***End_of_Header***	
	
Channels	1	
Samples	10	
Date	2023/05/01	
Time	16:07:12.0826431999999106045	
X_Dimension	Time	
X0	0.0000000000000000E+0	
Delta_X	0.010000	
***End_of_Header***		
X_Value	Untitled	Comment
0.000000	24.562748
0.010000	24.562748
0.020000	24.562748
0.030000	24.562748
0.040000	24.562748
0.050000	24.562748
0.060000	24.562748
0.070000	24.562748
0.080000	24.562748
0.090000	24.562748
0.100000	24.562748
0.110000	24.562748
0.120000	24.562748
0.130000	24.562748
0.140000	24.562748
0.150000	24.562748
0.160000	24.562748
0.170000	24.562748
0.180000	24.562748
0.190000	24.562748
0.200000	24.562748
0.210000	24.562748
0.220000	24.562748
0.230000	24.562748
0.240000	24.562748
0.250000	24.562748
0.260000	24.562748
0.270000	24.562748
0.280000	24.562748
0.290000	24.562748
0.300000	24.562748
0.310000	24.562748
0.320000	24.562748
0.330000	24.562748
0.340000	24.562748
0.350000	24.562748
0.360000	24.562748
0.370000	24.562748
0.380000	24.562748
0.390000	24.562748
0.400000	24.562748
0.410000	24.562748
0.420000	24.562748
0.430000	24.562748
0.440000	24.562748
0.450000	24.562748
0.460000	24.562748
0.470000	24.562748
0.480000	24.562748
0.490000	24.562748
0.500000	24.565882
0.510000	24.565882
0.520000	24.565882
0.530000	24.565882
0.540000	24.565882
0.550000	24.565882
0.560000	24.565882
0.570000	24.565882
0.580000	24.565882
0.590000	24.565882
0.600000	24.565882
0.610000	24.565882
0.620000	24.565882
0.630000	24.565882
0.640000	24.565882
0.650000	24.565882
0.660000	24.565882
0.670000	24.565882
0.680000	24.565882
0.690000	24.565882
0.700000	24.565882
0.710000	24.565882
0.720000	24.565882
0.730000	24.565882
0.740000	24.565882
0.750000	24.565882
0.760000	24.565882
0.770000	24.565882
0.780000	24.565882
0.790000	24.565882
0.800000	24.565882
0.810000	24.565882
0.820000	24.565882
0.830000	24.565882
0.840000	24.565882
0.850000	24.565882
0.860000	24.565882
0.870000	24.565882
0.880000	24.565882
0.890000	24.565882
0.900000	24.565882
0.910000	24.565882
0.920000	24.565882
0.930000	24.565882
0.940000	24.565882
0.950000	24.565882
0.960000	24.565882
0.970000	24.565882
0.980000	24.565882
0.990000	24.565882
1.000000	24.571566
1.010000	24.571566
1.020000	24.571566
1.030000	24.571566
1.040000	24.571566
1.050000	24.571566
1.060000	24.571566
1.070000	24.571566
1.080000	24.571566
1.090000	24.571566
1.100000	24.571566
1.110000	24.571566
1.120000	24.571566
1.130000	24.571566
1.140000	24.571566
1.150000	24.571566
1.160000	24.571566
1.170000	24.571566
1.180000	24.571566
1.190000	24.571566
1.200000	24.571566
1.210000	24.571566
1.220000	24.571566
1.230000	24.571566
1.240000	24.571566
1.250000	24.571566
1.260000	24.571566
1.270000	24.571566
1.280000	24.571566
1.290000	24.571566
1.300000	24.571566
1.310000	24.571566
1.320000	24.571566
1.330000	24.571566
1.340000	24.571566
1.350000	24.571566
1.360000	24.571566
1.370000	24.571566
1.380000	24.571566
1.390000	24.571566
1.400000	24.571566
1.410000	24.571566
1.420000	24.571566
1.430000	24.571566
1.440000	24.571566
1.450000	24.571566
1.460000	24.571566
1.470000	24.571566
1.480000	24.571566
1.490000	24.571566
1.500000	24.580199
1.510000	24.580199
1.520000	24.580199
1.530000	24.580199
1.540000	24.580199
1.550000	24.580199
1.560000	24.580199
1.570000	24.580199
1.580000	24.580199
1.590000	24.580199
1.600000	24.580199
1.610000	24.580199
1.620000	24.580199
1.630000	24.580199
1.640000	24.580199
1.650000	24.580199
1.660000	24.580199
1.670000	24.580199
1.680000	24.580199
1.690000	24.580199
1.700000	24.580199
1.710000	24.580199
1.720000	24.580199
1.730000	24.580199
1.740000	24.580199
1.750000	24.580199
1.760000	24.580199
1.770000	24.580199
1.780000	24.580199
1.790000	24.580199
1.800000	24.580199
1.810000	24.580199
1.820000	24.580199
1.830000	24.580199
1.840000	24.580199
1.850000	24.580199
1.860000	24.580199
1.870000	24.580199
1.880000	24.580199
1.890000	24.580199
1.900000	24.580199
1.910000	24.580199
1.920000	24.580199
1.930000	24.580199
1.940000	24.580199
1.950000	24.580199
1.960000	24.580199
1.970000	24.580199
1.980000	24.580199
1.990000	24.580199
2.000000	24.591990
2.010000	24.591990
2.020000	24.591990
2.030000	24.591990
2.040000	24.591990
2.050000	24.591990
2.060000	24.591990
2.070000	24.591990
2.080000	24.591990
2.090000	24.591990
2.100000	24.591990
2.110000	24.591990
2.120000	24.591990
2.130000	24.591990
2.140000	24.591990
2.150000	24.591990
2.160000	24.591990
2.170000	24.591990
2.180000	24.591990
2.190000	24.591990
2.200000	24.591990
2.210000	24.591990
2.220000	24.591990
2.230000	24.591990
2.240000	24.591990
2.250000	24.591990
2.260000	24.591990
2.270000	24.591990
2.280000	24.591990
2.290000	24.591990
2.300000	24.591990
2.310000	24.591990
2.320000	24.591990
2.330000	24.591990
2.340000	24.591990
2.350000	24.591990
2.360000	24.591990
2.370000	24.591990
2.380000	24.591990
2.390000	24.591990
2.400000	24.591990
2.410000	24.591990
2.420000	24.591990
2.430000	24.591990
2.440000	24.591990
2.450000	24.591990
2.460000	24.591990
2.470000	24.591990
2.480000	24.591990
2.490000	24.591990
2.500000	24.605500
2.510000	24.605500
2.520000	24.605500
2.530000	24.605500
2.540000	24.605500
2.550000	24.605500
2.560000	24.605500
2.570000	24.605500
2.580000	24.605500
2.590000	24.605500
2.600000	24.605500
2.610000	24.605500
2.620000	24.605500
2.630000	24.605500
2.640000	24.605500
2.650000	24.605500
2.660000	24.605500
2.670000	24.605500
2.680000	24.605500
2.690000	24.605500
2.700000	24.605500
2.710000	24.605500
2.720000	24.605500
2.730000	24.605500
2.740000	24.605500
2.750000	24.605500
2.760000	24.605500
2.770000	24.605500
2.780000	24.605500
2.790000	24.605500
2.800000	24.605500
2.810000	24.605500
2.820000	24.605500
2.830000	24.605500
2.840000	24.605500
2.850000	24.605500
2.860000	24.605500
2.870000	24.605500
2.880000	24.605500
2.890000	24.605500
2.900000	24.605500
2.910000	24.605500
2.920000	24.605500
2.930000	24.605500
2.940000	24.605500
2.950000	24.605500
2.960000	24.605500
2.970000	24.605500
2.980000	24.605500
2.990000	24.605500
3.000000	24.621223
3.010000	24.621223
3.020000	24.621223
3.030000	24.621223
3.040000	24.621223
3.050000	24.621223
3.060000	24.621223
3.070000	24.621223
3.080000	24.621223
3.090000	24.621223
3.100000	24.621223
3.110000	24.621223
3.120000	24.621223
3.130000	24.621223
3.140000	24.621223
3.150000	24.621223
3.160000	24.621223
3.170000	24.621223
3.180000	24.621223
3.190000	24.621223
3.200000	24.621223
3.210000	24.621223
3.220000	24.621223
3.230000	24.621223
3.240000	24.621223
3.250000	24.621223
3.260000	24.621223
3.270000	24.621223
3.280000	24.621223
3.290000	24.621223
3.300000	24.621223
3.310000	24.621223
3.320000	24.621223
3.330000	24.621223
3.340000	24.621223
3.350000	24.621223
3.360000	24.621223
3.370000	24.621223
3.380000	24.621223
3.390000	24.621223
3.400000	24.621223
3.410000	24.621223
3.420000	24.621223
3.430000	24.621223
3.440000	24.621223
3.450000	24.621223
3.460000	24.621223
3.470000	24.621223
3.480000	24.621223
3.490000	24.621223
3.500000	24.635411
3.510000	24.635411
3.520000	24.635411
3.530000	24.635411
3.540000	24.635411
3.550000	24.635411
3.560000	24.635411
3.570000	24.635411
3.580000	24.635411
3.590000	24.635411
3.600000	24.635411
3.610000	24.635411
3.620000	24.635411
3.630000	24.635411
3.640000	24.635411
3.650000	24.635411
3.660000	24.635411
3.670000	24.635411
3.680000	24.635411
3.690000	24.635411
3.700000	24.635411
3.710000	24.635411
3.720000	24.635411
3.730000	24.635411
3.740000	24.635411
3.750000	24.635411
3.760000	24.635411
3.770000	24.635411
3.780000	24.635411
3.790000	24.635411
3.800000	24.635411
3.810000	24.635411
3.820000	24.635411
3.830000	24.635411
3.840000	24.635411
3.850000	24.635411
3.860000	24.635411
3.870000	24.635411
3.880000	24.635411
3.890000	24.635411
3.900000	24.635411
3.910000	24.635411
3.920000	24.635411
3.930000	24.635411
3.940000	24.635411
3.950000	24.635411
3.960000	24.635411
3.970000	24.635411
3.980000	24.635411
3.990000	24.635411
4.000000	24.648952
4.010000	24.648952
4.020000	24.648952
4.030000	24.648952
4.040000	24.648952
4.050000	24.648952
4.060000	24.648952
4.070000	24.648952
4.080000	24.648952
4.090000	24.648952
4.100000	24.648952
4.110000	24.648952
4.120000	24.648952
4.130000	24.648952
4.140000	24.648952
4.150000	24.648952
4.160000	24.648952
4.170000	24.648952
4.180000	24.648952
4.190000	24.648952
4.200000	24.648952
4.210000	24.648952
4.220000	24.648952
4.230000	24.648952
4.240000	24.648952
4.250000	24.648952
4.260000	24.648952
4.270000	24.648952
4.280000	24.648952
4.290000	24.648952
4.300000	24.648952
4.310000	24.648952
4.320000	24.648952
4.330000	24.648952
4.340000	24.648952
4.350000	24.648952
4.360000	24.648952
4.370000	24.648952
4.380000	24.648952
4.390000	24.648952
4.400000	24.648952
4.410000	24.648952
4.420000	24.648952
4.430000	24.648952
4.440000	24.648952
4.450000	24.648952
4.460000	24.648952
4.470000	24.648952
4.480000	24.648952
4.490000	24.648952
4.500000	24.661950
4.510000	24.661950
4.520000	24.661950
4.530000	24.661950
4.540000	24.661950
4.550000	24.661950
4.560000	24.661950
4.570000	24.661950
4.580000	24.661950
4.590000	24.661950
4.600000	24.661950
4.610000	24.661950
4.620000	24.661950
4.630000	24.661950
4.640000	24.661950
4.650000	24.661950
4.660000	24.661950
4.670000	24.661950
4.680000	24.661950
4.690000	24.661950
4.700000	24.661950
4.710000	24.661950
4.720000	24.661950
4.730000	24.661950
4.740000	24.661950
4.750000	24.661950
4.760000	24.661950
4.770000	24.661950
4.780000	24.661950
4.790000	24.661950
4.800000	24.661950
4.810000	24.661950
4.820000	24.661950
4.830000	24.661950
4.840000	24.661950
4.850000	24.661950
4.860000	24.661950
4.870000	24.661950
4.880000	24.661950
4.890000	24.661950
4.900000	24.661950
4.910000	24.661950
4.920000	24.661950
4.930000	24.661950
4.940000	24.661950
4.950000	24.661950
4.960000	24.661950
4.970000	24.661950
4.980000	24.661950
4.990000	24.661950
5.000000	24.673251
5.010000	24.673251
5.020000	24.673251
5.030000	24.673251
5.040000	24.673251
5.050000	24.673251
5.060000	24.673251
5.070000	24.673251
5.080000	24.673251
5.090000	24.673251
5.100000	24.673251
5.110000	24.673251
5.120000	24.673251
5.130000	24.673251
5.140000	24.673251
5.150000	24.673251
5.160000	24.673251
5.170000	24.673251
5.180000	24.673251
5.190000	24.673251
5.200000	24.673251
5.210000	24.673251
5.220000	24.673251
5.230000	24.673251
5.240000	24.673251
5.250000	24.673251
5.260000	24.673251
5.270000	24.673251
5.280000	24.673251
5.290000	24.673251
5.300000	24.673251
5.310000	24.673251
5.320000	24.673251
5.330000	24.673251
5.340000	24.673251
5.350000	24.673251
5.360000	24.673251
5.370000	24.673251
5.380000	24.673251
5.390000	24.673251
5.400000	24.673251
5.410000	24.673251
5.420000	24.673251
5.430000	24.673251
5.440000	24.673251
5.450000	24.673251
5.460000	24.673251
5.470000	24.673251
5.480000	24.673251
5.490000	24.673251
5.500000	24.682735
5.510000	24.682735
5.520000	24.682735
5.530000	24.682735
5.540000	24.682735
5.550000	24.682735
5.560000	24.682735
5.570000	24.682735
5.580000	24.682735
5.590000	24.682735
5.600000	24.682735
5.610000	24.682735
5.620000	24.682735
5.630000	24.682735
5.640000	24.682735
5.650000	24.682735
5.660000	24.682735
5.670000	24.682735
5.680000	24.682735
5.690000	24.682735
5.700000	24.682735
5.710000	24.682735
5.720000	24.682735
5.730000	24.682735
5.740000	24.682735
5.750000	24.682735
5.760000	24.682735
5.770000	24.682735
5.780000	24.682735
5.790000	24.682735
5.800000	24.682735
5.810000	24.682735
5.820000	24.682735
5.830000	24.682735
5.840000	24.682735
5.850000	24.682735
5.860000	24.682735
5.870000	24.682735
5.880000	24.682735
5.890000	24.682735
5.900000	24.682735
5.910000	24.682735
5.920000	24.682735
5.930000	24.682735
5.940000	24.682735
5.950000	24.682735
5.960000	24.682735
5.970000	24.682735
5.980000	24.682735
5.990000	24.682735
6.000000	24.691296
6.010000	24.691296
6.020000	24.691296
6.030000	24.691296
6.040000	24.691296
6.050000	24.691296
6.060000	24.691296
6.070000	24.691296
6.080000	24.691296
6.090000	24.691296
6.100000	24.691296
6.110000	24.691296
6.120000	24.691296
6.130000	24.691296
6.140000	24.691296
6.150000	24.691296
6.160000	24.691296
6.170000	24.691296
6.180000	24.691296
6.190000	24.691296
6.200000	24.691296
6.210000	24.691296
6.220000	24.691296
6.230000	24.691296
6.240000	24.691296
6.250000	24.691296
6.260000	24.691296
6.270000	24.691296
6.280000	24.691296
6.290000	24.691296
6.300000	24.691296
6.310000	24.691296
6.320000	24.691296
6.330000	24.691296
6.340000	24.691296
6.350000	24.691296
6.360000	24.691296
6.370000	24.691296
6.380000	24.691296
6.390000	24.691296
6.400000	24.691296
6.410000	24.691296
6.420000	24.691296
6.430000	24.691296
6.440000	24.691296
6.450000	24.691296
6.460000	24.691296
6.470000	24.691296
6.480000	24.691296
6.490000	24.691296
6.500000	24.699101
6.510000	24.699101
6.520000	24.699101
6.530000	24.699101
6.540000	24.699101
6.550000	24.699101
6.560000	24.699101
6.570000	24.699101
6.580000	24.699101
6.590000	24.699101
6.600000	24.699101
6.610000	24.699101
6.620000	24.699101
6.630000	24.699101
6.640000	24.699101
6.650000	24.699101
6.660000	24.699101
6.670000	24.699101
6.680000	24.699101
6.690000	24.699101
6.700000	24.699101
6.710000	24.699101
6.720000	24.699101
6.730000	24.699101
6.740000	24.699101
6.750000	24.699101
6.760000	24.699101
6.770000	24.699101
6.780000	24.699101
6.790000	24.699101
6.800000	24.699101
6.810000	24.699101
6.820000	24.699101
6.830000	24.699101
6.840000	24.699101
6.850000	24.699101
6.860000	24.699101
6.870000	24.699101
6.880000	24.699101
6.890000	24.699101
6.900000	24.699101
6.910000	24.699101
6.920000	24.699101
6.930000	24.699101
6.940000	24.699101
6.950000	24.699101
6.960000	24.699101
6.970000	24.699101
6.980000	24.699101
6.990000	24.699101
7.000000	24.705507
7.010000	24.705507
7.020000	24.705507
7.030000	24.705507
7.040000	24.705507
7.050000	24.705507
7.060000	24.705507
7.070000	24.705507
7.080000	24.705507
7.090000	24.705507
7.100000	24.705507
7.110000	24.705507
7.120000	24.705507
7.130000	24.705507
7.140000	24.705507
7.150000	24.705507
7.160000	24.705507
7.170000	24.705507
7.180000	24.705507
7.190000	24.705507
7.200000	24.705507
7.210000	24.705507
7.220000	24.705507
7.230000	24.705507
7.240000	24.705507
7.250000	24.705507
7.260000	24.705507
7.270000	24.705507
7.280000	24.705507
7.290000	24.705507
7.300000	24.705507
7.310000	24.705507
7.320000	24.705507
7.330000	24.705507
7.340000	24.705507
7.350000	24.705507
7.360000	24.705507
7.370000	24.705507
7.380000	24.705507
7.390000	24.705507
7.400000	24.705507
7.410000	24.705507
7.420000	24.705507
7.430000	24.705507
7.440000	24.705507
7.450000	24.705507
7.460000	24.705507
7.470000	24.705507
7.480000	24.705507
7.490000	24.705507
7.500000	24.710636
7.510000	24.710636
7.520000	24.710636
7.530000	24.710636
7.540000	24.710636
7.550000	24.710636
7.560000	24.710636
7.570000	24.710636
7.580000	24.710636
7.590000	24.710636
7.600000	24.710636
7.610000	24.710636
7.620000	24.710636
7.630000	24.710636
7.640000	24.710636
7.650000	24.710636
7.660000	24.710636
7.670000	24.710636
7.680000	24.710636
7.690000	24.710636
7.700000	24.710636
7.710000	24.710636
7.720000	24.710636
7.730000	24.710636
7.740000	24.710636
7.750000	24.710636
7.760000	24.710636
7.770000	24.710636
7.780000	24.710636
7.790000	24.710636
7.800000	24.710636
7.810000	24.710636
7.820000	24.710636
7.830000	24.710636
7.840000	24.710636
7.850000	24.710636
7.860000	24.710636
7.870000	24.710636
7.880000	24.710636
7.890000	24.710636
7.900000	24.710636
7.910000	24.710636
7.920000	24.710636
7.930000	24.710636
7.940000	24.710636
7.950000	24.710636
7.960000	24.710636
7.970000	24.710636
7.980000	24.710636
7.990000	24.710636
8.000000	24.714611
8.010000	24.714611
8.020000	24.714611
8.030000	24.714611
8.040000	24.714611
8.050000	24.714611
8.060000	24.714611
8.070000	24.714611
8.080000	24.714611
8.090000	24.714611
8.100000	24.714611
8.110000	24.714611
8.120000	24.714611
8.130000	24.714611
8.140000	24.714611
8.150000	24.714611
8.160000	24.714611
8.170000	24.714611
8.180000	24.714611
8.190000	24.714611
8.200000	24.714611
8.210000	24.714611
8.220000	24.714611
8.230000	24.714611
8.240000	24.714611
8.250000	24.714611
8.260000	24.714611
8.270000	24.714611
8.280000	24.714611
8.290000	24.714611
8.300000	24.714611
8.310000	24.714611
8.320000	24.714611
8.330000	24.714611
8.340000	24.714611
8.350000	24.714611
8.360000	24.714611
8.370000	24.714611
8.380000	24.714611
8.390000	24.714611
8.400000	24.714611
8.410000	24.714611
8.420000	24.714611
8.430000	24.714611
8.440000	24.714611
8.450000	24.714611
8.460000	24.714611
8.470000	24.714611
8.480000	24.714611
8.490000	24.714611
8.500000	24.718116
8.510000	24.718116
8.520000	24.718116
8.530000	24.718116
8.540000	24.718116
8.550000	24.718116
8.560000	24.718116
8.570000	24.718116
8.580000	24.718116
8.590000	24.718116
8.600000	24.718116
8.610000	24.718116
8.620000	24.718116
8.630000	24.718116
8.640000	24.718116
8.650000	24.718116
8.660000	24.718116
8.670000	24.718116
8.680000	24.718116
8.690000	24.718116
8.700000	24.718116
8.710000	24.718116
8.720000	24.718116
8.730000	24.718116
8.740000	24.718116
8.750000	24.718116
8.760000	24.718116
8.770000	24.718116
8.780000	24.718116
8.790000	24.718116
8.800000	24.718116
8.810000	24.718116
8.820000	24.718116
8.830000	24.718116
8.840000	24.718116
8.850000	24.718116
8.860000	24.718116
8.870000	24.718116
8.880000	24.718116
8.890000	24.718116
8.900000	24.718116
8.910000	24.718116
8.920000	24.718116
8.930000	24.718116
8.940000	24.718116
8.950000	24.718116
8.960000	24.718116
8.970000	24.718116
8.980000	24.718116
8.990000	24.718116
9.000000	24.721457
9.010000	24.721457
9.020000	24.721457
9.030000	24.721457
9.040000	24.721457
9.050000	24.721457
9.060000	24.721457
9.070000	24.721457
9.080000	24.721457
9.090000	24.721457
9.100000	24.721457
9.110000	24.721457
9.120000	24.721457
9.130000	24.721457
9.140000	24.721457
9.150000	24.721457
9.160000	24.721457
9.170000	24.721457
9.180000	24.721457
9.190000	24.721457
9.200000	24.721457
9.210000	24.721457
9.220000	24.721457
9.230000	24.721457
9.240000	24.721457
9.250000	24.721457
9.260000	24.721457
9.270000	24.721457
9.280000	24.721457
9.290000	24.721457
9.300000	24.721457
9.310000	24.721457
9.320000	24.721457
9.330000	24.721457
9.340000	24.721457
9.350000	24.721457
9.360000	24.721457
9.370000	24.721457
9.380000	24.721457
9.390000	24.721457
9.400000	24.721457
9.410000	24.721457
9.420000	24.721457
9.430000	24.721457
9.440000	24.721457
9.450000	24.721457
9.460000	24.721457
9.470000	24.721457
9.480000	24.721457
9.490000	24.721457
9.500000	24.724303
9.510000	24.724303
9.520000	24.724303
9.530000	24.724303
9.540000	24.724303
9.550000	24.724303
9.560000	24.724303
9.570000	24.724303
9.580000	24.724303
9.590000	24.724303
9.600000	24.724303
9.610000	24.724303
9.620000	24.724303
9.630000	24.724303
9.640000	24.724303
9.650000	24.724303
9.660000	24.724303
9.670000	24.724303
9.680000	24.724303
9.690000	24.724303
9.700000	24.724303
9.710000	24.724303
9.720000	24.724303
9.730000	24.724303
9.740000	24.724303
9.750000	24.724303
9.760000	24.724303
9.770000	24.724303
9.780000	24.724303
9.790000	24.724303
9.800000	24.724303
9.810000	24.724303
9.820000	24.724303
9.830000	24.724303
9.840000	24.724303
9.850000	24.724303
9.860000	24.724303
9.870000	24.724303
9.880000	24.724303
9.890000	24.724303
9.900000	24.724303
9.910000	24.724303
9.920000	24.724303
9.930000	24.724303
9.940000	24.724303
9.950000	24.724303
9.960000	24.724303
9.970000	24.724303
9.980000	24.724303
9.990000	24.724303
10.000000	24.726958
10.010000	24.726958
10.020000	24.726958
10.030000	24.726958
10.040000	24.726958
10.050000	24.726958
10.060000	24.726958
10.070000	24.726958
10.080000	24.726958
10.090000	24.726958
10.100000	24.726958
10.110000	24.726958
10.120000	24.726958
10.130000	24.726958
10.140000	24.726958
10.150000	24.726958
10.160000	24.726958
10.170000	24.726958
10.180000	24.726958
10.190000	24.726958
10.200000	24.726958
10.210000	24.726958
10.220000	24.726958
10.230000	24.726958
10.240000	24.726958
10.250000	24.726958
10.260000	24.726958
10.270000	24.726958
10.280000	24.726958
10.290000	24.726958
10.300000	24.726958
10.310000	24.726958
10.320000	24.726958
10.330000	24.726958
10.340000	24.726958
10.350000	24.726958
10.360000	24.726958
10.370000	24.726958
10.380000	24.726958
10.390000	24.726958
10.400000	24.726958
10.410000	24.726958
10.420000	24.726958
10.430000	24.726958
10.440000	24.726958
10.450000	24.726958
10.460000	24.726958
10.470000	24.726958
10.480000	24.726958
10.490000	24.726958
10.500000	24.728693
10.510000	24.728693
10.520000	24.728693
10.530000	24.728693
10.540000	24.728693
10.550000	24.728693
10.560000	24.728693
10.570000	24.728693
10.580000	24.728693
10.590000	24.728693
10.600000	24.728693
10.610000	24.728693
10.620000	24.728693
10.630000	24.728693
10.640000	24.728693
10.650000	24.728693
10.660000	24.728693
10.670000	24.728693
10.680000	24.728693
10.690000	24.728693
10.700000	24.728693
10.710000	24.728693
10.720000	24.728693
10.730000	24.728693
10.740000	24.728693
10.750000	24.728693
10.760000	24.728693
10.770000	24.728693
10.780000	24.728693
10.790000	24.728693
10.800000	24.728693
10.810000	24.728693
10.820000	24.728693
10.830000	24.728693
10.840000	24.728693
10.850000	24.728693
10.860000	24.728693
10.870000	24.728693
10.880000	24.728693
10.890000	24.728693
10.900000	24.728693
10.910000	24.728693
10.920000	24.728693
10.930000	24.728693
10.940000	24.728693
10.950000	24.728693
10.960000	24.728693
10.970000	24.728693
10.980000	24.728693
10.990000	24.728693
11.000000	24.729855
11.010000	24.729855
11.020000	24.729855
11.030000	24.729855
11.040000	24.729855
11.050000	24.729855
11.060000	24.729855
11.070000	24.729855
11.080000	24.729855
11.090000	24.729855
11.100000	24.729855
11.110000	24.729855
11.120000	24.729855
11.130000	24.729855
11.140000	24.729855
11.150000	24.729855
11.160000	24.729855
11.170000	24.729855
11.180000	24.729855
11.190000	24.729855
11.200000	24.729855
11.210000	24.729855
11.220000	24.729855
11.230000	24.729855
11.240000	24.729855
11.250000	24.729855
11.260000	24.729855
11.270000	24.729855
11.280000	24.729855
11.290000	24.729855
11.300000	24.729855
11.310000	24.729855
11.320000	24.729855
11.330000	24.729855
11.340000	24.729855
11.350000	24.729855
11.360000	24.729855
11.370000	24.729855
11.380000	24.729855
11.390000	24.729855
11.400000	24.729855
11.410000	24.729855
11.420000	24.729855
11.430000	24.729855
11.440000	24.729855
11.450000	24.729855
11.460000	24.729855
11.470000	24.729855
11.480000	24.729855
11.490000	24.729855
11.500000	24.731209
11.510000	24.731209
11.520000	24.731209
11.530000	24.731209
11.540000	24.731209
11.550000	24.731209
11.560000	24.731209
11.570000	24.731209
11.580000	24.731209
11.590000	24.731209
11.600000	24.731209
11.610000	24.731209
11.620000	24.731209
11.630000	24.731209
11.640000	24.731209
11.650000	24.731209
11.660000	24.731209
11.670000	24.731209
11.680000	24.731209
11.690000	24.731209
11.700000	24.731209
11.710000	24.731209
11.720000	24.731209
11.730000	24.731209
11.740000	24.731209
11.750000	24.731209
11.760000	24.731209
11.770000	24.731209
11.780000	24.731209
11.790000	24.731209
11.800000	24.731209
11.810000	24.731209
11.820000	24.731209
11.830000	24.731209
11.840000	24.731209
11.850000	24.731209
11.860000	24.731209
11.870000	24.731209
11.880000	24.731209
11.890000	24.731209
11.900000	24.731209
11.910000	24.731209
11.920000	24.731209
11.930000	24.731209
11.940000	24.731209
11.950000	24.731209
11.960000	24.731209
11.970000	24.731209
11.980000	24.731209
11.990000	24.731209
12.000000	24.731504
12.010000	24.731504
12.020000	24.731504
12.030000	24.731504
12.040000	24.731504
12.050000	24.731504
12.060000	24.731504
12.070000	24.731504
12.080000	24.731504
12.090000	24.731504
12.100000	24.731504
12.110000	24.731504
12.120000	24.731504
12.130000	24.731504
12.140000	24.731504
12.150000	24.731504
12.160000	24.731504
12.170000	24.731504
12.180000	24.731504
12.190000	24.731504
12.200000	24.731504
12.210000	24.731504
12.220000	24.731504
12.230000	24.731504
12.240000	24.731504
12.250000	24.731504
12.260000	24.731504
12.270000	24.731504
12.280000	24.731504
12.290000	24.731504
12.300000	24.731504
12.310000	24.731504
12.320000	24.731504
12.330000	24.731504
12.340000	24.731504
12.350000	24.731504
12.360000	24.731504
12.370000	24.731504
12.380000	24.731504
12.390000	24.731504
12.400000	24.731504
12.410000	24.731504
12.420000	24.731504
12.430000	24.731504
12.440000	24.731504
12.450000	24.731504
12.460000	24.731504
12.470000	24.731504
12.480000	24.731504
12.490000	24.731504
12.500000	24.731955
12.510000	24.731955
12.520000	24.731955
12.530000	24.731955
12.540000	24.731955
12.550000	24.731955
12.560000	24.731955
12.570000	24.731955
12.580000	24.731955
12.590000	24.731955
12.600000	24.731955
12.610000	24.731955
12.620000	24.731955
12.630000	24.731955
12.640000	24.731955
12.650000	24.731955
12.660000	24.731955
12.670000	24.731955
12.680000	24.731955
12.690000	24.731955
12.700000	24.731955
12.710000	24.731955
12.720000	24.731955
12.730000	24.731955
12.740000	24.731955
12.750000	24.731955
12.760000	24.731955
12.770000	24.731955
12.780000	24.731955
12.790000	24.731955
12.800000	24.731955
12.810000	24.731955
12.820000	24.731955
12.830000	24.731955
12.840000	24.731955
12.850000	24.731955
12.860000	24.731955
12.870000	24.731955
12.880000	24.731955
12.890000	24.731955
12.900000	24.731955
12.910000	24.731955
12.920000	24.731955
12.930000	24.731955
12.940000	24.731955
12.950000	24.731955
12.960000	24.731955
12.970000	24.731955
12.980000	24.731955
12.990000	24.731955
13.000000	24.731816
13.010000	24.731816
13.020000	24.731816
13.030000	24.731816
13.040000	24.731816
13.050000	24.731816
13.060000	24.731816
13.070000	24.731816
13.080000	24.731816
13.090000	24.731816
13.100000	24.731816
13.110000	24.731816
13.120000	24.731816
13.130000	24.731816
13.140000	24.731816
13.150000	24.731816
13.160000	24.731816
13.170000	24.731816
13.180000	24.731816
13.190000	24.731816
13.200000	24.731816
13.210000	24.731816
13.220000	24.731816
13.230000	24.731816
13.240000	24.731816
13.250000	24.731816
13.260000	24.731816
13.270000	24.731816
13.280000	24.731816
13.290000	24.731816
13.300000	24.731816
13.310000	24.731816
13.320000	24.731816
13.330000	24.731816
13.340000	24.731816
13.350000	24.731816
13.360000	24.731816
13.370000	24.731816
13.380000	24.731816
13.390000	24.731816
13.400000	24.731816
13.410000	24.731816
13.420000	24.731816
13.430000	24.731816
13.440000	24.731816
13.450000	24.731816
13.460000	24.731816
13.470000	24.731816
13.480000	24.731816
13.490000	24.731816
13.500000	24.731009
13.510000	24.731009
13.520000	24.731009
13.530000	24.731009
13.540000	24.731009
13.550000	24.731009
13.560000	24.731009
13.570000	24.731009
13.580000	24.731009
13.590000	24.731009
13.600000	24.731009
13.610000	24.731009
13.620000	24.731009
13.630000	24.731009
13.640000	24.731009
13.650000	24.731009
13.660000	24.731009
13.670000	24.731009
13.680000	24.731009
13.690000	24.731009
13.700000	24.731009
13.710000	24.731009
13.720000	24.731009
13.730000	24.731009
13.740000	24.731009
13.750000	24.731009
13.760000	24.731009
13.770000	24.731009
13.780000	24.731009
13.790000	24.731009
13.800000	24.731009
13.810000	24.731009
13.820000	24.731009
13.830000	24.731009
13.840000	24.731009
13.850000	24.731009
13.860000	24.731009
13.870000	24.731009
13.880000	24.731009
13.890000	24.731009
13.900000	24.731009
13.910000	24.731009
13.920000	24.731009
13.930000	24.731009
13.940000	24.731009
13.950000	24.731009
13.960000	24.731009
13.970000	24.731009
13.980000	24.731009
13.990000	24.731009
14.000000	24.730003
14.010000	24.730003
14.020000	24.730003
14.030000	24.730003
14.040000	24.730003
14.050000	24.730003
14.060000	24.730003
14.070000	24.730003
14.080000	24.730003
14.090000	24.730003
14.100000	24.730003
14.110000	24.730003
14.120000	24.730003
14.130000	24.730003
14.140000	24.730003
14.150000	24.730003
14.160000	24.730003
14.170000	24.730003
14.180000	24.730003
14.190000	24.730003
14.200000	24.730003
14.210000	24.730003
14.220000	24.730003
14.230000	24.730003
14.240000	24.730003
14.250000	24.730003
14.260000	24.730003
14.270000	24.730003
14.280000	24.730003
14.290000	24.730003
14.300000	24.730003
14.310000	24.730003
14.320000	24.730003
14.330000	24.730003
14.340000	24.730003
14.350000	24.730003
14.360000	24.730003
14.370000	24.730003
14.380000	24.730003
14.390000	24.730003
14.400000	24.730003
14.410000	24.730003
14.420000	24.730003
14.430000	24.730003
14.440000	24.730003
14.450000	24.730003
14.460000	24.730003
14.470000	24.730003
14.480000	24.730003
14.490000	24.730003
14.500000	24.729586
14.510000	24.729586
14.520000	24.729586
14.530000	24.729586
14.540000	24.729586
14.550000	24.729586
14.560000	24.729586
14.570000	24.729586
14.580000	24.729586
14.590000	24.729586
14.600000	24.729586
14.610000	24.729586
14.620000	24.729586
14.630000	24.729586
14.640000	24.729586
14.650000	24.729586
14.660000	24.729586
14.670000	24.729586
14.680000	24.729586
14.690000	24.729586
14.700000	24.729586
14.710000	24.729586
14.720000	24.729586
14.730000	24.729586
14.740000	24.729586
14.750000	24.729586
14.760000	24.729586
14.770000	24.729586
14.780000	24.729586
14.790000	24.729586
14.800000	24.729586
14.810000	24.729586
14.820000	24.729586
14.830000	24.729586
14.840000	24.729586
14.850000	24.729586
14.860000	24.729586
14.870000	24.729586
14.880000	24.729586
14.890000	24.729586
14.900000	24.729586
14.910000	24.729586
14.920000	24.729586
14.930000	24.729586
14.940000	24.729586
14.950000	24.729586
14.960000	24.729586
14.970000	24.729586
14.980000	24.729586
14.990000	24.729586
15.000000	24.728493
15.010000	24.728493
15.020000	24.728493
15.030000	24.728493
15.040000	24.728493
15.050000	24.728493
15.060000	24.728493
15.070000	24.728493
15.080000	24.728493
15.090000	24.728493
15.100000	24.728493
15.110000	24.728493
15.120000	24.728493
15.130000	24.728493
15.140000	24.728493
15.150000	24.728493
15.160000	24.728493
15.170000	24.728493
15.180000	24.728493
15.190000	24.728493
15.200000	24.728493
15.210000	24.728493
15.220000	24.728493
15.230000	24.728493
15.240000	24.728493
15.250000	24.728493
15.260000	24.728493
15.270000	24.728493
15.280000	24.728493
15.290000	24.728493
15.300000	24.728493
15.310000	24.728493
15.320000	24.728493
15.330000	24.728493
15.340000	24.728493
15.350000	24.728493
15.360000	24.728493
15.370000	24.728493
15.380000	24.728493
15.390000	24.728493
15.400000	24.728493
15.410000	24.728493
15.420000	24.728493
15.430000	24.728493
15.440000	24.728493
15.450000	24.728493
15.460000	24.728493
15.470000	24.728493
15.480000	24.728493
15.490000	24.728493
15.500000	24.727001
15.510000	24.727001
15.520000	24.727001
15.530000	24.727001
15.540000	24.727001
15.550000	24.727001
15.560000	24.727001
15.570000	24.727001
15.580000	24.727001
15.590000	24.727001
15.600000	24.727001
15.610000	24.727001
15.620000	24.727001
15.630000	24.727001
15.640000	24.727001
15.650000	24.727001
15.660000	24.727001
15.670000	24.727001
15.680000	24.727001
15.690000	24.727001
15.700000	24.727001
15.710000	24.727001
15.720000	24.727001
15.730000	24.727001
15.740000	24.727001
15.750000	24.727001
15.760000	24.727001
15.770000	24.727001
15.780000	24.727001
15.790000	24.727001
15.800000	24.727001
15.810000	24.727001
15.820000	24.727001
15.830000	24.727001
15.840000	24.727001
15.850000	24.727001
15.860000	24.727001
15.870000	24.727001
15.880000	24.727001
15.890000	24.727001
15.900000	24.727001
15.910000	24.727001
15.920000	24.727001
15.930000	24.727001
15.940000	24.727001
15.950000	24.727001
15.960000	24.727001
15.970000	24.727001
15.980000	24.727001
15.990000	24.727001
16.000000	24.725170
16.010000	24.725170
16.020000	24.725170
16.030000	24.725170
16.040000	24.725170
16.050000	24.725170
16.060000	24.725170
16.070000	24.725170
16.080000	24.725170
16.090000	24.725170
16.100000	24.725170
16.110000	24.725170
16.120000	24.725170
16.130000	24.725170
16.140000	24.725170
16.150000	24.725170
16.160000	24.725170
16.170000	24.725170
16.180000	24.725170
16.190000	24.725170
16.200000	24.725170
16.210000	24.725170
16.220000	24.725170
16.230000	24.725170
16.240000	24.725170
16.250000	24.725170
16.260000	24.725170
16.270000	24.725170
16.280000	24.725170
16.290000	24.725170
16.300000	24.725170
16.310000	24.725170
16.320000	24.725170
16.330000	24.725170
16.340000	24.725170
16.350000	24.725170
16.360000	24.725170
16.370000	24.725170
16.380000	24.725170
16.390000	24.725170
16.400000	24.725170
16.410000	24.725170
16.420000	24.725170
16.430000	24.725170
16.440000	24.725170
16.450000	24.725170
16.460000	24.725170
16.470000	24.725170
16.480000	24.725170
16.490000	24.725170
16.500000	24.723687
16.510000	24.723687
16.520000	24.723687
16.530000	24.723687
16.540000	24.723687
16.550000	24.723687
16.560000	24.723687
16.570000	24.723687
16.580000	24.723687
16.590000	24.723687
16.600000	24.723687
16.610000	24.723687
16.620000	24.723687
16.630000	24.723687
16.640000	24.723687
16.650000	24.723687
16.660000	24.723687
16.670000	24.723687
16.680000	24.723687
16.690000	24.723687
16.700000	24.723687
16.710000	24.723687
16.720000	24.723687
16.730000	24.723687
16.740000	24.723687
16.750000	24.723687
16.760000	24.723687
16.770000	24.723687
16.780000	24.723687
16.790000	24.723687
16.800000	24.723687
16.810000	24.723687
16.820000	24.723687
16.830000	24.723687
16.840000	24.723687
16.850000	24.723687
16.860000	24.723687
16.870000	24.723687
16.880000	24.723687
16.890000	24.723687
16.900000	24.723687
16.910000	24.723687
16.920000	24.723687
16.930000	24.723687
16.940000	24.723687
16.950000	24.723687
16.960000	24.723687
16.970000	24.723687
16.980000	24.723687
16.990000	24.723687
17.000000	24.722004
17.010000	24.722004
17.020000	24.722004
17.030000	24.722004
17.040000	24.722004
17.050000	24.722004
17.060000	24.722004
17.070000	24.722004
17.080000	24.722004
17.090000	24.722004
17.100000	24.722004
17.110000	24.722004
17.120000	24.722004
17.130000	24.722004
17.140000	24.722004
17.150000	24.722004
17.160000	24.722004
17.170000	24.722004
17.180000	24.722004
17.190000	24.722004
17.200000	24.722004
17.210000	24.722004
17.220000	24.722004
17.230000	24.722004
17.240000	24.722004
17.250000	24.722004
17.260000	24.722004
17.270000	24.722004
17.280000	24.722004
17.290000	24.722004
17.300000	24.722004
17.310000	24.722004
17.320000	24.722004
17.330000	24.722004
17.340000	24.722004
17.350000	24.722004
17.360000	24.722004
17.370000	24.722004
17.380000	24.722004
17.390000	24.722004
17.400000	24.722004
17.410000	24.722004
17.420000	24.722004
17.430000	24.722004
17.440000	24.722004
17.450000	24.722004
17.460000	24.722004
17.470000	24.722004
17.480000	24.722004
17.490000	24.722004
17.500000	24.720051
17.510000	24.720051
17.520000	24.720051
17.530000	24.720051
17.540000	24.720051
17.550000	24.720051
17.560000	24.720051
17.570000	24.720051
17.580000	24.720051
17.590000	24.720051
17.600000	24.720051
17.610000	24.720051
17.620000	24.720051
17.630000	24.720051
17.640000	24.720051
17.650000	24.720051
17.660000	24.720051
17.670000	24.720051
17.680000	24.720051
17.690000	24.720051
