LabVIEW Measurement	
Writer_Version	2
Reader_Version	2
Separator	Tab
Decimal_Separator	.
Multi_Headings	No
X_Columns	One
Time_Pref	Absolute
Operator	biomech-dyno
Date	2023/04/27
Time	17:41:55.9338632999999876419
***End_of_Header***	
	
Channels	1	
Samples	10	
Date	2023/04/27	
Time	18:04:28.2470977999998254509	
X_Dimension	Time	
X0	0.0000000000000000E+0	
Delta_X	0.010000	
***End_of_Header***		
X_Value	Untitled	Comment
0.000000	24.865040
0.010000	24.865040
0.020000	24.865040
0.030000	24.865040
0.040000	24.865040
0.050000	24.865040
0.060000	24.865040
0.070000	24.865040
0.080000	24.865040
0.090000	24.865040
0.100000	24.865040
0.110000	24.865040
0.120000	24.865040
0.130000	24.865040
0.140000	24.865040
0.150000	24.865040
0.160000	24.865040
0.170000	24.865040
0.180000	24.865040
0.190000	24.865040
0.200000	24.865040
0.210000	24.865040
0.220000	24.865040
0.230000	24.865040
0.240000	24.865040
0.250000	24.865040
0.260000	24.865040
0.270000	24.865040
0.280000	24.865040
0.290000	24.865040
0.300000	24.865040
0.310000	24.865040
0.320000	24.865040
0.330000	24.865040
0.340000	24.865040
0.350000	24.865040
0.360000	24.865040
0.370000	24.865040
0.380000	24.865040
0.390000	24.865040
0.400000	24.865040
0.410000	24.865040
0.420000	24.865040
0.430000	24.865040
0.440000	24.865040
0.450000	24.865040
0.460000	24.865040
0.470000	24.865040
0.480000	24.865040
0.490000	24.865040
0.500000	24.870299
0.510000	24.870299
0.520000	24.870299
0.530000	24.870299
0.540000	24.870299
0.550000	24.870299
0.560000	24.870299
0.570000	24.870299
0.580000	24.870299
0.590000	24.870299
0.600000	24.870299
0.610000	24.870299
0.620000	24.870299
0.630000	24.870299
0.640000	24.870299
0.650000	24.870299
0.660000	24.870299
0.670000	24.870299
0.680000	24.870299
0.690000	24.870299
0.700000	24.870299
0.710000	24.870299
0.720000	24.870299
0.730000	24.870299
0.740000	24.870299
0.750000	24.870299
0.760000	24.870299
0.770000	24.870299
0.780000	24.870299
0.790000	24.870299
0.800000	24.870299
0.810000	24.870299
0.820000	24.870299
0.830000	24.870299
0.840000	24.870299
0.850000	24.870299
0.860000	24.870299
0.870000	24.870299
0.880000	24.870299
0.890000	24.870299
0.900000	24.870299
0.910000	24.870299
0.920000	24.870299
0.930000	24.870299
0.940000	24.870299
0.950000	24.870299
0.960000	24.870299
0.970000	24.870299
0.980000	24.870299
0.990000	24.870299
1.000000	25.027363
1.010000	25.027363
1.020000	25.027363
1.030000	25.027363
1.040000	25.027363
1.050000	25.027363
1.060000	25.027363
1.070000	25.027363
1.080000	25.027363
1.090000	25.027363
1.100000	25.027363
1.110000	25.027363
1.120000	25.027363
1.130000	25.027363
1.140000	25.027363
1.150000	25.027363
1.160000	25.027363
1.170000	25.027363
1.180000	25.027363
1.190000	25.027363
1.200000	25.027363
1.210000	25.027363
1.220000	25.027363
1.230000	25.027363
1.240000	25.027363
1.250000	25.027363
1.260000	25.027363
1.270000	25.027363
1.280000	25.027363
1.290000	25.027363
1.300000	25.027363
1.310000	25.027363
1.320000	25.027363
1.330000	25.027363
1.340000	25.027363
1.350000	25.027363
1.360000	25.027363
1.370000	25.027363
1.380000	25.027363
1.390000	25.027363
1.400000	25.027363
1.410000	25.027363
1.420000	25.027363
1.430000	25.027363
1.440000	25.027363
1.450000	25.027363
1.460000	25.027363
1.470000	25.027363
1.480000	25.027363
1.490000	25.027363
1.500000	25.411545
1.510000	25.411545
1.520000	25.411545
1.530000	25.411545
1.540000	25.411545
1.550000	25.411545
1.560000	25.411545
1.570000	25.411545
1.580000	25.411545
1.590000	25.411545
1.600000	25.411545
1.610000	25.411545
1.620000	25.411545
1.630000	25.411545
1.640000	25.411545
1.650000	25.411545
1.660000	25.411545
1.670000	25.411545
1.680000	25.411545
1.690000	25.411545
1.700000	25.411545
1.710000	25.411545
1.720000	25.411545
1.730000	25.411545
1.740000	25.411545
1.750000	25.411545
1.760000	25.411545
1.770000	25.411545
1.780000	25.411545
1.790000	25.411545
1.800000	25.411545
1.810000	25.411545
1.820000	25.411545
1.830000	25.411545
1.840000	25.411545
1.850000	25.411545
1.860000	25.411545
1.870000	25.411545
1.880000	25.411545
1.890000	25.411545
1.900000	25.411545
1.910000	25.411545
1.920000	25.411545
1.930000	25.411545
1.940000	25.411545
1.950000	25.411545
1.960000	25.411545
1.970000	25.411545
1.980000	25.411545
1.990000	25.411545
2.000000	25.981874
2.010000	25.981874
2.020000	25.981874
2.030000	25.981874
2.040000	25.981874
2.050000	25.981874
2.060000	25.981874
2.070000	25.981874
2.080000	25.981874
2.090000	25.981874
2.100000	25.981874
2.110000	25.981874
2.120000	25.981874
2.130000	25.981874
2.140000	25.981874
2.150000	25.981874
2.160000	25.981874
2.170000	25.981874
2.180000	25.981874
2.190000	25.981874
2.200000	25.981874
2.210000	25.981874
2.220000	25.981874
2.230000	25.981874
2.240000	25.981874
2.250000	25.981874
2.260000	25.981874
2.270000	25.981874
2.280000	25.981874
2.290000	25.981874
2.300000	25.981874
2.310000	25.981874
2.320000	25.981874
2.330000	25.981874
2.340000	25.981874
2.350000	25.981874
2.360000	25.981874
2.370000	25.981874
2.380000	25.981874
2.390000	25.981874
2.400000	25.981874
2.410000	25.981874
2.420000	25.981874
2.430000	25.981874
2.440000	25.981874
2.450000	25.981874
2.460000	25.981874
2.470000	25.981874
2.480000	25.981874
2.490000	25.981874
2.500000	26.690670
2.510000	26.690670
2.520000	26.690670
2.530000	26.690670
2.540000	26.690670
2.550000	26.690670
2.560000	26.690670
2.570000	26.690670
2.580000	26.690670
2.590000	26.690670
2.600000	26.690670
2.610000	26.690670
2.620000	26.690670
2.630000	26.690670
2.640000	26.690670
2.650000	26.690670
2.660000	26.690670
2.670000	26.690670
2.680000	26.690670
2.690000	26.690670
2.700000	26.690670
2.710000	26.690670
2.720000	26.690670
2.730000	26.690670
2.740000	26.690670
2.750000	26.690670
2.760000	26.690670
2.770000	26.690670
2.780000	26.690670
2.790000	26.690670
2.800000	26.690670
2.810000	26.690670
2.820000	26.690670
2.830000	26.690670
2.840000	26.690670
2.850000	26.690670
2.860000	26.690670
2.870000	26.690670
2.880000	26.690670
2.890000	26.690670
2.900000	26.690670
2.910000	26.690670
2.920000	26.690670
2.930000	26.690670
2.940000	26.690670
2.950000	26.690670
2.960000	26.690670
2.970000	26.690670
2.980000	26.690670
2.990000	26.690670
3.000000	27.454237
3.010000	27.454237
3.020000	27.454237
3.030000	27.454237
3.040000	27.454237
3.050000	27.454237
3.060000	27.454237
3.070000	27.454237
3.080000	27.454237
3.090000	27.454237
3.100000	27.454237
3.110000	27.454237
3.120000	27.454237
3.130000	27.454237
3.140000	27.454237
3.150000	27.454237
3.160000	27.454237
3.170000	27.454237
3.180000	27.454237
3.190000	27.454237
3.200000	27.454237
3.210000	27.454237
3.220000	27.454237
3.230000	27.454237
3.240000	27.454237
3.250000	27.454237
3.260000	27.454237
3.270000	27.454237
3.280000	27.454237
3.290000	27.454237
3.300000	27.454237
3.310000	27.454237
3.320000	27.454237
3.330000	27.454237
3.340000	27.454237
3.350000	27.454237
3.360000	27.454237
3.370000	27.454237
3.380000	27.454237
3.390000	27.454237
3.400000	27.454237
3.410000	27.454237
3.420000	27.454237
3.430000	27.454237
3.440000	27.454237
3.450000	27.454237
3.460000	27.454237
3.470000	27.454237
3.480000	27.454237
3.490000	27.454237
3.500000	28.085339
3.510000	28.085339
3.520000	28.085339
3.530000	28.085339
3.540000	28.085339
3.550000	28.085339
3.560000	28.085339
3.570000	28.085339
3.580000	28.085339
3.590000	28.085339
3.600000	28.085339
3.610000	28.085339
3.620000	28.085339
3.630000	28.085339
3.640000	28.085339
3.650000	28.085339
3.660000	28.085339
3.670000	28.085339
3.680000	28.085339
3.690000	28.085339
3.700000	28.085339
3.710000	28.085339
3.720000	28.085339
3.730000	28.085339
3.740000	28.085339
3.750000	28.085339
3.760000	28.085339
3.770000	28.085339
3.780000	28.085339
3.790000	28.085339
3.800000	28.085339
3.810000	28.085339
3.820000	28.085339
3.830000	28.085339
3.840000	28.085339
3.850000	28.085339
3.860000	28.085339
3.870000	28.085339
3.880000	28.085339
3.890000	28.085339
3.900000	28.085339
3.910000	28.085339
3.920000	28.085339
3.930000	28.085339
3.940000	28.085339
3.950000	28.085339
3.960000	28.085339
3.970000	28.085339
3.980000	28.085339
3.990000	28.085339
4.000000	28.546060
4.010000	28.546060
4.020000	28.546060
4.030000	28.546060
4.040000	28.546060
4.050000	28.546060
4.060000	28.546060
4.070000	28.546060
4.080000	28.546060
4.090000	28.546060
4.100000	28.546060
4.110000	28.546060
4.120000	28.546060
4.130000	28.546060
4.140000	28.546060
4.150000	28.546060
4.160000	28.546060
4.170000	28.546060
4.180000	28.546060
4.190000	28.546060
4.200000	28.546060
4.210000	28.546060
4.220000	28.546060
4.230000	28.546060
4.240000	28.546060
4.250000	28.546060
4.260000	28.546060
4.270000	28.546060
4.280000	28.546060
4.290000	28.546060
4.300000	28.546060
4.310000	28.546060
4.320000	28.546060
4.330000	28.546060
4.340000	28.546060
4.350000	28.546060
4.360000	28.546060
4.370000	28.546060
4.380000	28.546060
4.390000	28.546060
4.400000	28.546060
4.410000	28.546060
4.420000	28.546060
4.430000	28.546060
4.440000	28.546060
4.450000	28.546060
4.460000	28.546060
4.470000	28.546060
4.480000	28.546060
4.490000	28.546060
4.500000	28.873186
4.510000	28.873186
4.520000	28.873186
4.530000	28.873186
4.540000	28.873186
4.550000	28.873186
4.560000	28.873186
4.570000	28.873186
4.580000	28.873186
4.590000	28.873186
4.600000	28.873186
4.610000	28.873186
4.620000	28.873186
4.630000	28.873186
4.640000	28.873186
4.650000	28.873186
4.660000	28.873186
4.670000	28.873186
4.680000	28.873186
4.690000	28.873186
4.700000	28.873186
4.710000	28.873186
4.720000	28.873186
4.730000	28.873186
4.740000	28.873186
4.750000	28.873186
4.760000	28.873186
4.770000	28.873186
4.780000	28.873186
4.790000	28.873186
4.800000	28.873186
4.810000	28.873186
4.820000	28.873186
4.830000	28.873186
4.840000	28.873186
4.850000	28.873186
4.860000	28.873186
4.870000	28.873186
4.880000	28.873186
4.890000	28.873186
4.900000	28.873186
4.910000	28.873186
4.920000	28.873186
4.930000	28.873186
4.940000	28.873186
4.950000	28.873186
4.960000	28.873186
4.970000	28.873186
4.980000	28.873186
4.990000	28.873186
5.000000	29.094487
5.010000	29.094487
5.020000	29.094487
5.030000	29.094487
5.040000	29.094487
5.050000	29.094487
5.060000	29.094487
5.070000	29.094487
5.080000	29.094487
5.090000	29.094487
5.100000	29.094487
5.110000	29.094487
5.120000	29.094487
5.130000	29.094487
5.140000	29.094487
5.150000	29.094487
5.160000	29.094487
5.170000	29.094487
5.180000	29.094487
5.190000	29.094487
5.200000	29.094487
5.210000	29.094487
5.220000	29.094487
5.230000	29.094487
5.240000	29.094487
5.250000	29.094487
5.260000	29.094487
5.270000	29.094487
5.280000	29.094487
5.290000	29.094487
5.300000	29.094487
5.310000	29.094487
5.320000	29.094487
5.330000	29.094487
5.340000	29.094487
5.350000	29.094487
5.360000	29.094487
5.370000	29.094487
5.380000	29.094487
5.390000	29.094487
5.400000	29.094487
5.410000	29.094487
5.420000	29.094487
5.430000	29.094487
5.440000	29.094487
5.450000	29.094487
5.460000	29.094487
5.470000	29.094487
5.480000	29.094487
5.490000	29.094487
5.500000	29.237257
5.510000	29.237257
5.520000	29.237257
5.530000	29.237257
5.540000	29.237257
5.550000	29.237257
5.560000	29.237257
5.570000	29.237257
5.580000	29.237257
5.590000	29.237257
5.600000	29.237257
5.610000	29.237257
5.620000	29.237257
5.630000	29.237257
5.640000	29.237257
5.650000	29.237257
5.660000	29.237257
5.670000	29.237257
5.680000	29.237257
5.690000	29.237257
5.700000	29.237257
5.710000	29.237257
5.720000	29.237257
5.730000	29.237257
5.740000	29.237257
5.750000	29.237257
5.760000	29.237257
5.770000	29.237257
5.780000	29.237257
5.790000	29.237257
5.800000	29.237257
5.810000	29.237257
5.820000	29.237257
5.830000	29.237257
5.840000	29.237257
5.850000	29.237257
5.860000	29.237257
5.870000	29.237257
5.880000	29.237257
5.890000	29.237257
5.900000	29.237257
5.910000	29.237257
5.920000	29.237257
5.930000	29.237257
5.940000	29.237257
5.950000	29.237257
5.960000	29.237257
5.970000	29.237257
5.980000	29.237257
5.990000	29.237257
6.000000	29.320605
6.010000	29.320605
6.020000	29.320605
6.030000	29.320605
6.040000	29.320605
6.050000	29.320605
6.060000	29.320605
6.070000	29.320605
6.080000	29.320605
6.090000	29.320605
6.100000	29.320605
6.110000	29.320605
6.120000	29.320605
6.130000	29.320605
6.140000	29.320605
6.150000	29.320605
6.160000	29.320605
6.170000	29.320605
6.180000	29.320605
6.190000	29.320605
6.200000	29.320605
6.210000	29.320605
6.220000	29.320605
6.230000	29.320605
6.240000	29.320605
6.250000	29.320605
6.260000	29.320605
6.270000	29.320605
6.280000	29.320605
6.290000	29.320605
6.300000	29.320605
6.310000	29.320605
6.320000	29.320605
6.330000	29.320605
6.340000	29.320605
6.350000	29.320605
6.360000	29.320605
6.370000	29.320605
6.380000	29.320605
6.390000	29.320605
6.400000	29.320605
6.410000	29.320605
6.420000	29.320605
6.430000	29.320605
6.440000	29.320605
6.450000	29.320605
6.460000	29.320605
6.470000	29.320605
6.480000	29.320605
6.490000	29.320605
6.500000	29.353967
6.510000	29.353967
6.520000	29.353967
6.530000	29.353967
6.540000	29.353967
6.550000	29.353967
6.560000	29.353967
6.570000	29.353967
6.580000	29.353967
6.590000	29.353967
6.600000	29.353967
6.610000	29.353967
6.620000	29.353967
6.630000	29.353967
6.640000	29.353967
6.650000	29.353967
6.660000	29.353967
6.670000	29.353967
6.680000	29.353967
6.690000	29.353967
6.700000	29.353967
6.710000	29.353967
6.720000	29.353967
6.730000	29.353967
6.740000	29.353967
6.750000	29.353967
6.760000	29.353967
6.770000	29.353967
6.780000	29.353967
6.790000	29.353967
6.800000	29.353967
6.810000	29.353967
6.820000	29.353967
6.830000	29.353967
6.840000	29.353967
6.850000	29.353967
6.860000	29.353967
6.870000	29.353967
6.880000	29.353967
6.890000	29.353967
6.900000	29.353967
6.910000	29.353967
6.920000	29.353967
6.930000	29.353967
6.940000	29.353967
6.950000	29.353967
6.960000	29.353967
6.970000	29.353967
6.980000	29.353967
6.990000	29.353967
7.000000	29.356205
7.010000	29.356205
7.020000	29.356205
7.030000	29.356205
7.040000	29.356205
7.050000	29.356205
7.060000	29.356205
7.070000	29.356205
7.080000	29.356205
7.090000	29.356205
7.100000	29.356205
7.110000	29.356205
7.120000	29.356205
7.130000	29.356205
7.140000	29.356205
7.150000	29.356205
7.160000	29.356205
7.170000	29.356205
7.180000	29.356205
7.190000	29.356205
7.200000	29.356205
7.210000	29.356205
7.220000	29.356205
7.230000	29.356205
7.240000	29.356205
7.250000	29.356205
7.260000	29.356205
7.270000	29.356205
7.280000	29.356205
7.290000	29.356205
7.300000	29.356205
7.310000	29.356205
7.320000	29.356205
7.330000	29.356205
7.340000	29.356205
7.350000	29.356205
7.360000	29.356205
7.370000	29.356205
7.380000	29.356205
7.390000	29.356205
7.400000	29.356205
7.410000	29.356205
7.420000	29.356205
7.430000	29.356205
7.440000	29.356205
7.450000	29.356205
7.460000	29.356205
7.470000	29.356205
7.480000	29.356205
7.490000	29.356205
7.500000	29.335121
7.510000	29.335121
7.520000	29.335121
7.530000	29.335121
7.540000	29.335121
7.550000	29.335121
7.560000	29.335121
7.570000	29.335121
7.580000	29.335121
7.590000	29.335121
7.600000	29.335121
7.610000	29.335121
7.620000	29.335121
7.630000	29.335121
7.640000	29.335121
7.650000	29.335121
7.660000	29.335121
7.670000	29.335121
7.680000	29.335121
7.690000	29.335121
7.700000	29.335121
7.710000	29.335121
7.720000	29.335121
7.730000	29.335121
7.740000	29.335121
7.750000	29.335121
7.760000	29.335121
7.770000	29.335121
7.780000	29.335121
7.790000	29.335121
7.800000	29.335121
7.810000	29.335121
7.820000	29.335121
7.830000	29.335121
7.840000	29.335121
7.850000	29.335121
7.860000	29.335121
7.870000	29.335121
7.880000	29.335121
7.890000	29.335121
7.900000	29.335121
7.910000	29.335121
7.920000	29.335121
7.930000	29.335121
7.940000	29.335121
7.950000	29.335121
7.960000	29.335121
7.970000	29.335121
7.980000	29.335121
7.990000	29.335121
8.000000	29.295161
8.010000	29.295161
8.020000	29.295161
8.030000	29.295161
8.040000	29.295161
8.050000	29.295161
8.060000	29.295161
8.070000	29.295161
8.080000	29.295161
8.090000	29.295161
8.100000	29.295161
8.110000	29.295161
8.120000	29.295161
8.130000	29.295161
8.140000	29.295161
8.150000	29.295161
8.160000	29.295161
8.170000	29.295161
8.180000	29.295161
8.190000	29.295161
8.200000	29.295161
8.210000	29.295161
8.220000	29.295161
8.230000	29.295161
8.240000	29.295161
8.250000	29.295161
8.260000	29.295161
8.270000	29.295161
8.280000	29.295161
8.290000	29.295161
8.300000	29.295161
8.310000	29.295161
8.320000	29.295161
8.330000	29.295161
8.340000	29.295161
8.350000	29.295161
8.360000	29.295161
8.370000	29.295161
8.380000	29.295161
8.390000	29.295161
8.400000	29.295161
8.410000	29.295161
8.420000	29.295161
8.430000	29.295161
8.440000	29.295161
8.450000	29.295161
8.460000	29.295161
8.470000	29.295161
8.480000	29.295161
8.490000	29.295161
8.500000	29.242753
8.510000	29.242753
8.520000	29.242753
8.530000	29.242753
8.540000	29.242753
8.550000	29.242753
8.560000	29.242753
8.570000	29.242753
8.580000	29.242753
8.590000	29.242753
8.600000	29.242753
8.610000	29.242753
8.620000	29.242753
8.630000	29.242753
8.640000	29.242753
8.650000	29.242753
8.660000	29.242753
8.670000	29.242753
8.680000	29.242753
8.690000	29.242753
8.700000	29.242753
8.710000	29.242753
8.720000	29.242753
8.730000	29.242753
8.740000	29.242753
8.750000	29.242753
8.760000	29.242753
8.770000	29.242753
8.780000	29.242753
8.790000	29.242753
8.800000	29.242753
8.810000	29.242753
8.820000	29.242753
8.830000	29.242753
8.840000	29.242753
8.850000	29.242753
8.860000	29.242753
8.870000	29.242753
8.880000	29.242753
8.890000	29.242753
8.900000	29.242753
8.910000	29.242753
8.920000	29.242753
8.930000	29.242753
8.940000	29.242753
8.950000	29.242753
8.960000	29.242753
8.970000	29.242753
8.980000	29.242753
8.990000	29.242753
9.000000	29.181133
9.010000	29.181133
9.020000	29.181133
9.030000	29.181133
9.040000	29.181133
9.050000	29.181133
9.060000	29.181133
9.070000	29.181133
9.080000	29.181133
9.090000	29.181133
9.100000	29.181133
9.110000	29.181133
9.120000	29.181133
9.130000	29.181133
9.140000	29.181133
9.150000	29.181133
9.160000	29.181133
9.170000	29.181133
9.180000	29.181133
9.190000	29.181133
9.200000	29.181133
9.210000	29.181133
9.220000	29.181133
9.230000	29.181133
9.240000	29.181133
9.250000	29.181133
9.260000	29.181133
9.270000	29.181133
9.280000	29.181133
9.290000	29.181133
9.300000	29.181133
9.310000	29.181133
9.320000	29.181133
9.330000	29.181133
9.340000	29.181133
9.350000	29.181133
9.360000	29.181133
9.370000	29.181133
9.380000	29.181133
9.390000	29.181133
9.400000	29.181133
9.410000	29.181133
9.420000	29.181133
9.430000	29.181133
9.440000	29.181133
9.450000	29.181133
9.460000	29.181133
9.470000	29.181133
9.480000	29.181133
9.490000	29.181133
9.500000	29.110998
9.510000	29.110998
9.520000	29.110998
9.530000	29.110998
9.540000	29.110998
9.550000	29.110998
9.560000	29.110998
9.570000	29.110998
9.580000	29.110998
9.590000	29.110998
9.600000	29.110998
9.610000	29.110998
9.620000	29.110998
9.630000	29.110998
9.640000	29.110998
9.650000	29.110998
9.660000	29.110998
9.670000	29.110998
9.680000	29.110998
9.690000	29.110998
9.700000	29.110998
9.710000	29.110998
9.720000	29.110998
9.730000	29.110998
9.740000	29.110998
9.750000	29.110998
9.760000	29.110998
9.770000	29.110998
9.780000	29.110998
9.790000	29.110998
9.800000	29.110998
9.810000	29.110998
9.820000	29.110998
9.830000	29.110998
9.840000	29.110998
9.850000	29.110998
9.860000	29.110998
9.870000	29.110998
9.880000	29.110998
9.890000	29.110998
9.900000	29.110998
9.910000	29.110998
9.920000	29.110998
9.930000	29.110998
9.940000	29.110998
9.950000	29.110998
9.960000	29.110998
9.970000	29.110998
9.980000	29.110998
9.990000	29.110998
10.000000	29.034223
10.010000	29.034223
10.020000	29.034223
10.030000	29.034223
10.040000	29.034223
10.050000	29.034223
10.060000	29.034223
10.070000	29.034223
10.080000	29.034223
10.090000	29.034223
10.100000	29.034223
10.110000	29.034223
10.120000	29.034223
10.130000	29.034223
10.140000	29.034223
10.150000	29.034223
10.160000	29.034223
10.170000	29.034223
10.180000	29.034223
10.190000	29.034223
10.200000	29.034223
10.210000	29.034223
10.220000	29.034223
10.230000	29.034223
10.240000	29.034223
10.250000	29.034223
10.260000	29.034223
10.270000	29.034223
10.280000	29.034223
10.290000	29.034223
10.300000	29.034223
10.310000	29.034223
10.320000	29.034223
10.330000	29.034223
10.340000	29.034223
10.350000	29.034223
10.360000	29.034223
10.370000	29.034223
10.380000	29.034223
10.390000	29.034223
10.400000	29.034223
10.410000	29.034223
10.420000	29.034223
10.430000	29.034223
10.440000	29.034223
10.450000	29.034223
10.460000	29.034223
10.470000	29.034223
10.480000	29.034223
10.490000	29.034223
10.500000	28.954586
10.510000	28.954586
10.520000	28.954586
10.530000	28.954586
10.540000	28.954586
10.550000	28.954586
10.560000	28.954586
10.570000	28.954586
10.580000	28.954586
10.590000	28.954586
10.600000	28.954586
10.610000	28.954586
10.620000	28.954586
10.630000	28.954586
10.640000	28.954586
10.650000	28.954586
10.660000	28.954586
10.670000	28.954586
10.680000	28.954586
10.690000	28.954586
10.700000	28.954586
10.710000	28.954586
10.720000	28.954586
10.730000	28.954586
10.740000	28.954586
10.750000	28.954586
10.760000	28.954586
10.770000	28.954586
10.780000	28.954586
10.790000	28.954586
10.800000	28.954586
10.810000	28.954586
10.820000	28.954586
10.830000	28.954586
10.840000	28.954586
10.850000	28.954586
10.860000	28.954586
10.870000	28.954586
10.880000	28.954586
10.890000	28.954586
10.900000	28.954586
10.910000	28.954586
10.920000	28.954586
10.930000	28.954586
10.940000	28.954586
10.950000	28.954586
10.960000	28.954586
10.970000	28.954586
10.980000	28.954586
10.990000	28.954586
11.000000	28.873707
11.010000	28.873707
11.020000	28.873707
11.030000	28.873707
11.040000	28.873707
11.050000	28.873707
11.060000	28.873707
11.070000	28.873707
11.080000	28.873707
11.090000	28.873707
11.100000	28.873707
11.110000	28.873707
11.120000	28.873707
11.130000	28.873707
11.140000	28.873707
11.150000	28.873707
11.160000	28.873707
11.170000	28.873707
11.180000	28.873707
11.190000	28.873707
11.200000	28.873707
11.210000	28.873707
11.220000	28.873707
11.230000	28.873707
11.240000	28.873707
11.250000	28.873707
11.260000	28.873707
11.270000	28.873707
11.280000	28.873707
11.290000	28.873707
11.300000	28.873707
11.310000	28.873707
11.320000	28.873707
11.330000	28.873707
11.340000	28.873707
11.350000	28.873707
11.360000	28.873707
11.370000	28.873707
11.380000	28.873707
11.390000	28.873707
11.400000	28.873707
11.410000	28.873707
11.420000	28.873707
11.430000	28.873707
11.440000	28.873707
11.450000	28.873707
11.460000	28.873707
11.470000	28.873707
11.480000	28.873707
11.490000	28.873707
11.500000	28.791092
11.510000	28.791092
11.520000	28.791092
11.530000	28.791092
11.540000	28.791092
11.550000	28.791092
11.560000	28.791092
11.570000	28.791092
11.580000	28.791092
11.590000	28.791092
11.600000	28.791092
11.610000	28.791092
11.620000	28.791092
11.630000	28.791092
11.640000	28.791092
11.650000	28.791092
11.660000	28.791092
11.670000	28.791092
11.680000	28.791092
11.690000	28.791092
11.700000	28.791092
11.710000	28.791092
11.720000	28.791092
11.730000	28.791092
11.740000	28.791092
11.750000	28.791092
11.760000	28.791092
11.770000	28.791092
11.780000	28.791092
11.790000	28.791092
11.800000	28.791092
11.810000	28.791092
11.820000	28.791092
11.830000	28.791092
11.840000	28.791092
11.850000	28.791092
11.860000	28.791092
11.870000	28.791092
11.880000	28.791092
11.890000	28.791092
11.900000	28.791092
11.910000	28.791092
11.920000	28.791092
11.930000	28.791092
11.940000	28.791092
11.950000	28.791092
11.960000	28.791092
11.970000	28.791092
11.980000	28.791092
11.990000	28.791092
12.000000	28.706949
12.010000	28.706949
12.020000	28.706949
12.030000	28.706949
12.040000	28.706949
12.050000	28.706949
12.060000	28.706949
12.070000	28.706949
12.080000	28.706949
12.090000	28.706949
12.100000	28.706949
12.110000	28.706949
12.120000	28.706949
12.130000	28.706949
12.140000	28.706949
12.150000	28.706949
12.160000	28.706949
12.170000	28.706949
12.180000	28.706949
12.190000	28.706949
12.200000	28.706949
12.210000	28.706949
12.220000	28.706949
12.230000	28.706949
12.240000	28.706949
12.250000	28.706949
12.260000	28.706949
12.270000	28.706949
12.280000	28.706949
12.290000	28.706949
12.300000	28.706949
12.310000	28.706949
12.320000	28.706949
12.330000	28.706949
12.340000	28.706949
12.350000	28.706949
12.360000	28.706949
12.370000	28.706949
12.380000	28.706949
12.390000	28.706949
12.400000	28.706949
12.410000	28.706949
12.420000	28.706949
12.430000	28.706949
12.440000	28.706949
12.450000	28.706949
12.460000	28.706949
12.470000	28.706949
12.480000	28.706949
12.490000	28.706949
12.500000	28.622478
12.510000	28.622478
12.520000	28.622478
12.530000	28.622478
12.540000	28.622478
12.550000	28.622478
12.560000	28.622478
12.570000	28.622478
12.580000	28.622478
12.590000	28.622478
12.600000	28.622478
12.610000	28.622478
12.620000	28.622478
12.630000	28.622478
12.640000	28.622478
12.650000	28.622478
12.660000	28.622478
12.670000	28.622478
12.680000	28.622478
12.690000	28.622478
12.700000	28.622478
12.710000	28.622478
12.720000	28.622478
12.730000	28.622478
12.740000	28.622478
12.750000	28.622478
12.760000	28.622478
12.770000	28.622478
12.780000	28.622478
12.790000	28.622478
12.800000	28.622478
12.810000	28.622478
12.820000	28.622478
12.830000	28.622478
12.840000	28.622478
12.850000	28.622478
12.860000	28.622478
12.870000	28.622478
12.880000	28.622478
12.890000	28.622478
12.900000	28.622478
12.910000	28.622478
12.920000	28.622478
12.930000	28.622478
12.940000	28.622478
12.950000	28.622478
12.960000	28.622478
12.970000	28.622478
12.980000	28.622478
12.990000	28.622478
13.000000	28.539594
13.010000	28.539594
13.020000	28.539594
13.030000	28.539594
13.040000	28.539594
13.050000	28.539594
13.060000	28.539594
13.070000	28.539594
13.080000	28.539594
13.090000	28.539594
13.100000	28.539594
13.110000	28.539594
13.120000	28.539594
13.130000	28.539594
13.140000	28.539594
13.150000	28.539594
13.160000	28.539594
13.170000	28.539594
13.180000	28.539594
13.190000	28.539594
13.200000	28.539594
13.210000	28.539594
13.220000	28.539594
13.230000	28.539594
13.240000	28.539594
13.250000	28.539594
13.260000	28.539594
13.270000	28.539594
13.280000	28.539594
13.290000	28.539594
13.300000	28.539594
13.310000	28.539594
13.320000	28.539594
13.330000	28.539594
13.340000	28.539594
13.350000	28.539594
13.360000	28.539594
13.370000	28.539594
13.380000	28.539594
13.390000	28.539594
13.400000	28.539594
13.410000	28.539594
13.420000	28.539594
13.430000	28.539594
13.440000	28.539594
13.450000	28.539594
13.460000	28.539594
13.470000	28.539594
13.480000	28.539594
13.490000	28.539594
13.500000	28.456625
13.510000	28.456625
13.520000	28.456625
13.530000	28.456625
13.540000	28.456625
13.550000	28.456625
13.560000	28.456625
13.570000	28.456625
13.580000	28.456625
13.590000	28.456625
13.600000	28.456625
13.610000	28.456625
13.620000	28.456625
13.630000	28.456625
13.640000	28.456625
13.650000	28.456625
13.660000	28.456625
13.670000	28.456625
13.680000	28.456625
13.690000	28.456625
13.700000	28.456625
13.710000	28.456625
13.720000	28.456625
13.730000	28.456625
13.740000	28.456625
13.750000	28.456625
13.760000	28.456625
13.770000	28.456625
13.780000	28.456625
13.790000	28.456625
13.800000	28.456625
13.810000	28.456625
13.820000	28.456625
13.830000	28.456625
13.840000	28.456625
13.850000	28.456625
13.860000	28.456625
13.870000	28.456625
13.880000	28.456625
13.890000	28.456625
13.900000	28.456625
13.910000	28.456625
13.920000	28.456625
13.930000	28.456625
13.940000	28.456625
13.950000	28.456625
13.960000	28.456625
13.970000	28.456625
13.980000	28.456625
13.990000	28.456625
14.000000	28.373806
14.010000	28.373806
14.020000	28.373806
14.030000	28.373806
14.040000	28.373806
14.050000	28.373806
14.060000	28.373806
14.070000	28.373806
14.080000	28.373806
14.090000	28.373806
14.100000	28.373806
14.110000	28.373806
14.120000	28.373806
14.130000	28.373806
14.140000	28.373806
14.150000	28.373806
14.160000	28.373806
14.170000	28.373806
14.180000	28.373806
14.190000	28.373806
14.200000	28.373806
14.210000	28.373806
14.220000	28.373806
14.230000	28.373806
14.240000	28.373806
14.250000	28.373806
14.260000	28.373806
14.270000	28.373806
14.280000	28.373806
14.290000	28.373806
14.300000	28.373806
14.310000	28.373806
14.320000	28.373806
14.330000	28.373806
14.340000	28.373806
14.350000	28.373806
14.360000	28.373806
14.370000	28.373806
14.380000	28.373806
14.390000	28.373806
14.400000	28.373806
14.410000	28.373806
14.420000	28.373806
14.430000	28.373806
14.440000	28.373806
14.450000	28.373806
14.460000	28.373806
14.470000	28.373806
14.480000	28.373806
14.490000	28.373806
14.500000	28.293935
14.510000	28.293935
14.520000	28.293935
14.530000	28.293935
14.540000	28.293935
14.550000	28.293935
14.560000	28.293935
14.570000	28.293935
14.580000	28.293935
14.590000	28.293935
14.600000	28.293935
14.610000	28.293935
14.620000	28.293935
14.630000	28.293935
14.640000	28.293935
14.650000	28.293935
14.660000	28.293935
14.670000	28.293935
14.680000	28.293935
14.690000	28.293935
14.700000	28.293935
14.710000	28.293935
14.720000	28.293935
14.730000	28.293935
14.740000	28.293935
14.750000	28.293935
14.760000	28.293935
14.770000	28.293935
14.780000	28.293935
14.790000	28.293935
14.800000	28.293935
14.810000	28.293935
14.820000	28.293935
14.830000	28.293935
14.840000	28.293935
14.850000	28.293935
14.860000	28.293935
14.870000	28.293935
14.880000	28.293935
14.890000	28.293935
14.900000	28.293935
14.910000	28.293935
14.920000	28.293935
14.930000	28.293935
14.940000	28.293935
14.950000	28.293935
14.960000	28.293935
14.970000	28.293935
14.980000	28.293935
14.990000	28.293935
15.000000	28.215957
15.010000	28.215957
15.020000	28.215957
15.030000	28.215957
15.040000	28.215957
15.050000	28.215957
15.060000	28.215957
15.070000	28.215957
15.080000	28.215957
15.090000	28.215957
15.100000	28.215957
15.110000	28.215957
15.120000	28.215957
15.130000	28.215957
15.140000	28.215957
15.150000	28.215957
15.160000	28.215957
15.170000	28.215957
15.180000	28.215957
15.190000	28.215957
15.200000	28.215957
15.210000	28.215957
15.220000	28.215957
15.230000	28.215957
15.240000	28.215957
15.250000	28.215957
15.260000	28.215957
15.270000	28.215957
15.280000	28.215957
15.290000	28.215957
15.300000	28.215957
15.310000	28.215957
15.320000	28.215957
15.330000	28.215957
15.340000	28.215957
15.350000	28.215957
15.360000	28.215957
15.370000	28.215957
15.380000	28.215957
15.390000	28.215957
15.400000	28.215957
15.410000	28.215957
15.420000	28.215957
15.430000	28.215957
15.440000	28.215957
15.450000	28.215957
15.460000	28.215957
15.470000	28.215957
15.480000	28.215957
15.490000	28.215957
15.500000	28.139538
15.510000	28.139538
15.520000	28.139538
15.530000	28.139538
15.540000	28.139538
15.550000	28.139538
15.560000	28.139538
15.570000	28.139538
15.580000	28.139538
15.590000	28.139538
15.600000	28.139538
15.610000	28.139538
15.620000	28.139538
15.630000	28.139538
15.640000	28.139538
15.650000	28.139538
15.660000	28.139538
15.670000	28.139538
15.680000	28.139538
15.690000	28.139538
15.700000	28.139538
15.710000	28.139538
15.720000	28.139538
15.730000	28.139538
15.740000	28.139538
15.750000	28.139538
15.760000	28.139538
15.770000	28.139538
15.780000	28.139538
15.790000	28.139538
15.800000	28.139538
15.810000	28.139538
15.820000	28.139538
15.830000	28.139538
15.840000	28.139538
15.850000	28.139538
15.860000	28.139538
15.870000	28.139538
15.880000	28.139538
15.890000	28.139538
15.900000	28.139538
15.910000	28.139538
15.920000	28.139538
15.930000	28.139538
15.940000	28.139538
15.950000	28.139538
15.960000	28.139538
15.970000	28.139538
15.980000	28.139538
15.990000	28.139538
16.000000	28.064897
16.010000	28.064897
16.020000	28.064897
16.030000	28.064897
16.040000	28.064897
16.050000	28.064897
16.060000	28.064897
16.070000	28.064897
16.080000	28.064897
16.090000	28.064897
16.100000	28.064897
16.110000	28.064897
16.120000	28.064897
16.130000	28.064897
16.140000	28.064897
16.150000	28.064897
16.160000	28.064897
16.170000	28.064897
16.180000	28.064897
16.190000	28.064897
16.200000	28.064897
16.210000	28.064897
16.220000	28.064897
16.230000	28.064897
16.240000	28.064897
16.250000	28.064897
16.260000	28.064897
16.270000	28.064897
16.280000	28.064897
16.290000	28.064897
16.300000	28.064897
16.310000	28.064897
16.320000	28.064897
16.330000	28.064897
16.340000	28.064897
16.350000	28.064897
16.360000	28.064897
16.370000	28.064897
16.380000	28.064897
16.390000	28.064897
16.400000	28.064897
16.410000	28.064897
16.420000	28.064897
16.430000	28.064897
16.440000	28.064897
16.450000	28.064897
16.460000	28.064897
16.470000	28.064897
16.480000	28.064897
16.490000	28.064897
16.500000	27.992641
16.510000	27.992641
16.520000	27.992641
16.530000	27.992641
16.540000	27.992641
16.550000	27.992641
16.560000	27.992641
16.570000	27.992641
16.580000	27.992641
16.590000	27.992641
16.600000	27.992641
16.610000	27.992641
16.620000	27.992641
16.630000	27.992641
16.640000	27.992641
16.650000	27.992641
16.660000	27.992641
16.670000	27.992641
16.680000	27.992641
16.690000	27.992641
16.700000	27.992641
16.710000	27.992641
16.720000	27.992641
16.730000	27.992641
16.740000	27.992641
16.750000	27.992641
16.760000	27.992641
16.770000	27.992641
16.780000	27.992641
16.790000	27.992641
16.800000	27.992641
16.810000	27.992641
16.820000	27.992641
16.830000	27.992641
16.840000	27.992641
16.850000	27.992641
16.860000	27.992641
16.870000	27.992641
16.880000	27.992641
16.890000	27.992641
16.900000	27.992641
16.910000	27.992641
16.920000	27.992641
16.930000	27.992641
16.940000	27.992641
16.950000	27.992641
16.960000	27.992641
16.970000	27.992641
16.980000	27.992641
16.990000	27.992641
17.000000	27.922822
17.010000	27.922822
17.020000	27.922822
17.030000	27.922822
17.040000	27.922822
17.050000	27.922822
17.060000	27.922822
17.070000	27.922822
17.080000	27.922822
17.090000	27.922822
17.100000	27.922822
17.110000	27.922822
17.120000	27.922822
17.130000	27.922822
17.140000	27.922822
17.150000	27.922822
17.160000	27.922822
17.170000	27.922822
17.180000	27.922822
17.190000	27.922822
17.200000	27.922822
17.210000	27.922822
17.220000	27.922822
17.230000	27.922822
17.240000	27.922822
17.250000	27.922822
17.260000	27.922822
17.270000	27.922822
17.280000	27.922822
17.290000	27.922822
17.300000	27.922822
17.310000	27.922822
17.320000	27.922822
17.330000	27.922822
17.340000	27.922822
17.350000	27.922822
17.360000	27.922822
17.370000	27.922822
17.380000	27.922822
17.390000	27.922822
17.400000	27.922822
17.410000	27.922822
17.420000	27.922822
17.430000	27.922822
17.440000	27.922822
17.450000	27.922822
17.460000	27.922822
17.470000	27.922822
17.480000	27.922822
17.490000	27.922822
