LabVIEW Measurement	
Writer_Version	2
Reader_Version	2
Separator	Tab
Decimal_Separator	.
Multi_Headings	No
X_Columns	One
Time_Pref	Absolute
Operator	biomech-dyno
Date	2023/04/27
Time	17:41:55.9338632999999876419
***End_of_Header***	
	
Channels	1	
Samples	10	
Date	2023/04/27	
Time	18:02:06.2126035999998433118	
X_Dimension	Time	
X0	0.0000000000000000E+0	
Delta_X	0.010000	
***End_of_Header***		
X_Value	Untitled	Comment
0.000000	24.719496
0.010000	24.719496
0.020000	24.719496
0.030000	24.719496
0.040000	24.719496
0.050000	24.719496
0.060000	24.719496
0.070000	24.719496
0.080000	24.719496
0.090000	24.719496
0.100000	24.719496
0.110000	24.719496
0.120000	24.719496
0.130000	24.719496
0.140000	24.719496
0.150000	24.719496
0.160000	24.719496
0.170000	24.719496
0.180000	24.719496
0.190000	24.719496
0.200000	24.719496
0.210000	24.719496
0.220000	24.719496
0.230000	24.719496
0.240000	24.719496
0.250000	24.719496
0.260000	24.719496
0.270000	24.719496
0.280000	24.719496
0.290000	24.719496
0.300000	24.719496
0.310000	24.719496
0.320000	24.719496
0.330000	24.719496
0.340000	24.719496
0.350000	24.719496
0.360000	24.719496
0.370000	24.719496
0.380000	24.719496
0.390000	24.719496
0.400000	24.719496
0.410000	24.719496
0.420000	24.719496
0.430000	24.719496
0.440000	24.719496
0.450000	24.719496
0.460000	24.719496
0.470000	24.719496
0.480000	24.719496
0.490000	24.719496
0.500000	24.714975
0.510000	24.714975
0.520000	24.714975
0.530000	24.714975
0.540000	24.714975
0.550000	24.714975
0.560000	24.714975
0.570000	24.714975
0.580000	24.714975
0.590000	24.714975
0.600000	24.714975
0.610000	24.714975
0.620000	24.714975
0.630000	24.714975
0.640000	24.714975
0.650000	24.714975
0.660000	24.714975
0.670000	24.714975
0.680000	24.714975
0.690000	24.714975
0.700000	24.714975
0.710000	24.714975
0.720000	24.714975
0.730000	24.714975
0.740000	24.714975
0.750000	24.714975
0.760000	24.714975
0.770000	24.714975
0.780000	24.714975
0.790000	24.714975
0.800000	24.714975
0.810000	24.714975
0.820000	24.714975
0.830000	24.714975
0.840000	24.714975
0.850000	24.714975
0.860000	24.714975
0.870000	24.714975
0.880000	24.714975
0.890000	24.714975
0.900000	24.714975
0.910000	24.714975
0.920000	24.714975
0.930000	24.714975
0.940000	24.714975
0.950000	24.714975
0.960000	24.714975
0.970000	24.714975
0.980000	24.714975
0.990000	24.714975
1.000000	24.717743
1.010000	24.717743
1.020000	24.717743
1.030000	24.717743
1.040000	24.717743
1.050000	24.717743
1.060000	24.717743
1.070000	24.717743
1.080000	24.717743
1.090000	24.717743
1.100000	24.717743
1.110000	24.717743
1.120000	24.717743
1.130000	24.717743
1.140000	24.717743
1.150000	24.717743
1.160000	24.717743
1.170000	24.717743
1.180000	24.717743
1.190000	24.717743
1.200000	24.717743
1.210000	24.717743
1.220000	24.717743
1.230000	24.717743
1.240000	24.717743
1.250000	24.717743
1.260000	24.717743
1.270000	24.717743
1.280000	24.717743
1.290000	24.717743
1.300000	24.717743
1.310000	24.717743
1.320000	24.717743
1.330000	24.717743
1.340000	24.717743
1.350000	24.717743
1.360000	24.717743
1.370000	24.717743
1.380000	24.717743
1.390000	24.717743
1.400000	24.717743
1.410000	24.717743
1.420000	24.717743
1.430000	24.717743
1.440000	24.717743
1.450000	24.717743
1.460000	24.717743
1.470000	24.717743
1.480000	24.717743
1.490000	24.717743
1.500000	24.730601
1.510000	24.730601
1.520000	24.730601
1.530000	24.730601
1.540000	24.730601
1.550000	24.730601
1.560000	24.730601
1.570000	24.730601
1.580000	24.730601
1.590000	24.730601
1.600000	24.730601
1.610000	24.730601
1.620000	24.730601
1.630000	24.730601
1.640000	24.730601
1.650000	24.730601
1.660000	24.730601
1.670000	24.730601
1.680000	24.730601
1.690000	24.730601
1.700000	24.730601
1.710000	24.730601
1.720000	24.730601
1.730000	24.730601
1.740000	24.730601
1.750000	24.730601
1.760000	24.730601
1.770000	24.730601
1.780000	24.730601
1.790000	24.730601
1.800000	24.730601
1.810000	24.730601
1.820000	24.730601
1.830000	24.730601
1.840000	24.730601
1.850000	24.730601
1.860000	24.730601
1.870000	24.730601
1.880000	24.730601
1.890000	24.730601
1.900000	24.730601
1.910000	24.730601
1.920000	24.730601
1.930000	24.730601
1.940000	24.730601
1.950000	24.730601
1.960000	24.730601
1.970000	24.730601
1.980000	24.730601
1.990000	24.730601
2.000000	24.753038
2.010000	24.753038
2.020000	24.753038
2.030000	24.753038
2.040000	24.753038
2.050000	24.753038
2.060000	24.753038
2.070000	24.753038
2.080000	24.753038
2.090000	24.753038
2.100000	24.753038
2.110000	24.753038
2.120000	24.753038
2.130000	24.753038
2.140000	24.753038
2.150000	24.753038
2.160000	24.753038
2.170000	24.753038
2.180000	24.753038
2.190000	24.753038
2.200000	24.753038
2.210000	24.753038
2.220000	24.753038
2.230000	24.753038
2.240000	24.753038
2.250000	24.753038
2.260000	24.753038
2.270000	24.753038
2.280000	24.753038
2.290000	24.753038
2.300000	24.753038
2.310000	24.753038
2.320000	24.753038
2.330000	24.753038
2.340000	24.753038
2.350000	24.753038
2.360000	24.753038
2.370000	24.753038
2.380000	24.753038
2.390000	24.753038
2.400000	24.753038
2.410000	24.753038
2.420000	24.753038
2.430000	24.753038
2.440000	24.753038
2.450000	24.753038
2.460000	24.753038
2.470000	24.753038
2.480000	24.753038
2.490000	24.753038
2.500000	24.780751
2.510000	24.780751
2.520000	24.780751
2.530000	24.780751
2.540000	24.780751
2.550000	24.780751
2.560000	24.780751
2.570000	24.780751
2.580000	24.780751
2.590000	24.780751
2.600000	24.780751
2.610000	24.780751
2.620000	24.780751
2.630000	24.780751
2.640000	24.780751
2.650000	24.780751
2.660000	24.780751
2.670000	24.780751
2.680000	24.780751
2.690000	24.780751
2.700000	24.780751
2.710000	24.780751
2.720000	24.780751
2.730000	24.780751
2.740000	24.780751
2.750000	24.780751
2.760000	24.780751
2.770000	24.780751
2.780000	24.780751
2.790000	24.780751
2.800000	24.780751
2.810000	24.780751
2.820000	24.780751
2.830000	24.780751
2.840000	24.780751
2.850000	24.780751
2.860000	24.780751
2.870000	24.780751
2.880000	24.780751
2.890000	24.780751
2.900000	24.780751
2.910000	24.780751
2.920000	24.780751
2.930000	24.780751
2.940000	24.780751
2.950000	24.780751
2.960000	24.780751
2.970000	24.780751
2.980000	24.780751
2.990000	24.780751
3.000000	24.812588
3.010000	24.812588
3.020000	24.812588
3.030000	24.812588
3.040000	24.812588
3.050000	24.812588
3.060000	24.812588
3.070000	24.812588
3.080000	24.812588
3.090000	24.812588
3.100000	24.812588
3.110000	24.812588
3.120000	24.812588
3.130000	24.812588
3.140000	24.812588
3.150000	24.812588
3.160000	24.812588
3.170000	24.812588
3.180000	24.812588
3.190000	24.812588
3.200000	24.812588
3.210000	24.812588
3.220000	24.812588
3.230000	24.812588
3.240000	24.812588
3.250000	24.812588
3.260000	24.812588
3.270000	24.812588
3.280000	24.812588
3.290000	24.812588
3.300000	24.812588
3.310000	24.812588
3.320000	24.812588
3.330000	24.812588
3.340000	24.812588
3.350000	24.812588
3.360000	24.812588
3.370000	24.812588
3.380000	24.812588
3.390000	24.812588
3.400000	24.812588
3.410000	24.812588
3.420000	24.812588
3.430000	24.812588
3.440000	24.812588
3.450000	24.812588
3.460000	24.812588
3.470000	24.812588
3.480000	24.812588
3.490000	24.812588
3.500000	24.840370
3.510000	24.840370
3.520000	24.840370
3.530000	24.840370
3.540000	24.840370
3.550000	24.840370
3.560000	24.840370
3.570000	24.840370
3.580000	24.840370
3.590000	24.840370
3.600000	24.840370
3.610000	24.840370
3.620000	24.840370
3.630000	24.840370
3.640000	24.840370
3.650000	24.840370
3.660000	24.840370
3.670000	24.840370
3.680000	24.840370
3.690000	24.840370
3.700000	24.840370
3.710000	24.840370
3.720000	24.840370
3.730000	24.840370
3.740000	24.840370
3.750000	24.840370
3.760000	24.840370
3.770000	24.840370
3.780000	24.840370
3.790000	24.840370
3.800000	24.840370
3.810000	24.840370
3.820000	24.840370
3.830000	24.840370
3.840000	24.840370
3.850000	24.840370
3.860000	24.840370
3.870000	24.840370
3.880000	24.840370
3.890000	24.840370
3.900000	24.840370
3.910000	24.840370
3.920000	24.840370
3.930000	24.840370
3.940000	24.840370
3.950000	24.840370
3.960000	24.840370
3.970000	24.840370
3.980000	24.840370
3.990000	24.840370
4.000000	24.861138
4.010000	24.861138
4.020000	24.861138
4.030000	24.861138
4.040000	24.861138
4.050000	24.861138
4.060000	24.861138
4.070000	24.861138
4.080000	24.861138
4.090000	24.861138
4.100000	24.861138
4.110000	24.861138
4.120000	24.861138
4.130000	24.861138
4.140000	24.861138
4.150000	24.861138
4.160000	24.861138
4.170000	24.861138
4.180000	24.861138
4.190000	24.861138
4.200000	24.861138
4.210000	24.861138
4.220000	24.861138
4.230000	24.861138
4.240000	24.861138
4.250000	24.861138
4.260000	24.861138
4.270000	24.861138
4.280000	24.861138
4.290000	24.861138
4.300000	24.861138
4.310000	24.861138
4.320000	24.861138
4.330000	24.861138
4.340000	24.861138
4.350000	24.861138
4.360000	24.861138
4.370000	24.861138
4.380000	24.861138
4.390000	24.861138
4.400000	24.861138
4.410000	24.861138
4.420000	24.861138
4.430000	24.861138
4.440000	24.861138
4.450000	24.861138
4.460000	24.861138
4.470000	24.861138
4.480000	24.861138
4.490000	24.861138
4.500000	24.873413
4.510000	24.873413
4.520000	24.873413
4.530000	24.873413
4.540000	24.873413
4.550000	24.873413
4.560000	24.873413
4.570000	24.873413
4.580000	24.873413
4.590000	24.873413
4.600000	24.873413
4.610000	24.873413
4.620000	24.873413
4.630000	24.873413
4.640000	24.873413
4.650000	24.873413
4.660000	24.873413
4.670000	24.873413
4.680000	24.873413
4.690000	24.873413
4.700000	24.873413
4.710000	24.873413
4.720000	24.873413
4.730000	24.873413
4.740000	24.873413
4.750000	24.873413
4.760000	24.873413
4.770000	24.873413
4.780000	24.873413
4.790000	24.873413
4.800000	24.873413
4.810000	24.873413
4.820000	24.873413
4.830000	24.873413
4.840000	24.873413
4.850000	24.873413
4.860000	24.873413
4.870000	24.873413
4.880000	24.873413
4.890000	24.873413
4.900000	24.873413
4.910000	24.873413
4.920000	24.873413
4.930000	24.873413
4.940000	24.873413
4.950000	24.873413
4.960000	24.873413
4.970000	24.873413
4.980000	24.873413
4.990000	24.873413
5.000000	24.879787
5.010000	24.879787
5.020000	24.879787
5.030000	24.879787
5.040000	24.879787
5.050000	24.879787
5.060000	24.879787
5.070000	24.879787
5.080000	24.879787
5.090000	24.879787
5.100000	24.879787
5.110000	24.879787
5.120000	24.879787
5.130000	24.879787
5.140000	24.879787
5.150000	24.879787
5.160000	24.879787
5.170000	24.879787
5.180000	24.879787
5.190000	24.879787
5.200000	24.879787
5.210000	24.879787
5.220000	24.879787
5.230000	24.879787
5.240000	24.879787
5.250000	24.879787
5.260000	24.879787
5.270000	24.879787
5.280000	24.879787
5.290000	24.879787
5.300000	24.879787
5.310000	24.879787
5.320000	24.879787
5.330000	24.879787
5.340000	24.879787
5.350000	24.879787
5.360000	24.879787
5.370000	24.879787
5.380000	24.879787
5.390000	24.879787
5.400000	24.879787
5.410000	24.879787
5.420000	24.879787
5.430000	24.879787
5.440000	24.879787
5.450000	24.879787
5.460000	24.879787
5.470000	24.879787
5.480000	24.879787
5.490000	24.879787
5.500000	24.883436
5.510000	24.883436
5.520000	24.883436
5.530000	24.883436
5.540000	24.883436
5.550000	24.883436
5.560000	24.883436
5.570000	24.883436
5.580000	24.883436
5.590000	24.883436
5.600000	24.883436
5.610000	24.883436
5.620000	24.883436
5.630000	24.883436
5.640000	24.883436
5.650000	24.883436
5.660000	24.883436
5.670000	24.883436
5.680000	24.883436
5.690000	24.883436
5.700000	24.883436
5.710000	24.883436
5.720000	24.883436
5.730000	24.883436
5.740000	24.883436
5.750000	24.883436
5.760000	24.883436
5.770000	24.883436
5.780000	24.883436
5.790000	24.883436
5.800000	24.883436
5.810000	24.883436
5.820000	24.883436
5.830000	24.883436
5.840000	24.883436
5.850000	24.883436
5.860000	24.883436
5.870000	24.883436
5.880000	24.883436
5.890000	24.883436
5.900000	24.883436
5.910000	24.883436
5.920000	24.883436
5.930000	24.883436
5.940000	24.883436
5.950000	24.883436
5.960000	24.883436
5.970000	24.883436
5.980000	24.883436
5.990000	24.883436
6.000000	24.885849
6.010000	24.885849
6.020000	24.885849
6.030000	24.885849
6.040000	24.885849
6.050000	24.885849
6.060000	24.885849
6.070000	24.885849
6.080000	24.885849
6.090000	24.885849
6.100000	24.885849
6.110000	24.885849
6.120000	24.885849
6.130000	24.885849
6.140000	24.885849
6.150000	24.885849
6.160000	24.885849
6.170000	24.885849
6.180000	24.885849
6.190000	24.885849
6.200000	24.885849
6.210000	24.885849
6.220000	24.885849
6.230000	24.885849
6.240000	24.885849
6.250000	24.885849
6.260000	24.885849
6.270000	24.885849
6.280000	24.885849
6.290000	24.885849
6.300000	24.885849
6.310000	24.885849
6.320000	24.885849
6.330000	24.885849
6.340000	24.885849
6.350000	24.885849
6.360000	24.885849
6.370000	24.885849
6.380000	24.885849
6.390000	24.885849
6.400000	24.885849
6.410000	24.885849
6.420000	24.885849
6.430000	24.885849
6.440000	24.885849
6.450000	24.885849
6.460000	24.885849
6.470000	24.885849
6.480000	24.885849
6.490000	24.885849
6.500000	24.887682
6.510000	24.887682
6.520000	24.887682
6.530000	24.887682
6.540000	24.887682
6.550000	24.887682
6.560000	24.887682
6.570000	24.887682
6.580000	24.887682
6.590000	24.887682
6.600000	24.887682
6.610000	24.887682
6.620000	24.887682
6.630000	24.887682
6.640000	24.887682
6.650000	24.887682
6.660000	24.887682
6.670000	24.887682
6.680000	24.887682
6.690000	24.887682
6.700000	24.887682
6.710000	24.887682
6.720000	24.887682
6.730000	24.887682
6.740000	24.887682
6.750000	24.887682
6.760000	24.887682
6.770000	24.887682
6.780000	24.887682
6.790000	24.887682
6.800000	24.887682
6.810000	24.887682
6.820000	24.887682
6.830000	24.887682
6.840000	24.887682
6.850000	24.887682
6.860000	24.887682
6.870000	24.887682
6.880000	24.887682
6.890000	24.887682
6.900000	24.887682
6.910000	24.887682
6.920000	24.887682
6.930000	24.887682
6.940000	24.887682
6.950000	24.887682
6.960000	24.887682
6.970000	24.887682
6.980000	24.887682
6.990000	24.887682
7.000000	24.885693
7.010000	24.885693
7.020000	24.885693
7.030000	24.885693
7.040000	24.885693
7.050000	24.885693
7.060000	24.885693
7.070000	24.885693
7.080000	24.885693
7.090000	24.885693
7.100000	24.885693
7.110000	24.885693
7.120000	24.885693
7.130000	24.885693
7.140000	24.885693
7.150000	24.885693
7.160000	24.885693
7.170000	24.885693
7.180000	24.885693
7.190000	24.885693
7.200000	24.885693
7.210000	24.885693
7.220000	24.885693
7.230000	24.885693
7.240000	24.885693
7.250000	24.885693
7.260000	24.885693
7.270000	24.885693
7.280000	24.885693
7.290000	24.885693
7.300000	24.885693
7.310000	24.885693
7.320000	24.885693
7.330000	24.885693
7.340000	24.885693
7.350000	24.885693
7.360000	24.885693
7.370000	24.885693
7.380000	24.885693
7.390000	24.885693
7.400000	24.885693
7.410000	24.885693
7.420000	24.885693
7.430000	24.885693
7.440000	24.885693
7.450000	24.885693
7.460000	24.885693
7.470000	24.885693
7.480000	24.885693
7.490000	24.885693
7.500000	24.883799
7.510000	24.883799
7.520000	24.883799
7.530000	24.883799
7.540000	24.883799
7.550000	24.883799
7.560000	24.883799
7.570000	24.883799
7.580000	24.883799
7.590000	24.883799
7.600000	24.883799
7.610000	24.883799
7.620000	24.883799
7.630000	24.883799
7.640000	24.883799
7.650000	24.883799
7.660000	24.883799
7.670000	24.883799
7.680000	24.883799
7.690000	24.883799
7.700000	24.883799
7.710000	24.883799
7.720000	24.883799
7.730000	24.883799
7.740000	24.883799
7.750000	24.883799
7.760000	24.883799
7.770000	24.883799
7.780000	24.883799
7.790000	24.883799
7.800000	24.883799
7.810000	24.883799
7.820000	24.883799
7.830000	24.883799
7.840000	24.883799
7.850000	24.883799
7.860000	24.883799
7.870000	24.883799
7.880000	24.883799
7.890000	24.883799
7.900000	24.883799
7.910000	24.883799
7.920000	24.883799
7.930000	24.883799
7.940000	24.883799
7.950000	24.883799
7.960000	24.883799
7.970000	24.883799
7.980000	24.883799
7.990000	24.883799
8.000000	24.880816
8.010000	24.880816
8.020000	24.880816
8.030000	24.880816
8.040000	24.880816
8.050000	24.880816
8.060000	24.880816
8.070000	24.880816
8.080000	24.880816
8.090000	24.880816
8.100000	24.880816
8.110000	24.880816
8.120000	24.880816
8.130000	24.880816
8.140000	24.880816
8.150000	24.880816
8.160000	24.880816
8.170000	24.880816
8.180000	24.880816
8.190000	24.880816
8.200000	24.880816
8.210000	24.880816
8.220000	24.880816
8.230000	24.880816
8.240000	24.880816
8.250000	24.880816
8.260000	24.880816
8.270000	24.880816
8.280000	24.880816
8.290000	24.880816
8.300000	24.880816
8.310000	24.880816
8.320000	24.880816
8.330000	24.880816
8.340000	24.880816
8.350000	24.880816
8.360000	24.880816
8.370000	24.880816
8.380000	24.880816
8.390000	24.880816
8.400000	24.880816
8.410000	24.880816
8.420000	24.880816
8.430000	24.880816
8.440000	24.880816
8.450000	24.880816
8.460000	24.880816
8.470000	24.880816
8.480000	24.880816
8.490000	24.880816
8.500000	24.876033
8.510000	24.876033
8.520000	24.876033
8.530000	24.876033
8.540000	24.876033
8.550000	24.876033
8.560000	24.876033
8.570000	24.876033
8.580000	24.876033
8.590000	24.876033
8.600000	24.876033
8.610000	24.876033
8.620000	24.876033
8.630000	24.876033
8.640000	24.876033
8.650000	24.876033
8.660000	24.876033
8.670000	24.876033
8.680000	24.876033
8.690000	24.876033
8.700000	24.876033
8.710000	24.876033
8.720000	24.876033
8.730000	24.876033
8.740000	24.876033
8.750000	24.876033
8.760000	24.876033
8.770000	24.876033
8.780000	24.876033
8.790000	24.876033
8.800000	24.876033
8.810000	24.876033
8.820000	24.876033
8.830000	24.876033
8.840000	24.876033
8.850000	24.876033
8.860000	24.876033
8.870000	24.876033
8.880000	24.876033
8.890000	24.876033
8.900000	24.876033
8.910000	24.876033
8.920000	24.876033
8.930000	24.876033
8.940000	24.876033
8.950000	24.876033
8.960000	24.876033
8.970000	24.876033
8.980000	24.876033
8.990000	24.876033
9.000000	24.874295
9.010000	24.874295
9.020000	24.874295
9.030000	24.874295
9.040000	24.874295
9.050000	24.874295
9.060000	24.874295
9.070000	24.874295
9.080000	24.874295
9.090000	24.874295
9.100000	24.874295
9.110000	24.874295
9.120000	24.874295
9.130000	24.874295
9.140000	24.874295
9.150000	24.874295
9.160000	24.874295
9.170000	24.874295
9.180000	24.874295
9.190000	24.874295
9.200000	24.874295
9.210000	24.874295
9.220000	24.874295
9.230000	24.874295
9.240000	24.874295
9.250000	24.874295
9.260000	24.874295
9.270000	24.874295
9.280000	24.874295
9.290000	24.874295
9.300000	24.874295
9.310000	24.874295
9.320000	24.874295
9.330000	24.874295
9.340000	24.874295
9.350000	24.874295
9.360000	24.874295
9.370000	24.874295
9.380000	24.874295
9.390000	24.874295
9.400000	24.874295
9.410000	24.874295
9.420000	24.874295
9.430000	24.874295
9.440000	24.874295
9.450000	24.874295
9.460000	24.874295
9.470000	24.874295
9.480000	24.874295
9.490000	24.874295
9.500000	24.871129
9.510000	24.871129
9.520000	24.871129
9.530000	24.871129
9.540000	24.871129
9.550000	24.871129
9.560000	24.871129
9.570000	24.871129
9.580000	24.871129
9.590000	24.871129
9.600000	24.871129
9.610000	24.871129
9.620000	24.871129
9.630000	24.871129
9.640000	24.871129
9.650000	24.871129
9.660000	24.871129
9.670000	24.871129
9.680000	24.871129
9.690000	24.871129
9.700000	24.871129
9.710000	24.871129
9.720000	24.871129
9.730000	24.871129
9.740000	24.871129
9.750000	24.871129
9.760000	24.871129
9.770000	24.871129
9.780000	24.871129
9.790000	24.871129
9.800000	24.871129
9.810000	24.871129
9.820000	24.871129
9.830000	24.871129
9.840000	24.871129
9.850000	24.871129
9.860000	24.871129
9.870000	24.871129
9.880000	24.871129
9.890000	24.871129
9.900000	24.871129
9.910000	24.871129
9.920000	24.871129
9.930000	24.871129
9.940000	24.871129
9.950000	24.871129
9.960000	24.871129
9.970000	24.871129
9.980000	24.871129
9.990000	24.871129
10.000000	24.867730
10.010000	24.867730
10.020000	24.867730
10.030000	24.867730
10.040000	24.867730
10.050000	24.867730
10.060000	24.867730
10.070000	24.867730
10.080000	24.867730
10.090000	24.867730
10.100000	24.867730
10.110000	24.867730
10.120000	24.867730
10.130000	24.867730
10.140000	24.867730
10.150000	24.867730
10.160000	24.867730
10.170000	24.867730
10.180000	24.867730
10.190000	24.867730
10.200000	24.867730
10.210000	24.867730
10.220000	24.867730
10.230000	24.867730
10.240000	24.867730
10.250000	24.867730
10.260000	24.867730
10.270000	24.867730
10.280000	24.867730
10.290000	24.867730
10.300000	24.867730
10.310000	24.867730
10.320000	24.867730
10.330000	24.867730
10.340000	24.867730
10.350000	24.867730
10.360000	24.867730
10.370000	24.867730
10.380000	24.867730
10.390000	24.867730
10.400000	24.867730
10.410000	24.867730
10.420000	24.867730
10.430000	24.867730
10.440000	24.867730
10.450000	24.867730
10.460000	24.867730
10.470000	24.867730
10.480000	24.867730
10.490000	24.867730
10.500000	24.864823
10.510000	24.864823
10.520000	24.864823
10.530000	24.864823
10.540000	24.864823
10.550000	24.864823
10.560000	24.864823
10.570000	24.864823
10.580000	24.864823
10.590000	24.864823
10.600000	24.864823
10.610000	24.864823
10.620000	24.864823
10.630000	24.864823
10.640000	24.864823
10.650000	24.864823
10.660000	24.864823
10.670000	24.864823
10.680000	24.864823
10.690000	24.864823
10.700000	24.864823
10.710000	24.864823
10.720000	24.864823
10.730000	24.864823
10.740000	24.864823
10.750000	24.864823
10.760000	24.864823
10.770000	24.864823
10.780000	24.864823
10.790000	24.864823
10.800000	24.864823
10.810000	24.864823
10.820000	24.864823
10.830000	24.864823
10.840000	24.864823
10.850000	24.864823
10.860000	24.864823
10.870000	24.864823
10.880000	24.864823
10.890000	24.864823
10.900000	24.864823
10.910000	24.864823
10.920000	24.864823
10.930000	24.864823
10.940000	24.864823
10.950000	24.864823
10.960000	24.864823
10.970000	24.864823
10.980000	24.864823
10.990000	24.864823
11.000000	24.861856
11.010000	24.861856
11.020000	24.861856
11.030000	24.861856
11.040000	24.861856
11.050000	24.861856
11.060000	24.861856
11.070000	24.861856
11.080000	24.861856
11.090000	24.861856
11.100000	24.861856
11.110000	24.861856
11.120000	24.861856
11.130000	24.861856
11.140000	24.861856
11.150000	24.861856
11.160000	24.861856
11.170000	24.861856
11.180000	24.861856
11.190000	24.861856
11.200000	24.861856
11.210000	24.861856
11.220000	24.861856
11.230000	24.861856
11.240000	24.861856
11.250000	24.861856
11.260000	24.861856
11.270000	24.861856
11.280000	24.861856
11.290000	24.861856
11.300000	24.861856
11.310000	24.861856
11.320000	24.861856
11.330000	24.861856
11.340000	24.861856
11.350000	24.861856
11.360000	24.861856
11.370000	24.861856
11.380000	24.861856
11.390000	24.861856
11.400000	24.861856
11.410000	24.861856
11.420000	24.861856
11.430000	24.861856
11.440000	24.861856
11.450000	24.861856
11.460000	24.861856
11.470000	24.861856
11.480000	24.861856
11.490000	24.861856
11.500000	24.858153
11.510000	24.858153
11.520000	24.858153
11.530000	24.858153
11.540000	24.858153
11.550000	24.858153
11.560000	24.858153
11.570000	24.858153
11.580000	24.858153
11.590000	24.858153
11.600000	24.858153
11.610000	24.858153
11.620000	24.858153
11.630000	24.858153
11.640000	24.858153
11.650000	24.858153
11.660000	24.858153
11.670000	24.858153
11.680000	24.858153
11.690000	24.858153
11.700000	24.858153
11.710000	24.858153
11.720000	24.858153
11.730000	24.858153
11.740000	24.858153
11.750000	24.858153
11.760000	24.858153
11.770000	24.858153
11.780000	24.858153
11.790000	24.858153
11.800000	24.858153
11.810000	24.858153
11.820000	24.858153
11.830000	24.858153
11.840000	24.858153
11.850000	24.858153
11.860000	24.858153
11.870000	24.858153
11.880000	24.858153
11.890000	24.858153
11.900000	24.858153
11.910000	24.858153
11.920000	24.858153
11.930000	24.858153
11.940000	24.858153
11.950000	24.858153
11.960000	24.858153
11.970000	24.858153
11.980000	24.858153
11.990000	24.858153
12.000000	24.854346
12.010000	24.854346
12.020000	24.854346
12.030000	24.854346
12.040000	24.854346
12.050000	24.854346
12.060000	24.854346
12.070000	24.854346
12.080000	24.854346
12.090000	24.854346
12.100000	24.854346
12.110000	24.854346
12.120000	24.854346
12.130000	24.854346
12.140000	24.854346
12.150000	24.854346
12.160000	24.854346
12.170000	24.854346
12.180000	24.854346
12.190000	24.854346
12.200000	24.854346
12.210000	24.854346
12.220000	24.854346
12.230000	24.854346
12.240000	24.854346
12.250000	24.854346
12.260000	24.854346
12.270000	24.854346
12.280000	24.854346
12.290000	24.854346
12.300000	24.854346
12.310000	24.854346
12.320000	24.854346
12.330000	24.854346
12.340000	24.854346
12.350000	24.854346
12.360000	24.854346
12.370000	24.854346
12.380000	24.854346
12.390000	24.854346
12.400000	24.854346
12.410000	24.854346
12.420000	24.854346
12.430000	24.854346
12.440000	24.854346
12.450000	24.854346
12.460000	24.854346
12.470000	24.854346
12.480000	24.854346
12.490000	24.854346
12.500000	24.850054
12.510000	24.850054
12.520000	24.850054
12.530000	24.850054
12.540000	24.850054
12.550000	24.850054
12.560000	24.850054
12.570000	24.850054
12.580000	24.850054
12.590000	24.850054
12.600000	24.850054
12.610000	24.850054
12.620000	24.850054
12.630000	24.850054
12.640000	24.850054
12.650000	24.850054
12.660000	24.850054
12.670000	24.850054
12.680000	24.850054
12.690000	24.850054
12.700000	24.850054
12.710000	24.850054
12.720000	24.850054
12.730000	24.850054
12.740000	24.850054
12.750000	24.850054
12.760000	24.850054
12.770000	24.850054
12.780000	24.850054
12.790000	24.850054
12.800000	24.850054
12.810000	24.850054
12.820000	24.850054
12.830000	24.850054
12.840000	24.850054
12.850000	24.850054
12.860000	24.850054
12.870000	24.850054
12.880000	24.850054
12.890000	24.850054
12.900000	24.850054
12.910000	24.850054
12.920000	24.850054
12.930000	24.850054
12.940000	24.850054
12.950000	24.850054
12.960000	24.850054
12.970000	24.850054
12.980000	24.850054
12.990000	24.850054
13.000000	24.845355
13.010000	24.845355
13.020000	24.845355
13.030000	24.845355
13.040000	24.845355
13.050000	24.845355
13.060000	24.845355
13.070000	24.845355
13.080000	24.845355
13.090000	24.845355
13.100000	24.845355
13.110000	24.845355
13.120000	24.845355
13.130000	24.845355
13.140000	24.845355
13.150000	24.845355
13.160000	24.845355
13.170000	24.845355
13.180000	24.845355
13.190000	24.845355
13.200000	24.845355
13.210000	24.845355
13.220000	24.845355
13.230000	24.845355
13.240000	24.845355
13.250000	24.845355
13.260000	24.845355
13.270000	24.845355
13.280000	24.845355
13.290000	24.845355
13.300000	24.845355
13.310000	24.845355
13.320000	24.845355
13.330000	24.845355
13.340000	24.845355
13.350000	24.845355
13.360000	24.845355
13.370000	24.845355
13.380000	24.845355
13.390000	24.845355
13.400000	24.845355
13.410000	24.845355
13.420000	24.845355
13.430000	24.845355
13.440000	24.845355
13.450000	24.845355
13.460000	24.845355
13.470000	24.845355
13.480000	24.845355
13.490000	24.845355
13.500000	24.840336
13.510000	24.840336
13.520000	24.840336
13.530000	24.840336
13.540000	24.840336
13.550000	24.840336
13.560000	24.840336
13.570000	24.840336
13.580000	24.840336
13.590000	24.840336
13.600000	24.840336
13.610000	24.840336
13.620000	24.840336
13.630000	24.840336
13.640000	24.840336
13.650000	24.840336
13.660000	24.840336
13.670000	24.840336
13.680000	24.840336
13.690000	24.840336
13.700000	24.840336
13.710000	24.840336
13.720000	24.840336
13.730000	24.840336
13.740000	24.840336
13.750000	24.840336
13.760000	24.840336
13.770000	24.840336
13.780000	24.840336
13.790000	24.840336
13.800000	24.840336
13.810000	24.840336
13.820000	24.840336
13.830000	24.840336
13.840000	24.840336
13.850000	24.840336
13.860000	24.840336
13.870000	24.840336
13.880000	24.840336
13.890000	24.840336
13.900000	24.840336
13.910000	24.840336
13.920000	24.840336
13.930000	24.840336
13.940000	24.840336
13.950000	24.840336
13.960000	24.840336
13.970000	24.840336
13.980000	24.840336
13.990000	24.840336
14.000000	24.834978
14.010000	24.834978
14.020000	24.834978
14.030000	24.834978
14.040000	24.834978
14.050000	24.834978
14.060000	24.834978
14.070000	24.834978
14.080000	24.834978
14.090000	24.834978
14.100000	24.834978
14.110000	24.834978
14.120000	24.834978
14.130000	24.834978
14.140000	24.834978
14.150000	24.834978
14.160000	24.834978
14.170000	24.834978
14.180000	24.834978
14.190000	24.834978
14.200000	24.834978
14.210000	24.834978
14.220000	24.834978
14.230000	24.834978
14.240000	24.834978
14.250000	24.834978
14.260000	24.834978
14.270000	24.834978
14.280000	24.834978
14.290000	24.834978
14.300000	24.834978
14.310000	24.834978
14.320000	24.834978
14.330000	24.834978
14.340000	24.834978
14.350000	24.834978
14.360000	24.834978
14.370000	24.834978
14.380000	24.834978
14.390000	24.834978
14.400000	24.834978
14.410000	24.834978
14.420000	24.834978
14.430000	24.834978
14.440000	24.834978
14.450000	24.834978
14.460000	24.834978
14.470000	24.834978
14.480000	24.834978
14.490000	24.834978
14.500000	24.829775
14.510000	24.829775
14.520000	24.829775
14.530000	24.829775
14.540000	24.829775
14.550000	24.829775
14.560000	24.829775
14.570000	24.829775
14.580000	24.829775
14.590000	24.829775
14.600000	24.829775
14.610000	24.829775
14.620000	24.829775
14.630000	24.829775
14.640000	24.829775
14.650000	24.829775
14.660000	24.829775
14.670000	24.829775
14.680000	24.829775
14.690000	24.829775
14.700000	24.829775
14.710000	24.829775
14.720000	24.829775
14.730000	24.829775
14.740000	24.829775
14.750000	24.829775
14.760000	24.829775
14.770000	24.829775
14.780000	24.829775
14.790000	24.829775
14.800000	24.829775
14.810000	24.829775
14.820000	24.829775
14.830000	24.829775
14.840000	24.829775
14.850000	24.829775
14.860000	24.829775
14.870000	24.829775
14.880000	24.829775
14.890000	24.829775
14.900000	24.829775
14.910000	24.829775
14.920000	24.829775
14.930000	24.829775
14.940000	24.829775
14.950000	24.829775
14.960000	24.829775
14.970000	24.829775
14.980000	24.829775
14.990000	24.829775
15.000000	24.824356
15.010000	24.824356
15.020000	24.824356
15.030000	24.824356
15.040000	24.824356
15.050000	24.824356
15.060000	24.824356
15.070000	24.824356
15.080000	24.824356
15.090000	24.824356
15.100000	24.824356
15.110000	24.824356
15.120000	24.824356
15.130000	24.824356
15.140000	24.824356
15.150000	24.824356
15.160000	24.824356
15.170000	24.824356
15.180000	24.824356
15.190000	24.824356
15.200000	24.824356
15.210000	24.824356
15.220000	24.824356
15.230000	24.824356
15.240000	24.824356
15.250000	24.824356
15.260000	24.824356
15.270000	24.824356
15.280000	24.824356
15.290000	24.824356
15.300000	24.824356
15.310000	24.824356
15.320000	24.824356
15.330000	24.824356
15.340000	24.824356
15.350000	24.824356
15.360000	24.824356
15.370000	24.824356
15.380000	24.824356
15.390000	24.824356
15.400000	24.824356
15.410000	24.824356
15.420000	24.824356
15.430000	24.824356
15.440000	24.824356
15.450000	24.824356
15.460000	24.824356
15.470000	24.824356
15.480000	24.824356
15.490000	24.824356
15.500000	24.818935
15.510000	24.818935
15.520000	24.818935
15.530000	24.818935
15.540000	24.818935
15.550000	24.818935
15.560000	24.818935
15.570000	24.818935
15.580000	24.818935
15.590000	24.818935
15.600000	24.818935
15.610000	24.818935
15.620000	24.818935
15.630000	24.818935
15.640000	24.818935
15.650000	24.818935
15.660000	24.818935
15.670000	24.818935
15.680000	24.818935
15.690000	24.818935
15.700000	24.818935
15.710000	24.818935
15.720000	24.818935
15.730000	24.818935
15.740000	24.818935
15.750000	24.818935
15.760000	24.818935
15.770000	24.818935
15.780000	24.818935
15.790000	24.818935
15.800000	24.818935
15.810000	24.818935
15.820000	24.818935
15.830000	24.818935
15.840000	24.818935
15.850000	24.818935
15.860000	24.818935
15.870000	24.818935
15.880000	24.818935
15.890000	24.818935
15.900000	24.818935
15.910000	24.818935
15.920000	24.818935
15.930000	24.818935
15.940000	24.818935
15.950000	24.818935
15.960000	24.818935
15.970000	24.818935
15.980000	24.818935
15.990000	24.818935
16.000000	24.813541
16.010000	24.813541
16.020000	24.813541
16.030000	24.813541
16.040000	24.813541
16.050000	24.813541
16.060000	24.813541
16.070000	24.813541
16.080000	24.813541
16.090000	24.813541
16.100000	24.813541
16.110000	24.813541
16.120000	24.813541
16.130000	24.813541
16.140000	24.813541
16.150000	24.813541
16.160000	24.813541
16.170000	24.813541
16.180000	24.813541
16.190000	24.813541
16.200000	24.813541
16.210000	24.813541
16.220000	24.813541
16.230000	24.813541
16.240000	24.813541
16.250000	24.813541
16.260000	24.813541
16.270000	24.813541
16.280000	24.813541
16.290000	24.813541
16.300000	24.813541
16.310000	24.813541
16.320000	24.813541
16.330000	24.813541
16.340000	24.813541
16.350000	24.813541
16.360000	24.813541
16.370000	24.813541
16.380000	24.813541
16.390000	24.813541
16.400000	24.813541
16.410000	24.813541
16.420000	24.813541
16.430000	24.813541
16.440000	24.813541
16.450000	24.813541
16.460000	24.813541
16.470000	24.813541
16.480000	24.813541
16.490000	24.813541
16.500000	24.807833
16.510000	24.807833
16.520000	24.807833
16.530000	24.807833
16.540000	24.807833
16.550000	24.807833
16.560000	24.807833
16.570000	24.807833
16.580000	24.807833
16.590000	24.807833
16.600000	24.807833
16.610000	24.807833
16.620000	24.807833
16.630000	24.807833
16.640000	24.807833
16.650000	24.807833
16.660000	24.807833
16.670000	24.807833
16.680000	24.807833
16.690000	24.807833
16.700000	24.807833
16.710000	24.807833
16.720000	24.807833
16.730000	24.807833
16.740000	24.807833
16.750000	24.807833
16.760000	24.807833
16.770000	24.807833
16.780000	24.807833
16.790000	24.807833
16.800000	24.807833
16.810000	24.807833
16.820000	24.807833
16.830000	24.807833
16.840000	24.807833
16.850000	24.807833
16.860000	24.807833
16.870000	24.807833
16.880000	24.807833
16.890000	24.807833
16.900000	24.807833
16.910000	24.807833
16.920000	24.807833
16.930000	24.807833
16.940000	24.807833
16.950000	24.807833
16.960000	24.807833
16.970000	24.807833
16.980000	24.807833
16.990000	24.807833
17.000000	24.802108
17.010000	24.802108
17.020000	24.802108
17.030000	24.802108
17.040000	24.802108
17.050000	24.802108
17.060000	24.802108
17.070000	24.802108
17.080000	24.802108
17.090000	24.802108
17.100000	24.802108
17.110000	24.802108
17.120000	24.802108
17.130000	24.802108
17.140000	24.802108
17.150000	24.802108
17.160000	24.802108
17.170000	24.802108
17.180000	24.802108
17.190000	24.802108
17.200000	24.802108
17.210000	24.802108
17.220000	24.802108
17.230000	24.802108
17.240000	24.802108
17.250000	24.802108
17.260000	24.802108
17.270000	24.802108
17.280000	24.802108
17.290000	24.802108
17.300000	24.802108
17.310000	24.802108
17.320000	24.802108
17.330000	24.802108
17.340000	24.802108
17.350000	24.802108
17.360000	24.802108
17.370000	24.802108
17.380000	24.802108
17.390000	24.802108
17.400000	24.802108
17.410000	24.802108
17.420000	24.802108
17.430000	24.802108
17.440000	24.802108
17.450000	24.802108
17.460000	24.802108
17.470000	24.802108
17.480000	24.802108
17.490000	24.802108
