LabVIEW Measurement	
Writer_Version	2
Reader_Version	2
Separator	Tab
Decimal_Separator	.
Multi_Headings	No
X_Columns	One
Time_Pref	Absolute
Operator	biomech-dyno
Date	2023/04/27
Time	17:41:55.9338632999999876419
***End_of_Header***	
	
Channels	1	
Samples	10	
Date	2023/04/27	
Time	18:02:38.6173809999996337204	
X_Dimension	Time	
X0	0.0000000000000000E+0	
Delta_X	0.010000	
***End_of_Header***		
X_Value	Untitled	Comment
0.000000	24.568624
0.010000	24.568624
0.020000	24.568624
0.030000	24.568624
0.040000	24.568624
0.050000	24.568624
0.060000	24.568624
0.070000	24.568624
0.080000	24.568624
0.090000	24.568624
0.100000	24.568624
0.110000	24.568624
0.120000	24.568624
0.130000	24.568624
0.140000	24.568624
0.150000	24.568624
0.160000	24.568624
0.170000	24.568624
0.180000	24.568624
0.190000	24.568624
0.200000	24.568624
0.210000	24.568624
0.220000	24.568624
0.230000	24.568624
0.240000	24.568624
0.250000	24.568624
0.260000	24.568624
0.270000	24.568624
0.280000	24.568624
0.290000	24.568624
0.300000	24.568624
0.310000	24.568624
0.320000	24.568624
0.330000	24.568624
0.340000	24.568624
0.350000	24.568624
0.360000	24.568624
0.370000	24.568624
0.380000	24.568624
0.390000	24.568624
0.400000	24.568624
0.410000	24.568624
0.420000	24.568624
0.430000	24.568624
0.440000	24.568624
0.450000	24.568624
0.460000	24.568624
0.470000	24.568624
0.480000	24.568624
0.490000	24.568624
0.500000	24.569520
0.510000	24.569520
0.520000	24.569520
0.530000	24.569520
0.540000	24.569520
0.550000	24.569520
0.560000	24.569520
0.570000	24.569520
0.580000	24.569520
0.590000	24.569520
0.600000	24.569520
0.610000	24.569520
0.620000	24.569520
0.630000	24.569520
0.640000	24.569520
0.650000	24.569520
0.660000	24.569520
0.670000	24.569520
0.680000	24.569520
0.690000	24.569520
0.700000	24.569520
0.710000	24.569520
0.720000	24.569520
0.730000	24.569520
0.740000	24.569520
0.750000	24.569520
0.760000	24.569520
0.770000	24.569520
0.780000	24.569520
0.790000	24.569520
0.800000	24.569520
0.810000	24.569520
0.820000	24.569520
0.830000	24.569520
0.840000	24.569520
0.850000	24.569520
0.860000	24.569520
0.870000	24.569520
0.880000	24.569520
0.890000	24.569520
0.900000	24.569520
0.910000	24.569520
0.920000	24.569520
0.930000	24.569520
0.940000	24.569520
0.950000	24.569520
0.960000	24.569520
0.970000	24.569520
0.980000	24.569520
0.990000	24.569520
1.000000	24.592555
1.010000	24.592555
1.020000	24.592555
1.030000	24.592555
1.040000	24.592555
1.050000	24.592555
1.060000	24.592555
1.070000	24.592555
1.080000	24.592555
1.090000	24.592555
1.100000	24.592555
1.110000	24.592555
1.120000	24.592555
1.130000	24.592555
1.140000	24.592555
1.150000	24.592555
1.160000	24.592555
1.170000	24.592555
1.180000	24.592555
1.190000	24.592555
1.200000	24.592555
1.210000	24.592555
1.220000	24.592555
1.230000	24.592555
1.240000	24.592555
1.250000	24.592555
1.260000	24.592555
1.270000	24.592555
1.280000	24.592555
1.290000	24.592555
1.300000	24.592555
1.310000	24.592555
1.320000	24.592555
1.330000	24.592555
1.340000	24.592555
1.350000	24.592555
1.360000	24.592555
1.370000	24.592555
1.380000	24.592555
1.390000	24.592555
1.400000	24.592555
1.410000	24.592555
1.420000	24.592555
1.430000	24.592555
1.440000	24.592555
1.450000	24.592555
1.460000	24.592555
1.470000	24.592555
1.480000	24.592555
1.490000	24.592555
1.500000	24.649108
1.510000	24.649108
1.520000	24.649108
1.530000	24.649108
1.540000	24.649108
1.550000	24.649108
1.560000	24.649108
1.570000	24.649108
1.580000	24.649108
1.590000	24.649108
1.600000	24.649108
1.610000	24.649108
1.620000	24.649108
1.630000	24.649108
1.640000	24.649108
1.650000	24.649108
1.660000	24.649108
1.670000	24.649108
1.680000	24.649108
1.690000	24.649108
1.700000	24.649108
1.710000	24.649108
1.720000	24.649108
1.730000	24.649108
1.740000	24.649108
1.750000	24.649108
1.760000	24.649108
1.770000	24.649108
1.780000	24.649108
1.790000	24.649108
1.800000	24.649108
1.810000	24.649108
1.820000	24.649108
1.830000	24.649108
1.840000	24.649108
1.850000	24.649108
1.860000	24.649108
1.870000	24.649108
1.880000	24.649108
1.890000	24.649108
1.900000	24.649108
1.910000	24.649108
1.920000	24.649108
1.930000	24.649108
1.940000	24.649108
1.950000	24.649108
1.960000	24.649108
1.970000	24.649108
1.980000	24.649108
1.990000	24.649108
2.000000	24.736396
2.010000	24.736396
2.020000	24.736396
2.030000	24.736396
2.040000	24.736396
2.050000	24.736396
2.060000	24.736396
2.070000	24.736396
2.080000	24.736396
2.090000	24.736396
2.100000	24.736396
2.110000	24.736396
2.120000	24.736396
2.130000	24.736396
2.140000	24.736396
2.150000	24.736396
2.160000	24.736396
2.170000	24.736396
2.180000	24.736396
2.190000	24.736396
2.200000	24.736396
2.210000	24.736396
2.220000	24.736396
2.230000	24.736396
2.240000	24.736396
2.250000	24.736396
2.260000	24.736396
2.270000	24.736396
2.280000	24.736396
2.290000	24.736396
2.300000	24.736396
2.310000	24.736396
2.320000	24.736396
2.330000	24.736396
2.340000	24.736396
2.350000	24.736396
2.360000	24.736396
2.370000	24.736396
2.380000	24.736396
2.390000	24.736396
2.400000	24.736396
2.410000	24.736396
2.420000	24.736396
2.430000	24.736396
2.440000	24.736396
2.450000	24.736396
2.460000	24.736396
2.470000	24.736396
2.480000	24.736396
2.490000	24.736396
2.500000	24.845684
2.510000	24.845684
2.520000	24.845684
2.530000	24.845684
2.540000	24.845684
2.550000	24.845684
2.560000	24.845684
2.570000	24.845684
2.580000	24.845684
2.590000	24.845684
2.600000	24.845684
2.610000	24.845684
2.620000	24.845684
2.630000	24.845684
2.640000	24.845684
2.650000	24.845684
2.660000	24.845684
2.670000	24.845684
2.680000	24.845684
2.690000	24.845684
2.700000	24.845684
2.710000	24.845684
2.720000	24.845684
2.730000	24.845684
2.740000	24.845684
2.750000	24.845684
2.760000	24.845684
2.770000	24.845684
2.780000	24.845684
2.790000	24.845684
2.800000	24.845684
2.810000	24.845684
2.820000	24.845684
2.830000	24.845684
2.840000	24.845684
2.850000	24.845684
2.860000	24.845684
2.870000	24.845684
2.880000	24.845684
2.890000	24.845684
2.900000	24.845684
2.910000	24.845684
2.920000	24.845684
2.930000	24.845684
2.940000	24.845684
2.950000	24.845684
2.960000	24.845684
2.970000	24.845684
2.980000	24.845684
2.990000	24.845684
3.000000	24.967562
3.010000	24.967562
3.020000	24.967562
3.030000	24.967562
3.040000	24.967562
3.050000	24.967562
3.060000	24.967562
3.070000	24.967562
3.080000	24.967562
3.090000	24.967562
3.100000	24.967562
3.110000	24.967562
3.120000	24.967562
3.130000	24.967562
3.140000	24.967562
3.150000	24.967562
3.160000	24.967562
3.170000	24.967562
3.180000	24.967562
3.190000	24.967562
3.200000	24.967562
3.210000	24.967562
3.220000	24.967562
3.230000	24.967562
3.240000	24.967562
3.250000	24.967562
3.260000	24.967562
3.270000	24.967562
3.280000	24.967562
3.290000	24.967562
3.300000	24.967562
3.310000	24.967562
3.320000	24.967562
3.330000	24.967562
3.340000	24.967562
3.350000	24.967562
3.360000	24.967562
3.370000	24.967562
3.380000	24.967562
3.390000	24.967562
3.400000	24.967562
3.410000	24.967562
3.420000	24.967562
3.430000	24.967562
3.440000	24.967562
3.450000	24.967562
3.460000	24.967562
3.470000	24.967562
3.480000	24.967562
3.490000	24.967562
3.500000	25.074181
3.510000	25.074181
3.520000	25.074181
3.530000	25.074181
3.540000	25.074181
3.550000	25.074181
3.560000	25.074181
3.570000	25.074181
3.580000	25.074181
3.590000	25.074181
3.600000	25.074181
3.610000	25.074181
3.620000	25.074181
3.630000	25.074181
3.640000	25.074181
3.650000	25.074181
3.660000	25.074181
3.670000	25.074181
3.680000	25.074181
3.690000	25.074181
3.700000	25.074181
3.710000	25.074181
3.720000	25.074181
3.730000	25.074181
3.740000	25.074181
3.750000	25.074181
3.760000	25.074181
3.770000	25.074181
3.780000	25.074181
3.790000	25.074181
3.800000	25.074181
3.810000	25.074181
3.820000	25.074181
3.830000	25.074181
3.840000	25.074181
3.850000	25.074181
3.860000	25.074181
3.870000	25.074181
3.880000	25.074181
3.890000	25.074181
3.900000	25.074181
3.910000	25.074181
3.920000	25.074181
3.930000	25.074181
3.940000	25.074181
3.950000	25.074181
3.960000	25.074181
3.970000	25.074181
3.980000	25.074181
3.990000	25.074181
4.000000	25.153933
4.010000	25.153933
4.020000	25.153933
4.030000	25.153933
4.040000	25.153933
4.050000	25.153933
4.060000	25.153933
4.070000	25.153933
4.080000	25.153933
4.090000	25.153933
4.100000	25.153933
4.110000	25.153933
4.120000	25.153933
4.130000	25.153933
4.140000	25.153933
4.150000	25.153933
4.160000	25.153933
4.170000	25.153933
4.180000	25.153933
4.190000	25.153933
4.200000	25.153933
4.210000	25.153933
4.220000	25.153933
4.230000	25.153933
4.240000	25.153933
4.250000	25.153933
4.260000	25.153933
4.270000	25.153933
4.280000	25.153933
4.290000	25.153933
4.300000	25.153933
4.310000	25.153933
4.320000	25.153933
4.330000	25.153933
4.340000	25.153933
4.350000	25.153933
4.360000	25.153933
4.370000	25.153933
4.380000	25.153933
4.390000	25.153933
4.400000	25.153933
4.410000	25.153933
4.420000	25.153933
4.430000	25.153933
4.440000	25.153933
4.450000	25.153933
4.460000	25.153933
4.470000	25.153933
4.480000	25.153933
4.490000	25.153933
4.500000	25.210550
4.510000	25.210550
4.520000	25.210550
4.530000	25.210550
4.540000	25.210550
4.550000	25.210550
4.560000	25.210550
4.570000	25.210550
4.580000	25.210550
4.590000	25.210550
4.600000	25.210550
4.610000	25.210550
4.620000	25.210550
4.630000	25.210550
4.640000	25.210550
4.650000	25.210550
4.660000	25.210550
4.670000	25.210550
4.680000	25.210550
4.690000	25.210550
4.700000	25.210550
4.710000	25.210550
4.720000	25.210550
4.730000	25.210550
4.740000	25.210550
4.750000	25.210550
4.760000	25.210550
4.770000	25.210550
4.780000	25.210550
4.790000	25.210550
4.800000	25.210550
4.810000	25.210550
4.820000	25.210550
4.830000	25.210550
4.840000	25.210550
4.850000	25.210550
4.860000	25.210550
4.870000	25.210550
4.880000	25.210550
4.890000	25.210550
4.900000	25.210550
4.910000	25.210550
4.920000	25.210550
4.930000	25.210550
4.940000	25.210550
4.950000	25.210550
4.960000	25.210550
4.970000	25.210550
4.980000	25.210550
4.990000	25.210550
5.000000	25.249065
5.010000	25.249065
5.020000	25.249065
5.030000	25.249065
5.040000	25.249065
5.050000	25.249065
5.060000	25.249065
5.070000	25.249065
5.080000	25.249065
5.090000	25.249065
5.100000	25.249065
5.110000	25.249065
5.120000	25.249065
5.130000	25.249065
5.140000	25.249065
5.150000	25.249065
5.160000	25.249065
5.170000	25.249065
5.180000	25.249065
5.190000	25.249065
5.200000	25.249065
5.210000	25.249065
5.220000	25.249065
5.230000	25.249065
5.240000	25.249065
5.250000	25.249065
5.260000	25.249065
5.270000	25.249065
5.280000	25.249065
5.290000	25.249065
5.300000	25.249065
5.310000	25.249065
5.320000	25.249065
5.330000	25.249065
5.340000	25.249065
5.350000	25.249065
5.360000	25.249065
5.370000	25.249065
5.380000	25.249065
5.390000	25.249065
5.400000	25.249065
5.410000	25.249065
5.420000	25.249065
5.430000	25.249065
5.440000	25.249065
5.450000	25.249065
5.460000	25.249065
5.470000	25.249065
5.480000	25.249065
5.490000	25.249065
5.500000	25.273483
5.510000	25.273483
5.520000	25.273483
5.530000	25.273483
5.540000	25.273483
5.550000	25.273483
5.560000	25.273483
5.570000	25.273483
5.580000	25.273483
5.590000	25.273483
5.600000	25.273483
5.610000	25.273483
5.620000	25.273483
5.630000	25.273483
5.640000	25.273483
5.650000	25.273483
5.660000	25.273483
5.670000	25.273483
5.680000	25.273483
5.690000	25.273483
5.700000	25.273483
5.710000	25.273483
5.720000	25.273483
5.730000	25.273483
5.740000	25.273483
5.750000	25.273483
5.760000	25.273483
5.770000	25.273483
5.780000	25.273483
5.790000	25.273483
5.800000	25.273483
5.810000	25.273483
5.820000	25.273483
5.830000	25.273483
5.840000	25.273483
5.850000	25.273483
5.860000	25.273483
5.870000	25.273483
5.880000	25.273483
5.890000	25.273483
5.900000	25.273483
5.910000	25.273483
5.920000	25.273483
5.930000	25.273483
5.940000	25.273483
5.950000	25.273483
5.960000	25.273483
5.970000	25.273483
5.980000	25.273483
5.990000	25.273483
6.000000	25.287223
6.010000	25.287223
6.020000	25.287223
6.030000	25.287223
6.040000	25.287223
6.050000	25.287223
6.060000	25.287223
6.070000	25.287223
6.080000	25.287223
6.090000	25.287223
6.100000	25.287223
6.110000	25.287223
6.120000	25.287223
6.130000	25.287223
6.140000	25.287223
6.150000	25.287223
6.160000	25.287223
6.170000	25.287223
6.180000	25.287223
6.190000	25.287223
6.200000	25.287223
6.210000	25.287223
6.220000	25.287223
6.230000	25.287223
6.240000	25.287223
6.250000	25.287223
6.260000	25.287223
6.270000	25.287223
6.280000	25.287223
6.290000	25.287223
6.300000	25.287223
6.310000	25.287223
6.320000	25.287223
6.330000	25.287223
6.340000	25.287223
6.350000	25.287223
6.360000	25.287223
6.370000	25.287223
6.380000	25.287223
6.390000	25.287223
6.400000	25.287223
6.410000	25.287223
6.420000	25.287223
6.430000	25.287223
6.440000	25.287223
6.450000	25.287223
6.460000	25.287223
6.470000	25.287223
6.480000	25.287223
6.490000	25.287223
6.500000	25.293080
6.510000	25.293080
6.520000	25.293080
6.530000	25.293080
6.540000	25.293080
6.550000	25.293080
6.560000	25.293080
6.570000	25.293080
6.580000	25.293080
6.590000	25.293080
6.600000	25.293080
6.610000	25.293080
6.620000	25.293080
6.630000	25.293080
6.640000	25.293080
6.650000	25.293080
6.660000	25.293080
6.670000	25.293080
6.680000	25.293080
6.690000	25.293080
6.700000	25.293080
6.710000	25.293080
6.720000	25.293080
6.730000	25.293080
6.740000	25.293080
6.750000	25.293080
6.760000	25.293080
6.770000	25.293080
6.780000	25.293080
6.790000	25.293080
6.800000	25.293080
6.810000	25.293080
6.820000	25.293080
6.830000	25.293080
6.840000	25.293080
6.850000	25.293080
6.860000	25.293080
6.870000	25.293080
6.880000	25.293080
6.890000	25.293080
6.900000	25.293080
6.910000	25.293080
6.920000	25.293080
6.930000	25.293080
6.940000	25.293080
6.950000	25.293080
6.960000	25.293080
6.970000	25.293080
6.980000	25.293080
6.990000	25.293080
7.000000	25.292822
7.010000	25.292822
7.020000	25.292822
7.030000	25.292822
7.040000	25.292822
7.050000	25.292822
7.060000	25.292822
7.070000	25.292822
7.080000	25.292822
7.090000	25.292822
7.100000	25.292822
7.110000	25.292822
7.120000	25.292822
7.130000	25.292822
7.140000	25.292822
7.150000	25.292822
7.160000	25.292822
7.170000	25.292822
7.180000	25.292822
7.190000	25.292822
7.200000	25.292822
7.210000	25.292822
7.220000	25.292822
7.230000	25.292822
7.240000	25.292822
7.250000	25.292822
7.260000	25.292822
7.270000	25.292822
7.280000	25.292822
7.290000	25.292822
7.300000	25.292822
7.310000	25.292822
7.320000	25.292822
7.330000	25.292822
7.340000	25.292822
7.350000	25.292822
7.360000	25.292822
7.370000	25.292822
7.380000	25.292822
7.390000	25.292822
7.400000	25.292822
7.410000	25.292822
7.420000	25.292822
7.430000	25.292822
7.440000	25.292822
7.450000	25.292822
7.460000	25.292822
7.470000	25.292822
7.480000	25.292822
7.490000	25.292822
7.500000	25.288012
7.510000	25.288012
7.520000	25.288012
7.530000	25.288012
7.540000	25.288012
7.550000	25.288012
7.560000	25.288012
7.570000	25.288012
7.580000	25.288012
7.590000	25.288012
7.600000	25.288012
7.610000	25.288012
7.620000	25.288012
7.630000	25.288012
7.640000	25.288012
7.650000	25.288012
7.660000	25.288012
7.670000	25.288012
7.680000	25.288012
7.690000	25.288012
7.700000	25.288012
7.710000	25.288012
7.720000	25.288012
7.730000	25.288012
7.740000	25.288012
7.750000	25.288012
7.760000	25.288012
7.770000	25.288012
7.780000	25.288012
7.790000	25.288012
7.800000	25.288012
7.810000	25.288012
7.820000	25.288012
7.830000	25.288012
7.840000	25.288012
7.850000	25.288012
7.860000	25.288012
7.870000	25.288012
7.880000	25.288012
7.890000	25.288012
7.900000	25.288012
7.910000	25.288012
7.920000	25.288012
7.930000	25.288012
7.940000	25.288012
7.950000	25.288012
7.960000	25.288012
7.970000	25.288012
7.980000	25.288012
7.990000	25.288012
8.000000	25.279993
8.010000	25.279993
8.020000	25.279993
8.030000	25.279993
8.040000	25.279993
8.050000	25.279993
8.060000	25.279993
8.070000	25.279993
8.080000	25.279993
8.090000	25.279993
8.100000	25.279993
8.110000	25.279993
8.120000	25.279993
8.130000	25.279993
8.140000	25.279993
8.150000	25.279993
8.160000	25.279993
8.170000	25.279993
8.180000	25.279993
8.190000	25.279993
8.200000	25.279993
8.210000	25.279993
8.220000	25.279993
8.230000	25.279993
8.240000	25.279993
8.250000	25.279993
8.260000	25.279993
8.270000	25.279993
8.280000	25.279993
8.290000	25.279993
8.300000	25.279993
8.310000	25.279993
8.320000	25.279993
8.330000	25.279993
8.340000	25.279993
8.350000	25.279993
8.360000	25.279993
8.370000	25.279993
8.380000	25.279993
8.390000	25.279993
8.400000	25.279993
8.410000	25.279993
8.420000	25.279993
8.430000	25.279993
8.440000	25.279993
8.450000	25.279993
8.460000	25.279993
8.470000	25.279993
8.480000	25.279993
8.490000	25.279993
8.500000	25.268705
8.510000	25.268705
8.520000	25.268705
8.530000	25.268705
8.540000	25.268705
8.550000	25.268705
8.560000	25.268705
8.570000	25.268705
8.580000	25.268705
8.590000	25.268705
8.600000	25.268705
8.610000	25.268705
8.620000	25.268705
8.630000	25.268705
8.640000	25.268705
8.650000	25.268705
8.660000	25.268705
8.670000	25.268705
8.680000	25.268705
8.690000	25.268705
8.700000	25.268705
8.710000	25.268705
8.720000	25.268705
8.730000	25.268705
8.740000	25.268705
8.750000	25.268705
8.760000	25.268705
8.770000	25.268705
8.780000	25.268705
8.790000	25.268705
8.800000	25.268705
8.810000	25.268705
8.820000	25.268705
8.830000	25.268705
8.840000	25.268705
8.850000	25.268705
8.860000	25.268705
8.870000	25.268705
8.880000	25.268705
8.890000	25.268705
8.900000	25.268705
8.910000	25.268705
8.920000	25.268705
8.930000	25.268705
8.940000	25.268705
8.950000	25.268705
8.960000	25.268705
8.970000	25.268705
8.980000	25.268705
8.990000	25.268705
9.000000	25.255544
9.010000	25.255544
9.020000	25.255544
9.030000	25.255544
9.040000	25.255544
9.050000	25.255544
9.060000	25.255544
9.070000	25.255544
9.080000	25.255544
9.090000	25.255544
9.100000	25.255544
9.110000	25.255544
9.120000	25.255544
9.130000	25.255544
9.140000	25.255544
9.150000	25.255544
9.160000	25.255544
9.170000	25.255544
9.180000	25.255544
9.190000	25.255544
9.200000	25.255544
9.210000	25.255544
9.220000	25.255544
9.230000	25.255544
9.240000	25.255544
9.250000	25.255544
9.260000	25.255544
9.270000	25.255544
9.280000	25.255544
9.290000	25.255544
9.300000	25.255544
9.310000	25.255544
9.320000	25.255544
9.330000	25.255544
9.340000	25.255544
9.350000	25.255544
9.360000	25.255544
9.370000	25.255544
9.380000	25.255544
9.390000	25.255544
9.400000	25.255544
9.410000	25.255544
9.420000	25.255544
9.430000	25.255544
9.440000	25.255544
9.450000	25.255544
9.460000	25.255544
9.470000	25.255544
9.480000	25.255544
9.490000	25.255544
9.500000	25.240954
9.510000	25.240954
9.520000	25.240954
9.530000	25.240954
9.540000	25.240954
9.550000	25.240954
9.560000	25.240954
9.570000	25.240954
9.580000	25.240954
9.590000	25.240954
9.600000	25.240954
9.610000	25.240954
9.620000	25.240954
9.630000	25.240954
9.640000	25.240954
9.650000	25.240954
9.660000	25.240954
9.670000	25.240954
9.680000	25.240954
9.690000	25.240954
9.700000	25.240954
9.710000	25.240954
9.720000	25.240954
9.730000	25.240954
9.740000	25.240954
9.750000	25.240954
9.760000	25.240954
9.770000	25.240954
9.780000	25.240954
9.790000	25.240954
9.800000	25.240954
9.810000	25.240954
9.820000	25.240954
9.830000	25.240954
9.840000	25.240954
9.850000	25.240954
9.860000	25.240954
9.870000	25.240954
9.880000	25.240954
9.890000	25.240954
9.900000	25.240954
9.910000	25.240954
9.920000	25.240954
9.930000	25.240954
9.940000	25.240954
9.950000	25.240954
9.960000	25.240954
9.970000	25.240954
9.980000	25.240954
9.990000	25.240954
10.000000	25.226360
10.010000	25.226360
10.020000	25.226360
10.030000	25.226360
10.040000	25.226360
10.050000	25.226360
10.060000	25.226360
10.070000	25.226360
10.080000	25.226360
10.090000	25.226360
10.100000	25.226360
10.110000	25.226360
10.120000	25.226360
10.130000	25.226360
10.140000	25.226360
10.150000	25.226360
10.160000	25.226360
10.170000	25.226360
10.180000	25.226360
10.190000	25.226360
10.200000	25.226360
10.210000	25.226360
10.220000	25.226360
10.230000	25.226360
10.240000	25.226360
10.250000	25.226360
10.260000	25.226360
10.270000	25.226360
10.280000	25.226360
10.290000	25.226360
10.300000	25.226360
10.310000	25.226360
10.320000	25.226360
10.330000	25.226360
10.340000	25.226360
10.350000	25.226360
10.360000	25.226360
10.370000	25.226360
10.380000	25.226360
10.390000	25.226360
10.400000	25.226360
10.410000	25.226360
10.420000	25.226360
10.430000	25.226360
10.440000	25.226360
10.450000	25.226360
10.460000	25.226360
10.470000	25.226360
10.480000	25.226360
10.490000	25.226360
10.500000	25.211469
10.510000	25.211469
10.520000	25.211469
10.530000	25.211469
10.540000	25.211469
10.550000	25.211469
10.560000	25.211469
10.570000	25.211469
10.580000	25.211469
10.590000	25.211469
10.600000	25.211469
10.610000	25.211469
10.620000	25.211469
10.630000	25.211469
10.640000	25.211469
10.650000	25.211469
10.660000	25.211469
10.670000	25.211469
10.680000	25.211469
10.690000	25.211469
10.700000	25.211469
10.710000	25.211469
10.720000	25.211469
10.730000	25.211469
10.740000	25.211469
10.750000	25.211469
10.760000	25.211469
10.770000	25.211469
10.780000	25.211469
10.790000	25.211469
10.800000	25.211469
10.810000	25.211469
10.820000	25.211469
10.830000	25.211469
10.840000	25.211469
10.850000	25.211469
10.860000	25.211469
10.870000	25.211469
10.880000	25.211469
10.890000	25.211469
10.900000	25.211469
10.910000	25.211469
10.920000	25.211469
10.930000	25.211469
10.940000	25.211469
10.950000	25.211469
10.960000	25.211469
10.970000	25.211469
10.980000	25.211469
10.990000	25.211469
11.000000	25.196376
11.010000	25.196376
11.020000	25.196376
11.030000	25.196376
11.040000	25.196376
11.050000	25.196376
11.060000	25.196376
11.070000	25.196376
11.080000	25.196376
11.090000	25.196376
11.100000	25.196376
11.110000	25.196376
11.120000	25.196376
11.130000	25.196376
11.140000	25.196376
11.150000	25.196376
11.160000	25.196376
11.170000	25.196376
11.180000	25.196376
11.190000	25.196376
11.200000	25.196376
11.210000	25.196376
11.220000	25.196376
11.230000	25.196376
11.240000	25.196376
11.250000	25.196376
11.260000	25.196376
11.270000	25.196376
11.280000	25.196376
11.290000	25.196376
11.300000	25.196376
11.310000	25.196376
11.320000	25.196376
11.330000	25.196376
11.340000	25.196376
11.350000	25.196376
11.360000	25.196376
11.370000	25.196376
11.380000	25.196376
11.390000	25.196376
11.400000	25.196376
11.410000	25.196376
11.420000	25.196376
11.430000	25.196376
11.440000	25.196376
11.450000	25.196376
11.460000	25.196376
11.470000	25.196376
11.480000	25.196376
11.490000	25.196376
11.500000	25.180187
11.510000	25.180187
11.520000	25.180187
11.530000	25.180187
11.540000	25.180187
11.550000	25.180187
11.560000	25.180187
11.570000	25.180187
11.580000	25.180187
11.590000	25.180187
11.600000	25.180187
11.610000	25.180187
11.620000	25.180187
11.630000	25.180187
11.640000	25.180187
11.650000	25.180187
11.660000	25.180187
11.670000	25.180187
11.680000	25.180187
11.690000	25.180187
11.700000	25.180187
11.710000	25.180187
11.720000	25.180187
11.730000	25.180187
11.740000	25.180187
11.750000	25.180187
11.760000	25.180187
11.770000	25.180187
11.780000	25.180187
11.790000	25.180187
11.800000	25.180187
11.810000	25.180187
11.820000	25.180187
11.830000	25.180187
11.840000	25.180187
11.850000	25.180187
11.860000	25.180187
11.870000	25.180187
11.880000	25.180187
11.890000	25.180187
11.900000	25.180187
11.910000	25.180187
11.920000	25.180187
11.930000	25.180187
11.940000	25.180187
11.950000	25.180187
11.960000	25.180187
11.970000	25.180187
11.980000	25.180187
11.990000	25.180187
12.000000	25.164397
12.010000	25.164397
12.020000	25.164397
12.030000	25.164397
12.040000	25.164397
12.050000	25.164397
12.060000	25.164397
12.070000	25.164397
12.080000	25.164397
12.090000	25.164397
12.100000	25.164397
12.110000	25.164397
12.120000	25.164397
12.130000	25.164397
12.140000	25.164397
12.150000	25.164397
12.160000	25.164397
12.170000	25.164397
12.180000	25.164397
12.190000	25.164397
12.200000	25.164397
12.210000	25.164397
12.220000	25.164397
12.230000	25.164397
12.240000	25.164397
12.250000	25.164397
12.260000	25.164397
12.270000	25.164397
12.280000	25.164397
12.290000	25.164397
12.300000	25.164397
12.310000	25.164397
12.320000	25.164397
12.330000	25.164397
12.340000	25.164397
12.350000	25.164397
12.360000	25.164397
12.370000	25.164397
12.380000	25.164397
12.390000	25.164397
12.400000	25.164397
12.410000	25.164397
12.420000	25.164397
12.430000	25.164397
12.440000	25.164397
12.450000	25.164397
12.460000	25.164397
12.470000	25.164397
12.480000	25.164397
12.490000	25.164397
12.500000	25.148696
12.510000	25.148696
12.520000	25.148696
12.530000	25.148696
12.540000	25.148696
12.550000	25.148696
12.560000	25.148696
12.570000	25.148696
12.580000	25.148696
12.590000	25.148696
12.600000	25.148696
12.610000	25.148696
12.620000	25.148696
12.630000	25.148696
12.640000	25.148696
12.650000	25.148696
12.660000	25.148696
12.670000	25.148696
12.680000	25.148696
12.690000	25.148696
12.700000	25.148696
12.710000	25.148696
12.720000	25.148696
12.730000	25.148696
12.740000	25.148696
12.750000	25.148696
12.760000	25.148696
12.770000	25.148696
12.780000	25.148696
12.790000	25.148696
12.800000	25.148696
12.810000	25.148696
12.820000	25.148696
12.830000	25.148696
12.840000	25.148696
12.850000	25.148696
12.860000	25.148696
12.870000	25.148696
12.880000	25.148696
12.890000	25.148696
12.900000	25.148696
12.910000	25.148696
12.920000	25.148696
12.930000	25.148696
12.940000	25.148696
12.950000	25.148696
12.960000	25.148696
12.970000	25.148696
12.980000	25.148696
12.990000	25.148696
13.000000	25.133205
13.010000	25.133205
13.020000	25.133205
13.030000	25.133205
13.040000	25.133205
13.050000	25.133205
13.060000	25.133205
13.070000	25.133205
13.080000	25.133205
13.090000	25.133205
13.100000	25.133205
13.110000	25.133205
13.120000	25.133205
13.130000	25.133205
13.140000	25.133205
13.150000	25.133205
13.160000	25.133205
13.170000	25.133205
13.180000	25.133205
13.190000	25.133205
13.200000	25.133205
13.210000	25.133205
13.220000	25.133205
13.230000	25.133205
13.240000	25.133205
13.250000	25.133205
13.260000	25.133205
13.270000	25.133205
13.280000	25.133205
13.290000	25.133205
13.300000	25.133205
13.310000	25.133205
13.320000	25.133205
13.330000	25.133205
13.340000	25.133205
13.350000	25.133205
13.360000	25.133205
13.370000	25.133205
13.380000	25.133205
13.390000	25.133205
13.400000	25.133205
13.410000	25.133205
13.420000	25.133205
13.430000	25.133205
13.440000	25.133205
13.450000	25.133205
13.460000	25.133205
13.470000	25.133205
13.480000	25.133205
13.490000	25.133205
13.500000	25.117787
13.510000	25.117787
13.520000	25.117787
13.530000	25.117787
13.540000	25.117787
13.550000	25.117787
13.560000	25.117787
13.570000	25.117787
13.580000	25.117787
13.590000	25.117787
13.600000	25.117787
13.610000	25.117787
13.620000	25.117787
13.630000	25.117787
13.640000	25.117787
13.650000	25.117787
13.660000	25.117787
13.670000	25.117787
13.680000	25.117787
13.690000	25.117787
13.700000	25.117787
13.710000	25.117787
13.720000	25.117787
13.730000	25.117787
13.740000	25.117787
13.750000	25.117787
13.760000	25.117787
13.770000	25.117787
13.780000	25.117787
13.790000	25.117787
13.800000	25.117787
13.810000	25.117787
13.820000	25.117787
13.830000	25.117787
13.840000	25.117787
13.850000	25.117787
13.860000	25.117787
13.870000	25.117787
13.880000	25.117787
13.890000	25.117787
13.900000	25.117787
13.910000	25.117787
13.920000	25.117787
13.930000	25.117787
13.940000	25.117787
13.950000	25.117787
13.960000	25.117787
13.970000	25.117787
13.980000	25.117787
13.990000	25.117787
14.000000	25.102467
14.010000	25.102467
14.020000	25.102467
14.030000	25.102467
14.040000	25.102467
14.050000	25.102467
14.060000	25.102467
14.070000	25.102467
14.080000	25.102467
14.090000	25.102467
14.100000	25.102467
14.110000	25.102467
14.120000	25.102467
14.130000	25.102467
14.140000	25.102467
14.150000	25.102467
14.160000	25.102467
14.170000	25.102467
14.180000	25.102467
14.190000	25.102467
14.200000	25.102467
14.210000	25.102467
14.220000	25.102467
14.230000	25.102467
14.240000	25.102467
14.250000	25.102467
14.260000	25.102467
14.270000	25.102467
14.280000	25.102467
14.290000	25.102467
14.300000	25.102467
14.310000	25.102467
14.320000	25.102467
14.330000	25.102467
14.340000	25.102467
14.350000	25.102467
14.360000	25.102467
14.370000	25.102467
14.380000	25.102467
14.390000	25.102467
14.400000	25.102467
14.410000	25.102467
14.420000	25.102467
14.430000	25.102467
14.440000	25.102467
14.450000	25.102467
14.460000	25.102467
14.470000	25.102467
14.480000	25.102467
14.490000	25.102467
14.500000	25.087598
14.510000	25.087598
14.520000	25.087598
14.530000	25.087598
14.540000	25.087598
14.550000	25.087598
14.560000	25.087598
14.570000	25.087598
14.580000	25.087598
14.590000	25.087598
14.600000	25.087598
14.610000	25.087598
14.620000	25.087598
14.630000	25.087598
14.640000	25.087598
14.650000	25.087598
14.660000	25.087598
14.670000	25.087598
14.680000	25.087598
14.690000	25.087598
14.700000	25.087598
14.710000	25.087598
14.720000	25.087598
14.730000	25.087598
14.740000	25.087598
14.750000	25.087598
14.760000	25.087598
14.770000	25.087598
14.780000	25.087598
14.790000	25.087598
14.800000	25.087598
14.810000	25.087598
14.820000	25.087598
14.830000	25.087598
14.840000	25.087598
14.850000	25.087598
14.860000	25.087598
14.870000	25.087598
14.880000	25.087598
14.890000	25.087598
14.900000	25.087598
14.910000	25.087598
14.920000	25.087598
14.930000	25.087598
14.940000	25.087598
14.950000	25.087598
14.960000	25.087598
14.970000	25.087598
14.980000	25.087598
14.990000	25.087598
15.000000	25.071873
15.010000	25.071873
15.020000	25.071873
15.030000	25.071873
15.040000	25.071873
15.050000	25.071873
15.060000	25.071873
15.070000	25.071873
15.080000	25.071873
15.090000	25.071873
15.100000	25.071873
15.110000	25.071873
15.120000	25.071873
15.130000	25.071873
15.140000	25.071873
15.150000	25.071873
15.160000	25.071873
15.170000	25.071873
15.180000	25.071873
15.190000	25.071873
15.200000	25.071873
15.210000	25.071873
15.220000	25.071873
15.230000	25.071873
15.240000	25.071873
15.250000	25.071873
15.260000	25.071873
15.270000	25.071873
15.280000	25.071873
15.290000	25.071873
15.300000	25.071873
15.310000	25.071873
15.320000	25.071873
15.330000	25.071873
15.340000	25.071873
15.350000	25.071873
15.360000	25.071873
15.370000	25.071873
15.380000	25.071873
15.390000	25.071873
15.400000	25.071873
15.410000	25.071873
15.420000	25.071873
15.430000	25.071873
15.440000	25.071873
15.450000	25.071873
15.460000	25.071873
15.470000	25.071873
15.480000	25.071873
15.490000	25.071873
15.500000	25.055349
15.510000	25.055349
15.520000	25.055349
15.530000	25.055349
15.540000	25.055349
15.550000	25.055349
15.560000	25.055349
15.570000	25.055349
15.580000	25.055349
15.590000	25.055349
15.600000	25.055349
15.610000	25.055349
15.620000	25.055349
15.630000	25.055349
15.640000	25.055349
15.650000	25.055349
15.660000	25.055349
15.670000	25.055349
15.680000	25.055349
15.690000	25.055349
15.700000	25.055349
15.710000	25.055349
15.720000	25.055349
15.730000	25.055349
15.740000	25.055349
15.750000	25.055349
15.760000	25.055349
15.770000	25.055349
15.780000	25.055349
15.790000	25.055349
15.800000	25.055349
15.810000	25.055349
15.820000	25.055349
15.830000	25.055349
15.840000	25.055349
15.850000	25.055349
15.860000	25.055349
15.870000	25.055349
15.880000	25.055349
15.890000	25.055349
15.900000	25.055349
15.910000	25.055349
15.920000	25.055349
15.930000	25.055349
15.940000	25.055349
15.950000	25.055349
15.960000	25.055349
15.970000	25.055349
15.980000	25.055349
15.990000	25.055349
16.000000	25.040181
16.010000	25.040181
16.020000	25.040181
16.030000	25.040181
16.040000	25.040181
16.050000	25.040181
16.060000	25.040181
16.070000	25.040181
16.080000	25.040181
16.090000	25.040181
16.100000	25.040181
16.110000	25.040181
16.120000	25.040181
16.130000	25.040181
16.140000	25.040181
16.150000	25.040181
16.160000	25.040181
16.170000	25.040181
16.180000	25.040181
16.190000	25.040181
16.200000	25.040181
16.210000	25.040181
16.220000	25.040181
16.230000	25.040181
16.240000	25.040181
16.250000	25.040181
16.260000	25.040181
16.270000	25.040181
16.280000	25.040181
16.290000	25.040181
16.300000	25.040181
16.310000	25.040181
16.320000	25.040181
16.330000	25.040181
16.340000	25.040181
16.350000	25.040181
16.360000	25.040181
16.370000	25.040181
16.380000	25.040181
16.390000	25.040181
16.400000	25.040181
16.410000	25.040181
16.420000	25.040181
16.430000	25.040181
16.440000	25.040181
16.450000	25.040181
16.460000	25.040181
16.470000	25.040181
16.480000	25.040181
16.490000	25.040181
16.500000	25.026277
16.510000	25.026277
16.520000	25.026277
16.530000	25.026277
16.540000	25.026277
16.550000	25.026277
16.560000	25.026277
16.570000	25.026277
16.580000	25.026277
16.590000	25.026277
16.600000	25.026277
16.610000	25.026277
16.620000	25.026277
16.630000	25.026277
16.640000	25.026277
16.650000	25.026277
16.660000	25.026277
16.670000	25.026277
16.680000	25.026277
16.690000	25.026277
16.700000	25.026277
16.710000	25.026277
16.720000	25.026277
16.730000	25.026277
16.740000	25.026277
16.750000	25.026277
16.760000	25.026277
16.770000	25.026277
16.780000	25.026277
16.790000	25.026277
16.800000	25.026277
16.810000	25.026277
16.820000	25.026277
16.830000	25.026277
16.840000	25.026277
16.850000	25.026277
16.860000	25.026277
16.870000	25.026277
16.880000	25.026277
16.890000	25.026277
16.900000	25.026277
16.910000	25.026277
16.920000	25.026277
16.930000	25.026277
16.940000	25.026277
16.950000	25.026277
16.960000	25.026277
16.970000	25.026277
16.980000	25.026277
16.990000	25.026277
17.000000	25.012954
17.010000	25.012954
17.020000	25.012954
17.030000	25.012954
17.040000	25.012954
17.050000	25.012954
17.060000	25.012954
17.070000	25.012954
17.080000	25.012954
17.090000	25.012954
17.100000	25.012954
17.110000	25.012954
17.120000	25.012954
17.130000	25.012954
17.140000	25.012954
17.150000	25.012954
17.160000	25.012954
17.170000	25.012954
17.180000	25.012954
17.190000	25.012954
17.200000	25.012954
17.210000	25.012954
17.220000	25.012954
17.230000	25.012954
17.240000	25.012954
17.250000	25.012954
17.260000	25.012954
17.270000	25.012954
17.280000	25.012954
17.290000	25.012954
17.300000	25.012954
17.310000	25.012954
17.320000	25.012954
17.330000	25.012954
17.340000	25.012954
17.350000	25.012954
17.360000	25.012954
17.370000	25.012954
17.380000	25.012954
17.390000	25.012954
17.400000	25.012954
17.410000	25.012954
17.420000	25.012954
17.430000	25.012954
17.440000	25.012954
17.450000	25.012954
17.460000	25.012954
17.470000	25.012954
17.480000	25.012954
17.490000	25.012954
