LabVIEW Measurement	
Writer_Version	2
Reader_Version	2
Separator	Tab
Decimal_Separator	.
Multi_Headings	No
X_Columns	One
Time_Pref	Absolute
Operator	biomech-dyno
Date	2023/04/27
Time	17:41:55.9338632999999876419
***End_of_Header***	
	
Channels	1	
Samples	10	
Date	2023/04/27	
Time	18:11:59.3153544999997901079	
X_Dimension	Time	
X0	0.0000000000000000E+0	
Delta_X	0.010000	
***End_of_Header***		
X_Value	Untitled	Comment
0.000000	24.725136
0.010000	24.725136
0.020000	24.725136
0.030000	24.725136
0.040000	24.725136
0.050000	24.725136
0.060000	24.725136
0.070000	24.725136
0.080000	24.725136
0.090000	24.725136
0.100000	24.725136
0.110000	24.725136
0.120000	24.725136
0.130000	24.725136
0.140000	24.725136
0.150000	24.725136
0.160000	24.725136
0.170000	24.725136
0.180000	24.725136
0.190000	24.725136
0.200000	24.725136
0.210000	24.725136
0.220000	24.725136
0.230000	24.725136
0.240000	24.725136
0.250000	24.725136
0.260000	24.725136
0.270000	24.725136
0.280000	24.725136
0.290000	24.725136
0.300000	24.725136
0.310000	24.725136
0.320000	24.725136
0.330000	24.725136
0.340000	24.725136
0.350000	24.725136
0.360000	24.725136
0.370000	24.725136
0.380000	24.725136
0.390000	24.725136
0.400000	24.725136
0.410000	24.725136
0.420000	24.725136
0.430000	24.725136
0.440000	24.725136
0.450000	24.725136
0.460000	24.725136
0.470000	24.725136
0.480000	24.725136
0.490000	24.725136
0.500000	24.722637
0.510000	24.722637
0.520000	24.722637
0.530000	24.722637
0.540000	24.722637
0.550000	24.722637
0.560000	24.722637
0.570000	24.722637
0.580000	24.722637
0.590000	24.722637
0.600000	24.722637
0.610000	24.722637
0.620000	24.722637
0.630000	24.722637
0.640000	24.722637
0.650000	24.722637
0.660000	24.722637
0.670000	24.722637
0.680000	24.722637
0.690000	24.722637
0.700000	24.722637
0.710000	24.722637
0.720000	24.722637
0.730000	24.722637
0.740000	24.722637
0.750000	24.722637
0.760000	24.722637
0.770000	24.722637
0.780000	24.722637
0.790000	24.722637
0.800000	24.722637
0.810000	24.722637
0.820000	24.722637
0.830000	24.722637
0.840000	24.722637
0.850000	24.722637
0.860000	24.722637
0.870000	24.722637
0.880000	24.722637
0.890000	24.722637
0.900000	24.722637
0.910000	24.722637
0.920000	24.722637
0.930000	24.722637
0.940000	24.722637
0.950000	24.722637
0.960000	24.722637
0.970000	24.722637
0.980000	24.722637
0.990000	24.722637
1.000000	24.727565
1.010000	24.727565
1.020000	24.727565
1.030000	24.727565
1.040000	24.727565
1.050000	24.727565
1.060000	24.727565
1.070000	24.727565
1.080000	24.727565
1.090000	24.727565
1.100000	24.727565
1.110000	24.727565
1.120000	24.727565
1.130000	24.727565
1.140000	24.727565
1.150000	24.727565
1.160000	24.727565
1.170000	24.727565
1.180000	24.727565
1.190000	24.727565
1.200000	24.727565
1.210000	24.727565
1.220000	24.727565
1.230000	24.727565
1.240000	24.727565
1.250000	24.727565
1.260000	24.727565
1.270000	24.727565
1.280000	24.727565
1.290000	24.727565
1.300000	24.727565
1.310000	24.727565
1.320000	24.727565
1.330000	24.727565
1.340000	24.727565
1.350000	24.727565
1.360000	24.727565
1.370000	24.727565
1.380000	24.727565
1.390000	24.727565
1.400000	24.727565
1.410000	24.727565
1.420000	24.727565
1.430000	24.727565
1.440000	24.727565
1.450000	24.727565
1.460000	24.727565
1.470000	24.727565
1.480000	24.727565
1.490000	24.727565
1.500000	24.741904
1.510000	24.741904
1.520000	24.741904
1.530000	24.741904
1.540000	24.741904
1.550000	24.741904
1.560000	24.741904
1.570000	24.741904
1.580000	24.741904
1.590000	24.741904
1.600000	24.741904
1.610000	24.741904
1.620000	24.741904
1.630000	24.741904
1.640000	24.741904
1.650000	24.741904
1.660000	24.741904
1.670000	24.741904
1.680000	24.741904
1.690000	24.741904
1.700000	24.741904
1.710000	24.741904
1.720000	24.741904
1.730000	24.741904
1.740000	24.741904
1.750000	24.741904
1.760000	24.741904
1.770000	24.741904
1.780000	24.741904
1.790000	24.741904
1.800000	24.741904
1.810000	24.741904
1.820000	24.741904
1.830000	24.741904
1.840000	24.741904
1.850000	24.741904
1.860000	24.741904
1.870000	24.741904
1.880000	24.741904
1.890000	24.741904
1.900000	24.741904
1.910000	24.741904
1.920000	24.741904
1.930000	24.741904
1.940000	24.741904
1.950000	24.741904
1.960000	24.741904
1.970000	24.741904
1.980000	24.741904
1.990000	24.741904
2.000000	24.762697
2.010000	24.762697
2.020000	24.762697
2.030000	24.762697
2.040000	24.762697
2.050000	24.762697
2.060000	24.762697
2.070000	24.762697
2.080000	24.762697
2.090000	24.762697
2.100000	24.762697
2.110000	24.762697
2.120000	24.762697
2.130000	24.762697
2.140000	24.762697
2.150000	24.762697
2.160000	24.762697
2.170000	24.762697
2.180000	24.762697
2.190000	24.762697
2.200000	24.762697
2.210000	24.762697
2.220000	24.762697
2.230000	24.762697
2.240000	24.762697
2.250000	24.762697
2.260000	24.762697
2.270000	24.762697
2.280000	24.762697
2.290000	24.762697
2.300000	24.762697
2.310000	24.762697
2.320000	24.762697
2.330000	24.762697
2.340000	24.762697
2.350000	24.762697
2.360000	24.762697
2.370000	24.762697
2.380000	24.762697
2.390000	24.762697
2.400000	24.762697
2.410000	24.762697
2.420000	24.762697
2.430000	24.762697
2.440000	24.762697
2.450000	24.762697
2.460000	24.762697
2.470000	24.762697
2.480000	24.762697
2.490000	24.762697
2.500000	24.788585
2.510000	24.788585
2.520000	24.788585
2.530000	24.788585
2.540000	24.788585
2.550000	24.788585
2.560000	24.788585
2.570000	24.788585
2.580000	24.788585
2.590000	24.788585
2.600000	24.788585
2.610000	24.788585
2.620000	24.788585
2.630000	24.788585
2.640000	24.788585
2.650000	24.788585
2.660000	24.788585
2.670000	24.788585
2.680000	24.788585
2.690000	24.788585
2.700000	24.788585
2.710000	24.788585
2.720000	24.788585
2.730000	24.788585
2.740000	24.788585
2.750000	24.788585
2.760000	24.788585
2.770000	24.788585
2.780000	24.788585
2.790000	24.788585
2.800000	24.788585
2.810000	24.788585
2.820000	24.788585
2.830000	24.788585
2.840000	24.788585
2.850000	24.788585
2.860000	24.788585
2.870000	24.788585
2.880000	24.788585
2.890000	24.788585
2.900000	24.788585
2.910000	24.788585
2.920000	24.788585
2.930000	24.788585
2.940000	24.788585
2.950000	24.788585
2.960000	24.788585
2.970000	24.788585
2.980000	24.788585
2.990000	24.788585
3.000000	24.818312
3.010000	24.818312
3.020000	24.818312
3.030000	24.818312
3.040000	24.818312
3.050000	24.818312
3.060000	24.818312
3.070000	24.818312
3.080000	24.818312
3.090000	24.818312
3.100000	24.818312
3.110000	24.818312
3.120000	24.818312
3.130000	24.818312
3.140000	24.818312
3.150000	24.818312
3.160000	24.818312
3.170000	24.818312
3.180000	24.818312
3.190000	24.818312
3.200000	24.818312
3.210000	24.818312
3.220000	24.818312
3.230000	24.818312
3.240000	24.818312
3.250000	24.818312
3.260000	24.818312
3.270000	24.818312
3.280000	24.818312
3.290000	24.818312
3.300000	24.818312
3.310000	24.818312
3.320000	24.818312
3.330000	24.818312
3.340000	24.818312
3.350000	24.818312
3.360000	24.818312
3.370000	24.818312
3.380000	24.818312
3.390000	24.818312
3.400000	24.818312
3.410000	24.818312
3.420000	24.818312
3.430000	24.818312
3.440000	24.818312
3.450000	24.818312
3.460000	24.818312
3.470000	24.818312
3.480000	24.818312
3.490000	24.818312
3.500000	24.844758
3.510000	24.844758
3.520000	24.844758
3.530000	24.844758
3.540000	24.844758
3.550000	24.844758
3.560000	24.844758
3.570000	24.844758
3.580000	24.844758
3.590000	24.844758
3.600000	24.844758
3.610000	24.844758
3.620000	24.844758
3.630000	24.844758
3.640000	24.844758
3.650000	24.844758
3.660000	24.844758
3.670000	24.844758
3.680000	24.844758
3.690000	24.844758
3.700000	24.844758
3.710000	24.844758
3.720000	24.844758
3.730000	24.844758
3.740000	24.844758
3.750000	24.844758
3.760000	24.844758
3.770000	24.844758
3.780000	24.844758
3.790000	24.844758
3.800000	24.844758
3.810000	24.844758
3.820000	24.844758
3.830000	24.844758
3.840000	24.844758
3.850000	24.844758
3.860000	24.844758
3.870000	24.844758
3.880000	24.844758
3.890000	24.844758
3.900000	24.844758
3.910000	24.844758
3.920000	24.844758
3.930000	24.844758
3.940000	24.844758
3.950000	24.844758
3.960000	24.844758
3.970000	24.844758
3.980000	24.844758
3.990000	24.844758
4.000000	24.863439
4.010000	24.863439
4.020000	24.863439
4.030000	24.863439
4.040000	24.863439
4.050000	24.863439
4.060000	24.863439
4.070000	24.863439
4.080000	24.863439
4.090000	24.863439
4.100000	24.863439
4.110000	24.863439
4.120000	24.863439
4.130000	24.863439
4.140000	24.863439
4.150000	24.863439
4.160000	24.863439
4.170000	24.863439
4.180000	24.863439
4.190000	24.863439
4.200000	24.863439
4.210000	24.863439
4.220000	24.863439
4.230000	24.863439
4.240000	24.863439
4.250000	24.863439
4.260000	24.863439
4.270000	24.863439
4.280000	24.863439
4.290000	24.863439
4.300000	24.863439
4.310000	24.863439
4.320000	24.863439
4.330000	24.863439
4.340000	24.863439
4.350000	24.863439
4.360000	24.863439
4.370000	24.863439
4.380000	24.863439
4.390000	24.863439
4.400000	24.863439
4.410000	24.863439
4.420000	24.863439
4.430000	24.863439
4.440000	24.863439
4.450000	24.863439
4.460000	24.863439
4.470000	24.863439
4.480000	24.863439
4.490000	24.863439
4.500000	24.877236
4.510000	24.877236
4.520000	24.877236
4.530000	24.877236
4.540000	24.877236
4.550000	24.877236
4.560000	24.877236
4.570000	24.877236
4.580000	24.877236
4.590000	24.877236
4.600000	24.877236
4.610000	24.877236
4.620000	24.877236
4.630000	24.877236
4.640000	24.877236
4.650000	24.877236
4.660000	24.877236
4.670000	24.877236
4.680000	24.877236
4.690000	24.877236
4.700000	24.877236
4.710000	24.877236
4.720000	24.877236
4.730000	24.877236
4.740000	24.877236
4.750000	24.877236
4.760000	24.877236
4.770000	24.877236
4.780000	24.877236
4.790000	24.877236
4.800000	24.877236
4.810000	24.877236
4.820000	24.877236
4.830000	24.877236
4.840000	24.877236
4.850000	24.877236
4.860000	24.877236
4.870000	24.877236
4.880000	24.877236
4.890000	24.877236
4.900000	24.877236
4.910000	24.877236
4.920000	24.877236
4.930000	24.877236
4.940000	24.877236
4.950000	24.877236
4.960000	24.877236
4.970000	24.877236
4.980000	24.877236
4.990000	24.877236
5.000000	24.887128
5.010000	24.887128
5.020000	24.887128
5.030000	24.887128
5.040000	24.887128
5.050000	24.887128
5.060000	24.887128
5.070000	24.887128
5.080000	24.887128
5.090000	24.887128
5.100000	24.887128
5.110000	24.887128
5.120000	24.887128
5.130000	24.887128
5.140000	24.887128
5.150000	24.887128
5.160000	24.887128
5.170000	24.887128
5.180000	24.887128
5.190000	24.887128
5.200000	24.887128
5.210000	24.887128
5.220000	24.887128
5.230000	24.887128
5.240000	24.887128
5.250000	24.887128
5.260000	24.887128
5.270000	24.887128
5.280000	24.887128
5.290000	24.887128
5.300000	24.887128
5.310000	24.887128
5.320000	24.887128
5.330000	24.887128
5.340000	24.887128
5.350000	24.887128
5.360000	24.887128
5.370000	24.887128
5.380000	24.887128
5.390000	24.887128
5.400000	24.887128
5.410000	24.887128
5.420000	24.887128
5.430000	24.887128
5.440000	24.887128
5.450000	24.887128
5.460000	24.887128
5.470000	24.887128
5.480000	24.887128
5.490000	24.887128
5.500000	24.894867
5.510000	24.894867
5.520000	24.894867
5.530000	24.894867
5.540000	24.894867
5.550000	24.894867
5.560000	24.894867
5.570000	24.894867
5.580000	24.894867
5.590000	24.894867
5.600000	24.894867
5.610000	24.894867
5.620000	24.894867
5.630000	24.894867
5.640000	24.894867
5.650000	24.894867
5.660000	24.894867
5.670000	24.894867
5.680000	24.894867
5.690000	24.894867
5.700000	24.894867
5.710000	24.894867
5.720000	24.894867
5.730000	24.894867
5.740000	24.894867
5.750000	24.894867
5.760000	24.894867
5.770000	24.894867
5.780000	24.894867
5.790000	24.894867
5.800000	24.894867
5.810000	24.894867
5.820000	24.894867
5.830000	24.894867
5.840000	24.894867
5.850000	24.894867
5.860000	24.894867
5.870000	24.894867
5.880000	24.894867
5.890000	24.894867
5.900000	24.894867
5.910000	24.894867
5.920000	24.894867
5.930000	24.894867
5.940000	24.894867
5.950000	24.894867
5.960000	24.894867
5.970000	24.894867
5.980000	24.894867
5.990000	24.894867
6.000000	24.899638
6.010000	24.899638
6.020000	24.899638
6.030000	24.899638
6.040000	24.899638
6.050000	24.899638
6.060000	24.899638
6.070000	24.899638
6.080000	24.899638
6.090000	24.899638
6.100000	24.899638
6.110000	24.899638
6.120000	24.899638
6.130000	24.899638
6.140000	24.899638
6.150000	24.899638
6.160000	24.899638
6.170000	24.899638
6.180000	24.899638
6.190000	24.899638
6.200000	24.899638
6.210000	24.899638
6.220000	24.899638
6.230000	24.899638
6.240000	24.899638
6.250000	24.899638
6.260000	24.899638
6.270000	24.899638
6.280000	24.899638
6.290000	24.899638
6.300000	24.899638
6.310000	24.899638
6.320000	24.899638
6.330000	24.899638
6.340000	24.899638
6.350000	24.899638
6.360000	24.899638
6.370000	24.899638
6.380000	24.899638
6.390000	24.899638
6.400000	24.899638
6.410000	24.899638
6.420000	24.899638
6.430000	24.899638
6.440000	24.899638
6.450000	24.899638
6.460000	24.899638
6.470000	24.899638
6.480000	24.899638
6.490000	24.899638
6.500000	24.901601
6.510000	24.901601
6.520000	24.901601
6.530000	24.901601
6.540000	24.901601
6.550000	24.901601
6.560000	24.901601
6.570000	24.901601
6.580000	24.901601
6.590000	24.901601
6.600000	24.901601
6.610000	24.901601
6.620000	24.901601
6.630000	24.901601
6.640000	24.901601
6.650000	24.901601
6.660000	24.901601
6.670000	24.901601
6.680000	24.901601
6.690000	24.901601
6.700000	24.901601
6.710000	24.901601
6.720000	24.901601
6.730000	24.901601
6.740000	24.901601
6.750000	24.901601
6.760000	24.901601
6.770000	24.901601
6.780000	24.901601
6.790000	24.901601
6.800000	24.901601
6.810000	24.901601
6.820000	24.901601
6.830000	24.901601
6.840000	24.901601
6.850000	24.901601
6.860000	24.901601
6.870000	24.901601
6.880000	24.901601
6.890000	24.901601
6.900000	24.901601
6.910000	24.901601
6.920000	24.901601
6.930000	24.901601
6.940000	24.901601
6.950000	24.901601
6.960000	24.901601
6.970000	24.901601
6.980000	24.901601
6.990000	24.901601
7.000000	24.902629
7.010000	24.902629
7.020000	24.902629
7.030000	24.902629
7.040000	24.902629
7.050000	24.902629
7.060000	24.902629
7.070000	24.902629
7.080000	24.902629
7.090000	24.902629
7.100000	24.902629
7.110000	24.902629
7.120000	24.902629
7.130000	24.902629
7.140000	24.902629
7.150000	24.902629
7.160000	24.902629
7.170000	24.902629
7.180000	24.902629
7.190000	24.902629
7.200000	24.902629
7.210000	24.902629
7.220000	24.902629
7.230000	24.902629
7.240000	24.902629
7.250000	24.902629
7.260000	24.902629
7.270000	24.902629
7.280000	24.902629
7.290000	24.902629
7.300000	24.902629
7.310000	24.902629
7.320000	24.902629
7.330000	24.902629
7.340000	24.902629
7.350000	24.902629
7.360000	24.902629
7.370000	24.902629
7.380000	24.902629
7.390000	24.902629
7.400000	24.902629
7.410000	24.902629
7.420000	24.902629
7.430000	24.902629
7.440000	24.902629
7.450000	24.902629
7.460000	24.902629
7.470000	24.902629
7.480000	24.902629
7.490000	24.902629
7.500000	24.902448
7.510000	24.902448
7.520000	24.902448
7.530000	24.902448
7.540000	24.902448
7.550000	24.902448
7.560000	24.902448
7.570000	24.902448
7.580000	24.902448
7.590000	24.902448
7.600000	24.902448
7.610000	24.902448
7.620000	24.902448
7.630000	24.902448
7.640000	24.902448
7.650000	24.902448
7.660000	24.902448
7.670000	24.902448
7.680000	24.902448
7.690000	24.902448
7.700000	24.902448
7.710000	24.902448
7.720000	24.902448
7.730000	24.902448
7.740000	24.902448
7.750000	24.902448
7.760000	24.902448
7.770000	24.902448
7.780000	24.902448
7.790000	24.902448
7.800000	24.902448
7.810000	24.902448
7.820000	24.902448
7.830000	24.902448
7.840000	24.902448
7.850000	24.902448
7.860000	24.902448
7.870000	24.902448
7.880000	24.902448
7.890000	24.902448
7.900000	24.902448
7.910000	24.902448
7.920000	24.902448
7.930000	24.902448
7.940000	24.902448
7.950000	24.902448
7.960000	24.902448
7.970000	24.902448
7.980000	24.902448
7.990000	24.902448
8.000000	24.901073
8.010000	24.901073
8.020000	24.901073
8.030000	24.901073
8.040000	24.901073
8.050000	24.901073
8.060000	24.901073
8.070000	24.901073
8.080000	24.901073
8.090000	24.901073
8.100000	24.901073
8.110000	24.901073
8.120000	24.901073
8.130000	24.901073
8.140000	24.901073
8.150000	24.901073
8.160000	24.901073
8.170000	24.901073
8.180000	24.901073
8.190000	24.901073
8.200000	24.901073
8.210000	24.901073
8.220000	24.901073
8.230000	24.901073
8.240000	24.901073
8.250000	24.901073
8.260000	24.901073
8.270000	24.901073
8.280000	24.901073
8.290000	24.901073
8.300000	24.901073
8.310000	24.901073
8.320000	24.901073
8.330000	24.901073
8.340000	24.901073
8.350000	24.901073
8.360000	24.901073
8.370000	24.901073
8.380000	24.901073
8.390000	24.901073
8.400000	24.901073
8.410000	24.901073
8.420000	24.901073
8.430000	24.901073
8.440000	24.901073
8.450000	24.901073
8.460000	24.901073
8.470000	24.901073
8.480000	24.901073
8.490000	24.901073
8.500000	24.899569
8.510000	24.899569
8.520000	24.899569
8.530000	24.899569
8.540000	24.899569
8.550000	24.899569
8.560000	24.899569
8.570000	24.899569
8.580000	24.899569
8.590000	24.899569
8.600000	24.899569
8.610000	24.899569
8.620000	24.899569
8.630000	24.899569
8.640000	24.899569
8.650000	24.899569
8.660000	24.899569
8.670000	24.899569
8.680000	24.899569
8.690000	24.899569
8.700000	24.899569
8.710000	24.899569
8.720000	24.899569
8.730000	24.899569
8.740000	24.899569
8.750000	24.899569
8.760000	24.899569
8.770000	24.899569
8.780000	24.899569
8.790000	24.899569
8.800000	24.899569
8.810000	24.899569
8.820000	24.899569
8.830000	24.899569
8.840000	24.899569
8.850000	24.899569
8.860000	24.899569
8.870000	24.899569
8.880000	24.899569
8.890000	24.899569
8.900000	24.899569
8.910000	24.899569
8.920000	24.899569
8.930000	24.899569
8.940000	24.899569
8.950000	24.899569
8.960000	24.899569
8.970000	24.899569
8.980000	24.899569
8.990000	24.899569
9.000000	24.896613
9.010000	24.896613
9.020000	24.896613
9.030000	24.896613
9.040000	24.896613
9.050000	24.896613
9.060000	24.896613
9.070000	24.896613
9.080000	24.896613
9.090000	24.896613
9.100000	24.896613
9.110000	24.896613
9.120000	24.896613
9.130000	24.896613
9.140000	24.896613
9.150000	24.896613
9.160000	24.896613
9.170000	24.896613
9.180000	24.896613
9.190000	24.896613
9.200000	24.896613
9.210000	24.896613
9.220000	24.896613
9.230000	24.896613
9.240000	24.896613
9.250000	24.896613
9.260000	24.896613
9.270000	24.896613
9.280000	24.896613
9.290000	24.896613
9.300000	24.896613
9.310000	24.896613
9.320000	24.896613
9.330000	24.896613
9.340000	24.896613
9.350000	24.896613
9.360000	24.896613
9.370000	24.896613
9.380000	24.896613
9.390000	24.896613
9.400000	24.896613
9.410000	24.896613
9.420000	24.896613
9.430000	24.896613
9.440000	24.896613
9.450000	24.896613
9.460000	24.896613
9.470000	24.896613
9.480000	24.896613
9.490000	24.896613
9.500000	24.893535
9.510000	24.893535
9.520000	24.893535
9.530000	24.893535
9.540000	24.893535
9.550000	24.893535
9.560000	24.893535
9.570000	24.893535
9.580000	24.893535
9.590000	24.893535
9.600000	24.893535
9.610000	24.893535
9.620000	24.893535
9.630000	24.893535
9.640000	24.893535
9.650000	24.893535
9.660000	24.893535
9.670000	24.893535
9.680000	24.893535
9.690000	24.893535
9.700000	24.893535
9.710000	24.893535
9.720000	24.893535
9.730000	24.893535
9.740000	24.893535
9.750000	24.893535
9.760000	24.893535
9.770000	24.893535
9.780000	24.893535
9.790000	24.893535
9.800000	24.893535
9.810000	24.893535
9.820000	24.893535
9.830000	24.893535
9.840000	24.893535
9.850000	24.893535
9.860000	24.893535
9.870000	24.893535
9.880000	24.893535
9.890000	24.893535
9.900000	24.893535
9.910000	24.893535
9.920000	24.893535
9.930000	24.893535
9.940000	24.893535
9.950000	24.893535
9.960000	24.893535
9.970000	24.893535
9.980000	24.893535
9.990000	24.893535
10.000000	24.890034
10.010000	24.890034
10.020000	24.890034
10.030000	24.890034
10.040000	24.890034
10.050000	24.890034
10.060000	24.890034
10.070000	24.890034
10.080000	24.890034
10.090000	24.890034
10.100000	24.890034
10.110000	24.890034
10.120000	24.890034
10.130000	24.890034
10.140000	24.890034
10.150000	24.890034
10.160000	24.890034
10.170000	24.890034
10.180000	24.890034
10.190000	24.890034
10.200000	24.890034
10.210000	24.890034
10.220000	24.890034
10.230000	24.890034
10.240000	24.890034
10.250000	24.890034
10.260000	24.890034
10.270000	24.890034
10.280000	24.890034
10.290000	24.890034
10.300000	24.890034
10.310000	24.890034
10.320000	24.890034
10.330000	24.890034
10.340000	24.890034
10.350000	24.890034
10.360000	24.890034
10.370000	24.890034
10.380000	24.890034
10.390000	24.890034
10.400000	24.890034
10.410000	24.890034
10.420000	24.890034
10.430000	24.890034
10.440000	24.890034
10.450000	24.890034
10.460000	24.890034
10.470000	24.890034
10.480000	24.890034
10.490000	24.890034
10.500000	24.886618
10.510000	24.886618
10.520000	24.886618
10.530000	24.886618
10.540000	24.886618
10.550000	24.886618
10.560000	24.886618
10.570000	24.886618
10.580000	24.886618
10.590000	24.886618
10.600000	24.886618
10.610000	24.886618
10.620000	24.886618
10.630000	24.886618
10.640000	24.886618
10.650000	24.886618
10.660000	24.886618
10.670000	24.886618
10.680000	24.886618
10.690000	24.886618
10.700000	24.886618
10.710000	24.886618
10.720000	24.886618
10.730000	24.886618
10.740000	24.886618
10.750000	24.886618
10.760000	24.886618
10.770000	24.886618
10.780000	24.886618
10.790000	24.886618
10.800000	24.886618
10.810000	24.886618
10.820000	24.886618
10.830000	24.886618
10.840000	24.886618
10.850000	24.886618
10.860000	24.886618
10.870000	24.886618
10.880000	24.886618
10.890000	24.886618
10.900000	24.886618
10.910000	24.886618
10.920000	24.886618
10.930000	24.886618
10.940000	24.886618
10.950000	24.886618
10.960000	24.886618
10.970000	24.886618
10.980000	24.886618
10.990000	24.886618
11.000000	24.882433
11.010000	24.882433
11.020000	24.882433
11.030000	24.882433
11.040000	24.882433
11.050000	24.882433
11.060000	24.882433
11.070000	24.882433
11.080000	24.882433
11.090000	24.882433
11.100000	24.882433
11.110000	24.882433
11.120000	24.882433
11.130000	24.882433
11.140000	24.882433
11.150000	24.882433
11.160000	24.882433
11.170000	24.882433
11.180000	24.882433
11.190000	24.882433
11.200000	24.882433
11.210000	24.882433
11.220000	24.882433
11.230000	24.882433
11.240000	24.882433
11.250000	24.882433
11.260000	24.882433
11.270000	24.882433
11.280000	24.882433
11.290000	24.882433
11.300000	24.882433
11.310000	24.882433
11.320000	24.882433
11.330000	24.882433
11.340000	24.882433
11.350000	24.882433
11.360000	24.882433
11.370000	24.882433
11.380000	24.882433
11.390000	24.882433
11.400000	24.882433
11.410000	24.882433
11.420000	24.882433
11.430000	24.882433
11.440000	24.882433
11.450000	24.882433
11.460000	24.882433
11.470000	24.882433
11.480000	24.882433
11.490000	24.882433
11.500000	24.878135
11.510000	24.878135
11.520000	24.878135
11.530000	24.878135
11.540000	24.878135
11.550000	24.878135
11.560000	24.878135
11.570000	24.878135
11.580000	24.878135
11.590000	24.878135
11.600000	24.878135
11.610000	24.878135
11.620000	24.878135
11.630000	24.878135
11.640000	24.878135
11.650000	24.878135
11.660000	24.878135
11.670000	24.878135
11.680000	24.878135
11.690000	24.878135
11.700000	24.878135
11.710000	24.878135
11.720000	24.878135
11.730000	24.878135
11.740000	24.878135
11.750000	24.878135
11.760000	24.878135
11.770000	24.878135
11.780000	24.878135
11.790000	24.878135
11.800000	24.878135
11.810000	24.878135
11.820000	24.878135
11.830000	24.878135
11.840000	24.878135
11.850000	24.878135
11.860000	24.878135
11.870000	24.878135
11.880000	24.878135
11.890000	24.878135
11.900000	24.878135
11.910000	24.878135
11.920000	24.878135
11.930000	24.878135
11.940000	24.878135
11.950000	24.878135
11.960000	24.878135
11.970000	24.878135
11.980000	24.878135
11.990000	24.878135
12.000000	24.873594
12.010000	24.873594
12.020000	24.873594
12.030000	24.873594
12.040000	24.873594
12.050000	24.873594
12.060000	24.873594
12.070000	24.873594
12.080000	24.873594
12.090000	24.873594
12.100000	24.873594
12.110000	24.873594
12.120000	24.873594
12.130000	24.873594
12.140000	24.873594
12.150000	24.873594
12.160000	24.873594
12.170000	24.873594
12.180000	24.873594
12.190000	24.873594
12.200000	24.873594
12.210000	24.873594
12.220000	24.873594
12.230000	24.873594
12.240000	24.873594
12.250000	24.873594
12.260000	24.873594
12.270000	24.873594
12.280000	24.873594
12.290000	24.873594
12.300000	24.873594
12.310000	24.873594
12.320000	24.873594
12.330000	24.873594
12.340000	24.873594
12.350000	24.873594
12.360000	24.873594
12.370000	24.873594
12.380000	24.873594
12.390000	24.873594
12.400000	24.873594
12.410000	24.873594
12.420000	24.873594
12.430000	24.873594
12.440000	24.873594
12.450000	24.873594
12.460000	24.873594
12.470000	24.873594
12.480000	24.873594
12.490000	24.873594
12.500000	24.868526
12.510000	24.868526
12.520000	24.868526
12.530000	24.868526
12.540000	24.868526
12.550000	24.868526
12.560000	24.868526
12.570000	24.868526
12.580000	24.868526
12.590000	24.868526
12.600000	24.868526
12.610000	24.868526
12.620000	24.868526
12.630000	24.868526
12.640000	24.868526
12.650000	24.868526
12.660000	24.868526
12.670000	24.868526
12.680000	24.868526
12.690000	24.868526
12.700000	24.868526
12.710000	24.868526
12.720000	24.868526
12.730000	24.868526
12.740000	24.868526
12.750000	24.868526
12.760000	24.868526
12.770000	24.868526
12.780000	24.868526
12.790000	24.868526
12.800000	24.868526
12.810000	24.868526
12.820000	24.868526
12.830000	24.868526
12.840000	24.868526
12.850000	24.868526
12.860000	24.868526
12.870000	24.868526
12.880000	24.868526
12.890000	24.868526
12.900000	24.868526
12.910000	24.868526
12.920000	24.868526
12.930000	24.868526
12.940000	24.868526
12.950000	24.868526
12.960000	24.868526
12.970000	24.868526
12.980000	24.868526
12.990000	24.868526
13.000000	24.863906
13.010000	24.863906
13.020000	24.863906
13.030000	24.863906
13.040000	24.863906
13.050000	24.863906
13.060000	24.863906
13.070000	24.863906
13.080000	24.863906
13.090000	24.863906
13.100000	24.863906
13.110000	24.863906
13.120000	24.863906
13.130000	24.863906
13.140000	24.863906
13.150000	24.863906
13.160000	24.863906
13.170000	24.863906
13.180000	24.863906
13.190000	24.863906
13.200000	24.863906
13.210000	24.863906
13.220000	24.863906
13.230000	24.863906
13.240000	24.863906
13.250000	24.863906
13.260000	24.863906
13.270000	24.863906
13.280000	24.863906
13.290000	24.863906
13.300000	24.863906
13.310000	24.863906
13.320000	24.863906
13.330000	24.863906
13.340000	24.863906
13.350000	24.863906
13.360000	24.863906
13.370000	24.863906
13.380000	24.863906
13.390000	24.863906
13.400000	24.863906
13.410000	24.863906
13.420000	24.863906
13.430000	24.863906
13.440000	24.863906
13.450000	24.863906
13.460000	24.863906
13.470000	24.863906
13.480000	24.863906
13.490000	24.863906
13.500000	24.859070
13.510000	24.859070
13.520000	24.859070
13.530000	24.859070
13.540000	24.859070
13.550000	24.859070
13.560000	24.859070
13.570000	24.859070
13.580000	24.859070
13.590000	24.859070
13.600000	24.859070
13.610000	24.859070
13.620000	24.859070
13.630000	24.859070
13.640000	24.859070
13.650000	24.859070
13.660000	24.859070
13.670000	24.859070
13.680000	24.859070
13.690000	24.859070
13.700000	24.859070
13.710000	24.859070
13.720000	24.859070
13.730000	24.859070
13.740000	24.859070
13.750000	24.859070
13.760000	24.859070
13.770000	24.859070
13.780000	24.859070
13.790000	24.859070
13.800000	24.859070
13.810000	24.859070
13.820000	24.859070
13.830000	24.859070
13.840000	24.859070
13.850000	24.859070
13.860000	24.859070
13.870000	24.859070
13.880000	24.859070
13.890000	24.859070
13.900000	24.859070
13.910000	24.859070
13.920000	24.859070
13.930000	24.859070
13.940000	24.859070
13.950000	24.859070
13.960000	24.859070
13.970000	24.859070
13.980000	24.859070
13.990000	24.859070
14.000000	24.853671
14.010000	24.853671
14.020000	24.853671
14.030000	24.853671
14.040000	24.853671
14.050000	24.853671
14.060000	24.853671
14.070000	24.853671
14.080000	24.853671
14.090000	24.853671
14.100000	24.853671
14.110000	24.853671
14.120000	24.853671
14.130000	24.853671
14.140000	24.853671
14.150000	24.853671
14.160000	24.853671
14.170000	24.853671
14.180000	24.853671
14.190000	24.853671
14.200000	24.853671
14.210000	24.853671
14.220000	24.853671
14.230000	24.853671
14.240000	24.853671
14.250000	24.853671
14.260000	24.853671
14.270000	24.853671
14.280000	24.853671
14.290000	24.853671
14.300000	24.853671
14.310000	24.853671
14.320000	24.853671
14.330000	24.853671
14.340000	24.853671
14.350000	24.853671
14.360000	24.853671
14.370000	24.853671
14.380000	24.853671
14.390000	24.853671
14.400000	24.853671
14.410000	24.853671
14.420000	24.853671
14.430000	24.853671
14.440000	24.853671
14.450000	24.853671
14.460000	24.853671
14.470000	24.853671
14.480000	24.853671
14.490000	24.853671
14.500000	24.847908
14.510000	24.847908
14.520000	24.847908
14.530000	24.847908
14.540000	24.847908
14.550000	24.847908
14.560000	24.847908
14.570000	24.847908
14.580000	24.847908
14.590000	24.847908
14.600000	24.847908
14.610000	24.847908
14.620000	24.847908
14.630000	24.847908
14.640000	24.847908
14.650000	24.847908
14.660000	24.847908
14.670000	24.847908
14.680000	24.847908
14.690000	24.847908
14.700000	24.847908
14.710000	24.847908
14.720000	24.847908
14.730000	24.847908
14.740000	24.847908
14.750000	24.847908
14.760000	24.847908
14.770000	24.847908
14.780000	24.847908
14.790000	24.847908
14.800000	24.847908
14.810000	24.847908
14.820000	24.847908
14.830000	24.847908
14.840000	24.847908
14.850000	24.847908
14.860000	24.847908
14.870000	24.847908
14.880000	24.847908
14.890000	24.847908
14.900000	24.847908
14.910000	24.847908
14.920000	24.847908
14.930000	24.847908
14.940000	24.847908
14.950000	24.847908
14.960000	24.847908
14.970000	24.847908
14.980000	24.847908
14.990000	24.847908
15.000000	24.842049
15.010000	24.842049
15.020000	24.842049
15.030000	24.842049
15.040000	24.842049
15.050000	24.842049
15.060000	24.842049
15.070000	24.842049
15.080000	24.842049
15.090000	24.842049
15.100000	24.842049
15.110000	24.842049
15.120000	24.842049
15.130000	24.842049
15.140000	24.842049
15.150000	24.842049
15.160000	24.842049
15.170000	24.842049
15.180000	24.842049
15.190000	24.842049
15.200000	24.842049
15.210000	24.842049
15.220000	24.842049
15.230000	24.842049
15.240000	24.842049
15.250000	24.842049
15.260000	24.842049
15.270000	24.842049
15.280000	24.842049
15.290000	24.842049
15.300000	24.842049
15.310000	24.842049
15.320000	24.842049
15.330000	24.842049
15.340000	24.842049
15.350000	24.842049
15.360000	24.842049
15.370000	24.842049
15.380000	24.842049
15.390000	24.842049
15.400000	24.842049
15.410000	24.842049
15.420000	24.842049
15.430000	24.842049
15.440000	24.842049
15.450000	24.842049
15.460000	24.842049
15.470000	24.842049
15.480000	24.842049
15.490000	24.842049
15.500000	24.836415
15.510000	24.836415
15.520000	24.836415
15.530000	24.836415
15.540000	24.836415
15.550000	24.836415
15.560000	24.836415
15.570000	24.836415
15.580000	24.836415
15.590000	24.836415
15.600000	24.836415
15.610000	24.836415
15.620000	24.836415
15.630000	24.836415
15.640000	24.836415
15.650000	24.836415
15.660000	24.836415
15.670000	24.836415
15.680000	24.836415
15.690000	24.836415
15.700000	24.836415
15.710000	24.836415
15.720000	24.836415
15.730000	24.836415
15.740000	24.836415
15.750000	24.836415
15.760000	24.836415
15.770000	24.836415
15.780000	24.836415
15.790000	24.836415
15.800000	24.836415
15.810000	24.836415
15.820000	24.836415
15.830000	24.836415
15.840000	24.836415
15.850000	24.836415
15.860000	24.836415
15.870000	24.836415
15.880000	24.836415
15.890000	24.836415
15.900000	24.836415
15.910000	24.836415
15.920000	24.836415
15.930000	24.836415
15.940000	24.836415
15.950000	24.836415
15.960000	24.836415
15.970000	24.836415
15.980000	24.836415
15.990000	24.836415
16.000000	24.830572
16.010000	24.830572
16.020000	24.830572
16.030000	24.830572
16.040000	24.830572
16.050000	24.830572
16.060000	24.830572
16.070000	24.830572
16.080000	24.830572
16.090000	24.830572
16.100000	24.830572
16.110000	24.830572
16.120000	24.830572
16.130000	24.830572
16.140000	24.830572
16.150000	24.830572
16.160000	24.830572
16.170000	24.830572
16.180000	24.830572
16.190000	24.830572
16.200000	24.830572
16.210000	24.830572
16.220000	24.830572
16.230000	24.830572
16.240000	24.830572
16.250000	24.830572
16.260000	24.830572
16.270000	24.830572
16.280000	24.830572
16.290000	24.830572
16.300000	24.830572
16.310000	24.830572
16.320000	24.830572
16.330000	24.830572
16.340000	24.830572
16.350000	24.830572
16.360000	24.830572
16.370000	24.830572
16.380000	24.830572
16.390000	24.830572
16.400000	24.830572
16.410000	24.830572
16.420000	24.830572
16.430000	24.830572
16.440000	24.830572
16.450000	24.830572
16.460000	24.830572
16.470000	24.830572
16.480000	24.830572
16.490000	24.830572
16.500000	24.824105
16.510000	24.824105
16.520000	24.824105
16.530000	24.824105
16.540000	24.824105
16.550000	24.824105
16.560000	24.824105
16.570000	24.824105
16.580000	24.824105
16.590000	24.824105
16.600000	24.824105
16.610000	24.824105
16.620000	24.824105
16.630000	24.824105
16.640000	24.824105
16.650000	24.824105
16.660000	24.824105
16.670000	24.824105
16.680000	24.824105
16.690000	24.824105
16.700000	24.824105
16.710000	24.824105
16.720000	24.824105
16.730000	24.824105
16.740000	24.824105
16.750000	24.824105
16.760000	24.824105
16.770000	24.824105
16.780000	24.824105
16.790000	24.824105
16.800000	24.824105
16.810000	24.824105
16.820000	24.824105
16.830000	24.824105
16.840000	24.824105
16.850000	24.824105
16.860000	24.824105
16.870000	24.824105
16.880000	24.824105
16.890000	24.824105
16.900000	24.824105
16.910000	24.824105
16.920000	24.824105
16.930000	24.824105
16.940000	24.824105
16.950000	24.824105
16.960000	24.824105
16.970000	24.824105
16.980000	24.824105
16.990000	24.824105
17.000000	24.818269
17.010000	24.818269
17.020000	24.818269
17.030000	24.818269
17.040000	24.818269
17.050000	24.818269
17.060000	24.818269
17.070000	24.818269
17.080000	24.818269
17.090000	24.818269
17.100000	24.818269
17.110000	24.818269
17.120000	24.818269
17.130000	24.818269
17.140000	24.818269
17.150000	24.818269
17.160000	24.818269
17.170000	24.818269
17.180000	24.818269
17.190000	24.818269
17.200000	24.818269
17.210000	24.818269
17.220000	24.818269
17.230000	24.818269
17.240000	24.818269
17.250000	24.818269
17.260000	24.818269
17.270000	24.818269
17.280000	24.818269
17.290000	24.818269
17.300000	24.818269
17.310000	24.818269
17.320000	24.818269
17.330000	24.818269
17.340000	24.818269
17.350000	24.818269
17.360000	24.818269
17.370000	24.818269
17.380000	24.818269
17.390000	24.818269
17.400000	24.818269
17.410000	24.818269
17.420000	24.818269
17.430000	24.818269
17.440000	24.818269
17.450000	24.818269
17.460000	24.818269
17.470000	24.818269
17.480000	24.818269
17.490000	24.818269
