LabVIEW Measurement	
Writer_Version	2
Reader_Version	2
Separator	Tab
Decimal_Separator	.
Multi_Headings	No
X_Columns	One
Time_Pref	Absolute
Operator	biomech-dyno
Date	2023/04/27
Time	17:41:55.9338632999999876419
***End_of_Header***	
	
Channels	1	
Samples	10	
Date	2023/04/27	
Time	18:13:04.4827203999997034469	
X_Dimension	Time	
X0	0.0000000000000000E+0	
Delta_X	0.010000	
***End_of_Header***		
X_Value	Untitled	Comment
0.000000	24.548137
0.010000	24.548137
0.020000	24.548137
0.030000	24.548137
0.040000	24.548137
0.050000	24.548137
0.060000	24.548137
0.070000	24.548137
0.080000	24.548137
0.090000	24.548137
0.100000	24.548137
0.110000	24.548137
0.120000	24.548137
0.130000	24.548137
0.140000	24.548137
0.150000	24.548137
0.160000	24.548137
0.170000	24.548137
0.180000	24.548137
0.190000	24.548137
0.200000	24.548137
0.210000	24.548137
0.220000	24.548137
0.230000	24.548137
0.240000	24.548137
0.250000	24.548137
0.260000	24.548137
0.270000	24.548137
0.280000	24.548137
0.290000	24.548137
0.300000	24.548137
0.310000	24.548137
0.320000	24.548137
0.330000	24.548137
0.340000	24.548137
0.350000	24.548137
0.360000	24.548137
0.370000	24.548137
0.380000	24.548137
0.390000	24.548137
0.400000	24.548137
0.410000	24.548137
0.420000	24.548137
0.430000	24.548137
0.440000	24.548137
0.450000	24.548137
0.460000	24.548137
0.470000	24.548137
0.480000	24.548137
0.490000	24.548137
0.500000	24.544140
0.510000	24.544140
0.520000	24.544140
0.530000	24.544140
0.540000	24.544140
0.550000	24.544140
0.560000	24.544140
0.570000	24.544140
0.580000	24.544140
0.590000	24.544140
0.600000	24.544140
0.610000	24.544140
0.620000	24.544140
0.630000	24.544140
0.640000	24.544140
0.650000	24.544140
0.660000	24.544140
0.670000	24.544140
0.680000	24.544140
0.690000	24.544140
0.700000	24.544140
0.710000	24.544140
0.720000	24.544140
0.730000	24.544140
0.740000	24.544140
0.750000	24.544140
0.760000	24.544140
0.770000	24.544140
0.780000	24.544140
0.790000	24.544140
0.800000	24.544140
0.810000	24.544140
0.820000	24.544140
0.830000	24.544140
0.840000	24.544140
0.850000	24.544140
0.860000	24.544140
0.870000	24.544140
0.880000	24.544140
0.890000	24.544140
0.900000	24.544140
0.910000	24.544140
0.920000	24.544140
0.930000	24.544140
0.940000	24.544140
0.950000	24.544140
0.960000	24.544140
0.970000	24.544140
0.980000	24.544140
0.990000	24.544140
1.000000	24.598462
1.010000	24.598462
1.020000	24.598462
1.030000	24.598462
1.040000	24.598462
1.050000	24.598462
1.060000	24.598462
1.070000	24.598462
1.080000	24.598462
1.090000	24.598462
1.100000	24.598462
1.110000	24.598462
1.120000	24.598462
1.130000	24.598462
1.140000	24.598462
1.150000	24.598462
1.160000	24.598462
1.170000	24.598462
1.180000	24.598462
1.190000	24.598462
1.200000	24.598462
1.210000	24.598462
1.220000	24.598462
1.230000	24.598462
1.240000	24.598462
1.250000	24.598462
1.260000	24.598462
1.270000	24.598462
1.280000	24.598462
1.290000	24.598462
1.300000	24.598462
1.310000	24.598462
1.320000	24.598462
1.330000	24.598462
1.340000	24.598462
1.350000	24.598462
1.360000	24.598462
1.370000	24.598462
1.380000	24.598462
1.390000	24.598462
1.400000	24.598462
1.410000	24.598462
1.420000	24.598462
1.430000	24.598462
1.440000	24.598462
1.450000	24.598462
1.460000	24.598462
1.470000	24.598462
1.480000	24.598462
1.490000	24.598462
1.500000	24.734028
1.510000	24.734028
1.520000	24.734028
1.530000	24.734028
1.540000	24.734028
1.550000	24.734028
1.560000	24.734028
1.570000	24.734028
1.580000	24.734028
1.590000	24.734028
1.600000	24.734028
1.610000	24.734028
1.620000	24.734028
1.630000	24.734028
1.640000	24.734028
1.650000	24.734028
1.660000	24.734028
1.670000	24.734028
1.680000	24.734028
1.690000	24.734028
1.700000	24.734028
1.710000	24.734028
1.720000	24.734028
1.730000	24.734028
1.740000	24.734028
1.750000	24.734028
1.760000	24.734028
1.770000	24.734028
1.780000	24.734028
1.790000	24.734028
1.800000	24.734028
1.810000	24.734028
1.820000	24.734028
1.830000	24.734028
1.840000	24.734028
1.850000	24.734028
1.860000	24.734028
1.870000	24.734028
1.880000	24.734028
1.890000	24.734028
1.900000	24.734028
1.910000	24.734028
1.920000	24.734028
1.930000	24.734028
1.940000	24.734028
1.950000	24.734028
1.960000	24.734028
1.970000	24.734028
1.980000	24.734028
1.990000	24.734028
2.000000	24.937400
2.010000	24.937400
2.020000	24.937400
2.030000	24.937400
2.040000	24.937400
2.050000	24.937400
2.060000	24.937400
2.070000	24.937400
2.080000	24.937400
2.090000	24.937400
2.100000	24.937400
2.110000	24.937400
2.120000	24.937400
2.130000	24.937400
2.140000	24.937400
2.150000	24.937400
2.160000	24.937400
2.170000	24.937400
2.180000	24.937400
2.190000	24.937400
2.200000	24.937400
2.210000	24.937400
2.220000	24.937400
2.230000	24.937400
2.240000	24.937400
2.250000	24.937400
2.260000	24.937400
2.270000	24.937400
2.280000	24.937400
2.290000	24.937400
2.300000	24.937400
2.310000	24.937400
2.320000	24.937400
2.330000	24.937400
2.340000	24.937400
2.350000	24.937400
2.360000	24.937400
2.370000	24.937400
2.380000	24.937400
2.390000	24.937400
2.400000	24.937400
2.410000	24.937400
2.420000	24.937400
2.430000	24.937400
2.440000	24.937400
2.450000	24.937400
2.460000	24.937400
2.470000	24.937400
2.480000	24.937400
2.490000	24.937400
2.500000	25.190860
2.510000	25.190860
2.520000	25.190860
2.530000	25.190860
2.540000	25.190860
2.550000	25.190860
2.560000	25.190860
2.570000	25.190860
2.580000	25.190860
2.590000	25.190860
2.600000	25.190860
2.610000	25.190860
2.620000	25.190860
2.630000	25.190860
2.640000	25.190860
2.650000	25.190860
2.660000	25.190860
2.670000	25.190860
2.680000	25.190860
2.690000	25.190860
2.700000	25.190860
2.710000	25.190860
2.720000	25.190860
2.730000	25.190860
2.740000	25.190860
2.750000	25.190860
2.760000	25.190860
2.770000	25.190860
2.780000	25.190860
2.790000	25.190860
2.800000	25.190860
2.810000	25.190860
2.820000	25.190860
2.830000	25.190860
2.840000	25.190860
2.850000	25.190860
2.860000	25.190860
2.870000	25.190860
2.880000	25.190860
2.890000	25.190860
2.900000	25.190860
2.910000	25.190860
2.920000	25.190860
2.930000	25.190860
2.940000	25.190860
2.950000	25.190860
2.960000	25.190860
2.970000	25.190860
2.980000	25.190860
2.990000	25.190860
3.000000	25.472733
3.010000	25.472733
3.020000	25.472733
3.030000	25.472733
3.040000	25.472733
3.050000	25.472733
3.060000	25.472733
3.070000	25.472733
3.080000	25.472733
3.090000	25.472733
3.100000	25.472733
3.110000	25.472733
3.120000	25.472733
3.130000	25.472733
3.140000	25.472733
3.150000	25.472733
3.160000	25.472733
3.170000	25.472733
3.180000	25.472733
3.190000	25.472733
3.200000	25.472733
3.210000	25.472733
3.220000	25.472733
3.230000	25.472733
3.240000	25.472733
3.250000	25.472733
3.260000	25.472733
3.270000	25.472733
3.280000	25.472733
3.290000	25.472733
3.300000	25.472733
3.310000	25.472733
3.320000	25.472733
3.330000	25.472733
3.340000	25.472733
3.350000	25.472733
3.360000	25.472733
3.370000	25.472733
3.380000	25.472733
3.390000	25.472733
3.400000	25.472733
3.410000	25.472733
3.420000	25.472733
3.430000	25.472733
3.440000	25.472733
3.450000	25.472733
3.460000	25.472733
3.470000	25.472733
3.480000	25.472733
3.490000	25.472733
3.500000	25.723177
3.510000	25.723177
3.520000	25.723177
3.530000	25.723177
3.540000	25.723177
3.550000	25.723177
3.560000	25.723177
3.570000	25.723177
3.580000	25.723177
3.590000	25.723177
3.600000	25.723177
3.610000	25.723177
3.620000	25.723177
3.630000	25.723177
3.640000	25.723177
3.650000	25.723177
3.660000	25.723177
3.670000	25.723177
3.680000	25.723177
3.690000	25.723177
3.700000	25.723177
3.710000	25.723177
3.720000	25.723177
3.730000	25.723177
3.740000	25.723177
3.750000	25.723177
3.760000	25.723177
3.770000	25.723177
3.780000	25.723177
3.790000	25.723177
3.800000	25.723177
3.810000	25.723177
3.820000	25.723177
3.830000	25.723177
3.840000	25.723177
3.850000	25.723177
3.860000	25.723177
3.870000	25.723177
3.880000	25.723177
3.890000	25.723177
3.900000	25.723177
3.910000	25.723177
3.920000	25.723177
3.930000	25.723177
3.940000	25.723177
3.950000	25.723177
3.960000	25.723177
3.970000	25.723177
3.980000	25.723177
3.990000	25.723177
4.000000	25.910594
4.010000	25.910594
4.020000	25.910594
4.030000	25.910594
4.040000	25.910594
4.050000	25.910594
4.060000	25.910594
4.070000	25.910594
4.080000	25.910594
4.090000	25.910594
4.100000	25.910594
4.110000	25.910594
4.120000	25.910594
4.130000	25.910594
4.140000	25.910594
4.150000	25.910594
4.160000	25.910594
4.170000	25.910594
4.180000	25.910594
4.190000	25.910594
4.200000	25.910594
4.210000	25.910594
4.220000	25.910594
4.230000	25.910594
4.240000	25.910594
4.250000	25.910594
4.260000	25.910594
4.270000	25.910594
4.280000	25.910594
4.290000	25.910594
4.300000	25.910594
4.310000	25.910594
4.320000	25.910594
4.330000	25.910594
4.340000	25.910594
4.350000	25.910594
4.360000	25.910594
4.370000	25.910594
4.380000	25.910594
4.390000	25.910594
4.400000	25.910594
4.410000	25.910594
4.420000	25.910594
4.430000	25.910594
4.440000	25.910594
4.450000	25.910594
4.460000	25.910594
4.470000	25.910594
4.480000	25.910594
4.490000	25.910594
4.500000	26.041575
4.510000	26.041575
4.520000	26.041575
4.530000	26.041575
4.540000	26.041575
4.550000	26.041575
4.560000	26.041575
4.570000	26.041575
4.580000	26.041575
4.590000	26.041575
4.600000	26.041575
4.610000	26.041575
4.620000	26.041575
4.630000	26.041575
4.640000	26.041575
4.650000	26.041575
4.660000	26.041575
4.670000	26.041575
4.680000	26.041575
4.690000	26.041575
4.700000	26.041575
4.710000	26.041575
4.720000	26.041575
4.730000	26.041575
4.740000	26.041575
4.750000	26.041575
4.760000	26.041575
4.770000	26.041575
4.780000	26.041575
4.790000	26.041575
4.800000	26.041575
4.810000	26.041575
4.820000	26.041575
4.830000	26.041575
4.840000	26.041575
4.850000	26.041575
4.860000	26.041575
4.870000	26.041575
4.880000	26.041575
4.890000	26.041575
4.900000	26.041575
4.910000	26.041575
4.920000	26.041575
4.930000	26.041575
4.940000	26.041575
4.950000	26.041575
4.960000	26.041575
4.970000	26.041575
4.980000	26.041575
4.990000	26.041575
5.000000	26.131892
5.010000	26.131892
5.020000	26.131892
5.030000	26.131892
5.040000	26.131892
5.050000	26.131892
5.060000	26.131892
5.070000	26.131892
5.080000	26.131892
5.090000	26.131892
5.100000	26.131892
5.110000	26.131892
5.120000	26.131892
5.130000	26.131892
5.140000	26.131892
5.150000	26.131892
5.160000	26.131892
5.170000	26.131892
5.180000	26.131892
5.190000	26.131892
5.200000	26.131892
5.210000	26.131892
5.220000	26.131892
5.230000	26.131892
5.240000	26.131892
5.250000	26.131892
5.260000	26.131892
5.270000	26.131892
5.280000	26.131892
5.290000	26.131892
5.300000	26.131892
5.310000	26.131892
5.320000	26.131892
5.330000	26.131892
5.340000	26.131892
5.350000	26.131892
5.360000	26.131892
5.370000	26.131892
5.380000	26.131892
5.390000	26.131892
5.400000	26.131892
5.410000	26.131892
5.420000	26.131892
5.430000	26.131892
5.440000	26.131892
5.450000	26.131892
5.460000	26.131892
5.470000	26.131892
5.480000	26.131892
5.490000	26.131892
5.500000	26.189959
5.510000	26.189959
5.520000	26.189959
5.530000	26.189959
5.540000	26.189959
5.550000	26.189959
5.560000	26.189959
5.570000	26.189959
5.580000	26.189959
5.590000	26.189959
5.600000	26.189959
5.610000	26.189959
5.620000	26.189959
5.630000	26.189959
5.640000	26.189959
5.650000	26.189959
5.660000	26.189959
5.670000	26.189959
5.680000	26.189959
5.690000	26.189959
5.700000	26.189959
5.710000	26.189959
5.720000	26.189959
5.730000	26.189959
5.740000	26.189959
5.750000	26.189959
5.760000	26.189959
5.770000	26.189959
5.780000	26.189959
5.790000	26.189959
5.800000	26.189959
5.810000	26.189959
5.820000	26.189959
5.830000	26.189959
5.840000	26.189959
5.850000	26.189959
5.860000	26.189959
5.870000	26.189959
5.880000	26.189959
5.890000	26.189959
5.900000	26.189959
5.910000	26.189959
5.920000	26.189959
5.930000	26.189959
5.940000	26.189959
5.950000	26.189959
5.960000	26.189959
5.970000	26.189959
5.980000	26.189959
5.990000	26.189959
6.000000	26.224807
6.010000	26.224807
6.020000	26.224807
6.030000	26.224807
6.040000	26.224807
6.050000	26.224807
6.060000	26.224807
6.070000	26.224807
6.080000	26.224807
6.090000	26.224807
6.100000	26.224807
6.110000	26.224807
6.120000	26.224807
6.130000	26.224807
6.140000	26.224807
6.150000	26.224807
6.160000	26.224807
6.170000	26.224807
6.180000	26.224807
6.190000	26.224807
6.200000	26.224807
6.210000	26.224807
6.220000	26.224807
6.230000	26.224807
6.240000	26.224807
6.250000	26.224807
6.260000	26.224807
6.270000	26.224807
6.280000	26.224807
6.290000	26.224807
6.300000	26.224807
6.310000	26.224807
6.320000	26.224807
6.330000	26.224807
6.340000	26.224807
6.350000	26.224807
6.360000	26.224807
6.370000	26.224807
6.380000	26.224807
6.390000	26.224807
6.400000	26.224807
6.410000	26.224807
6.420000	26.224807
6.430000	26.224807
6.440000	26.224807
6.450000	26.224807
6.460000	26.224807
6.470000	26.224807
6.480000	26.224807
6.490000	26.224807
6.500000	26.243863
6.510000	26.243863
6.520000	26.243863
6.530000	26.243863
6.540000	26.243863
6.550000	26.243863
6.560000	26.243863
6.570000	26.243863
6.580000	26.243863
6.590000	26.243863
6.600000	26.243863
6.610000	26.243863
6.620000	26.243863
6.630000	26.243863
6.640000	26.243863
6.650000	26.243863
6.660000	26.243863
6.670000	26.243863
6.680000	26.243863
6.690000	26.243863
6.700000	26.243863
6.710000	26.243863
6.720000	26.243863
6.730000	26.243863
6.740000	26.243863
6.750000	26.243863
6.760000	26.243863
6.770000	26.243863
6.780000	26.243863
6.790000	26.243863
6.800000	26.243863
6.810000	26.243863
6.820000	26.243863
6.830000	26.243863
6.840000	26.243863
6.850000	26.243863
6.860000	26.243863
6.870000	26.243863
6.880000	26.243863
6.890000	26.243863
6.900000	26.243863
6.910000	26.243863
6.920000	26.243863
6.930000	26.243863
6.940000	26.243863
6.950000	26.243863
6.960000	26.243863
6.970000	26.243863
6.980000	26.243863
6.990000	26.243863
7.000000	26.251374
7.010000	26.251374
7.020000	26.251374
7.030000	26.251374
7.040000	26.251374
7.050000	26.251374
7.060000	26.251374
7.070000	26.251374
7.080000	26.251374
7.090000	26.251374
7.100000	26.251374
7.110000	26.251374
7.120000	26.251374
7.130000	26.251374
7.140000	26.251374
7.150000	26.251374
7.160000	26.251374
7.170000	26.251374
7.180000	26.251374
7.190000	26.251374
7.200000	26.251374
7.210000	26.251374
7.220000	26.251374
7.230000	26.251374
7.240000	26.251374
7.250000	26.251374
7.260000	26.251374
7.270000	26.251374
7.280000	26.251374
7.290000	26.251374
7.300000	26.251374
7.310000	26.251374
7.320000	26.251374
7.330000	26.251374
7.340000	26.251374
7.350000	26.251374
7.360000	26.251374
7.370000	26.251374
7.380000	26.251374
7.390000	26.251374
7.400000	26.251374
7.410000	26.251374
7.420000	26.251374
7.430000	26.251374
7.440000	26.251374
7.450000	26.251374
7.460000	26.251374
7.470000	26.251374
7.480000	26.251374
7.490000	26.251374
7.500000	26.248834
7.510000	26.248834
7.520000	26.248834
7.530000	26.248834
7.540000	26.248834
7.550000	26.248834
7.560000	26.248834
7.570000	26.248834
7.580000	26.248834
7.590000	26.248834
7.600000	26.248834
7.610000	26.248834
7.620000	26.248834
7.630000	26.248834
7.640000	26.248834
7.650000	26.248834
7.660000	26.248834
7.670000	26.248834
7.680000	26.248834
7.690000	26.248834
7.700000	26.248834
7.710000	26.248834
7.720000	26.248834
7.730000	26.248834
7.740000	26.248834
7.750000	26.248834
7.760000	26.248834
7.770000	26.248834
7.780000	26.248834
7.790000	26.248834
7.800000	26.248834
7.810000	26.248834
7.820000	26.248834
7.830000	26.248834
7.840000	26.248834
7.850000	26.248834
7.860000	26.248834
7.870000	26.248834
7.880000	26.248834
7.890000	26.248834
7.900000	26.248834
7.910000	26.248834
7.920000	26.248834
7.930000	26.248834
7.940000	26.248834
7.950000	26.248834
7.960000	26.248834
7.970000	26.248834
7.980000	26.248834
7.990000	26.248834
8.000000	26.237276
8.010000	26.237276
8.020000	26.237276
8.030000	26.237276
8.040000	26.237276
8.050000	26.237276
8.060000	26.237276
8.070000	26.237276
8.080000	26.237276
8.090000	26.237276
8.100000	26.237276
8.110000	26.237276
8.120000	26.237276
8.130000	26.237276
8.140000	26.237276
8.150000	26.237276
8.160000	26.237276
8.170000	26.237276
8.180000	26.237276
8.190000	26.237276
8.200000	26.237276
8.210000	26.237276
8.220000	26.237276
8.230000	26.237276
8.240000	26.237276
8.250000	26.237276
8.260000	26.237276
8.270000	26.237276
8.280000	26.237276
8.290000	26.237276
8.300000	26.237276
8.310000	26.237276
8.320000	26.237276
8.330000	26.237276
8.340000	26.237276
8.350000	26.237276
8.360000	26.237276
8.370000	26.237276
8.380000	26.237276
8.390000	26.237276
8.400000	26.237276
8.410000	26.237276
8.420000	26.237276
8.430000	26.237276
8.440000	26.237276
8.450000	26.237276
8.460000	26.237276
8.470000	26.237276
8.480000	26.237276
8.490000	26.237276
8.500000	26.218774
8.510000	26.218774
8.520000	26.218774
8.530000	26.218774
8.540000	26.218774
8.550000	26.218774
8.560000	26.218774
8.570000	26.218774
8.580000	26.218774
8.590000	26.218774
8.600000	26.218774
8.610000	26.218774
8.620000	26.218774
8.630000	26.218774
8.640000	26.218774
8.650000	26.218774
8.660000	26.218774
8.670000	26.218774
8.680000	26.218774
8.690000	26.218774
8.700000	26.218774
8.710000	26.218774
8.720000	26.218774
8.730000	26.218774
8.740000	26.218774
8.750000	26.218774
8.760000	26.218774
8.770000	26.218774
8.780000	26.218774
8.790000	26.218774
8.800000	26.218774
8.810000	26.218774
8.820000	26.218774
8.830000	26.218774
8.840000	26.218774
8.850000	26.218774
8.860000	26.218774
8.870000	26.218774
8.880000	26.218774
8.890000	26.218774
8.900000	26.218774
8.910000	26.218774
8.920000	26.218774
8.930000	26.218774
8.940000	26.218774
8.950000	26.218774
8.960000	26.218774
8.970000	26.218774
8.980000	26.218774
8.990000	26.218774
9.000000	26.195895
9.010000	26.195895
9.020000	26.195895
9.030000	26.195895
9.040000	26.195895
9.050000	26.195895
9.060000	26.195895
9.070000	26.195895
9.080000	26.195895
9.090000	26.195895
9.100000	26.195895
9.110000	26.195895
9.120000	26.195895
9.130000	26.195895
9.140000	26.195895
9.150000	26.195895
9.160000	26.195895
9.170000	26.195895
9.180000	26.195895
9.190000	26.195895
9.200000	26.195895
9.210000	26.195895
9.220000	26.195895
9.230000	26.195895
9.240000	26.195895
9.250000	26.195895
9.260000	26.195895
9.270000	26.195895
9.280000	26.195895
9.290000	26.195895
9.300000	26.195895
9.310000	26.195895
9.320000	26.195895
9.330000	26.195895
9.340000	26.195895
9.350000	26.195895
9.360000	26.195895
9.370000	26.195895
9.380000	26.195895
9.390000	26.195895
9.400000	26.195895
9.410000	26.195895
9.420000	26.195895
9.430000	26.195895
9.440000	26.195895
9.450000	26.195895
9.460000	26.195895
9.470000	26.195895
9.480000	26.195895
9.490000	26.195895
9.500000	26.169485
9.510000	26.169485
9.520000	26.169485
9.530000	26.169485
9.540000	26.169485
9.550000	26.169485
9.560000	26.169485
9.570000	26.169485
9.580000	26.169485
9.590000	26.169485
9.600000	26.169485
9.610000	26.169485
9.620000	26.169485
9.630000	26.169485
9.640000	26.169485
9.650000	26.169485
9.660000	26.169485
9.670000	26.169485
9.680000	26.169485
9.690000	26.169485
9.700000	26.169485
9.710000	26.169485
9.720000	26.169485
9.730000	26.169485
9.740000	26.169485
9.750000	26.169485
9.760000	26.169485
9.770000	26.169485
9.780000	26.169485
9.790000	26.169485
9.800000	26.169485
9.810000	26.169485
9.820000	26.169485
9.830000	26.169485
9.840000	26.169485
9.850000	26.169485
9.860000	26.169485
9.870000	26.169485
9.880000	26.169485
9.890000	26.169485
9.900000	26.169485
9.910000	26.169485
9.920000	26.169485
9.930000	26.169485
9.940000	26.169485
9.950000	26.169485
9.960000	26.169485
9.970000	26.169485
9.980000	26.169485
9.990000	26.169485
10.000000	26.140836
10.010000	26.140836
10.020000	26.140836
10.030000	26.140836
10.040000	26.140836
10.050000	26.140836
10.060000	26.140836
10.070000	26.140836
10.080000	26.140836
10.090000	26.140836
10.100000	26.140836
10.110000	26.140836
10.120000	26.140836
10.130000	26.140836
10.140000	26.140836
10.150000	26.140836
10.160000	26.140836
10.170000	26.140836
10.180000	26.140836
10.190000	26.140836
10.200000	26.140836
10.210000	26.140836
10.220000	26.140836
10.230000	26.140836
10.240000	26.140836
10.250000	26.140836
10.260000	26.140836
10.270000	26.140836
10.280000	26.140836
10.290000	26.140836
10.300000	26.140836
10.310000	26.140836
10.320000	26.140836
10.330000	26.140836
10.340000	26.140836
10.350000	26.140836
10.360000	26.140836
10.370000	26.140836
10.380000	26.140836
10.390000	26.140836
10.400000	26.140836
10.410000	26.140836
10.420000	26.140836
10.430000	26.140836
10.440000	26.140836
10.450000	26.140836
10.460000	26.140836
10.470000	26.140836
10.480000	26.140836
10.490000	26.140836
10.500000	26.110442
10.510000	26.110442
10.520000	26.110442
10.530000	26.110442
10.540000	26.110442
10.550000	26.110442
10.560000	26.110442
10.570000	26.110442
10.580000	26.110442
10.590000	26.110442
10.600000	26.110442
10.610000	26.110442
10.620000	26.110442
10.630000	26.110442
10.640000	26.110442
10.650000	26.110442
10.660000	26.110442
10.670000	26.110442
10.680000	26.110442
10.690000	26.110442
10.700000	26.110442
10.710000	26.110442
10.720000	26.110442
10.730000	26.110442
10.740000	26.110442
10.750000	26.110442
10.760000	26.110442
10.770000	26.110442
10.780000	26.110442
10.790000	26.110442
10.800000	26.110442
10.810000	26.110442
10.820000	26.110442
10.830000	26.110442
10.840000	26.110442
10.850000	26.110442
10.860000	26.110442
10.870000	26.110442
10.880000	26.110442
10.890000	26.110442
10.900000	26.110442
10.910000	26.110442
10.920000	26.110442
10.930000	26.110442
10.940000	26.110442
10.950000	26.110442
10.960000	26.110442
10.970000	26.110442
10.980000	26.110442
10.990000	26.110442
11.000000	26.079244
11.010000	26.079244
11.020000	26.079244
11.030000	26.079244
11.040000	26.079244
11.050000	26.079244
11.060000	26.079244
11.070000	26.079244
11.080000	26.079244
11.090000	26.079244
11.100000	26.079244
11.110000	26.079244
11.120000	26.079244
11.130000	26.079244
11.140000	26.079244
11.150000	26.079244
11.160000	26.079244
11.170000	26.079244
11.180000	26.079244
11.190000	26.079244
11.200000	26.079244
11.210000	26.079244
11.220000	26.079244
11.230000	26.079244
11.240000	26.079244
11.250000	26.079244
11.260000	26.079244
11.270000	26.079244
11.280000	26.079244
11.290000	26.079244
11.300000	26.079244
11.310000	26.079244
11.320000	26.079244
11.330000	26.079244
11.340000	26.079244
11.350000	26.079244
11.360000	26.079244
11.370000	26.079244
11.380000	26.079244
11.390000	26.079244
11.400000	26.079244
11.410000	26.079244
11.420000	26.079244
11.430000	26.079244
11.440000	26.079244
11.450000	26.079244
11.460000	26.079244
11.470000	26.079244
11.480000	26.079244
11.490000	26.079244
11.500000	26.047681
11.510000	26.047681
11.520000	26.047681
11.530000	26.047681
11.540000	26.047681
11.550000	26.047681
11.560000	26.047681
11.570000	26.047681
11.580000	26.047681
11.590000	26.047681
11.600000	26.047681
11.610000	26.047681
11.620000	26.047681
11.630000	26.047681
11.640000	26.047681
11.650000	26.047681
11.660000	26.047681
11.670000	26.047681
11.680000	26.047681
11.690000	26.047681
11.700000	26.047681
11.710000	26.047681
11.720000	26.047681
11.730000	26.047681
11.740000	26.047681
11.750000	26.047681
11.760000	26.047681
11.770000	26.047681
11.780000	26.047681
11.790000	26.047681
11.800000	26.047681
11.810000	26.047681
11.820000	26.047681
11.830000	26.047681
11.840000	26.047681
11.850000	26.047681
11.860000	26.047681
11.870000	26.047681
11.880000	26.047681
11.890000	26.047681
11.900000	26.047681
11.910000	26.047681
11.920000	26.047681
11.930000	26.047681
11.940000	26.047681
11.950000	26.047681
11.960000	26.047681
11.970000	26.047681
11.980000	26.047681
11.990000	26.047681
12.000000	26.013673
12.010000	26.013673
12.020000	26.013673
12.030000	26.013673
12.040000	26.013673
12.050000	26.013673
12.060000	26.013673
12.070000	26.013673
12.080000	26.013673
12.090000	26.013673
12.100000	26.013673
12.110000	26.013673
12.120000	26.013673
12.130000	26.013673
12.140000	26.013673
12.150000	26.013673
12.160000	26.013673
12.170000	26.013673
12.180000	26.013673
12.190000	26.013673
12.200000	26.013673
12.210000	26.013673
12.220000	26.013673
12.230000	26.013673
12.240000	26.013673
12.250000	26.013673
12.260000	26.013673
12.270000	26.013673
12.280000	26.013673
12.290000	26.013673
12.300000	26.013673
12.310000	26.013673
12.320000	26.013673
12.330000	26.013673
12.340000	26.013673
12.350000	26.013673
12.360000	26.013673
12.370000	26.013673
12.380000	26.013673
12.390000	26.013673
12.400000	26.013673
12.410000	26.013673
12.420000	26.013673
12.430000	26.013673
12.440000	26.013673
12.450000	26.013673
12.460000	26.013673
12.470000	26.013673
12.480000	26.013673
12.490000	26.013673
12.500000	25.980605
12.510000	25.980605
12.520000	25.980605
12.530000	25.980605
12.540000	25.980605
12.550000	25.980605
12.560000	25.980605
12.570000	25.980605
12.580000	25.980605
12.590000	25.980605
12.600000	25.980605
12.610000	25.980605
12.620000	25.980605
12.630000	25.980605
12.640000	25.980605
12.650000	25.980605
12.660000	25.980605
12.670000	25.980605
12.680000	25.980605
12.690000	25.980605
12.700000	25.980605
12.710000	25.980605
12.720000	25.980605
12.730000	25.980605
12.740000	25.980605
12.750000	25.980605
12.760000	25.980605
12.770000	25.980605
12.780000	25.980605
12.790000	25.980605
12.800000	25.980605
12.810000	25.980605
12.820000	25.980605
12.830000	25.980605
12.840000	25.980605
12.850000	25.980605
12.860000	25.980605
12.870000	25.980605
12.880000	25.980605
12.890000	25.980605
12.900000	25.980605
12.910000	25.980605
12.920000	25.980605
12.930000	25.980605
12.940000	25.980605
12.950000	25.980605
12.960000	25.980605
12.970000	25.980605
12.980000	25.980605
12.990000	25.980605
13.000000	25.948920
13.010000	25.948920
13.020000	25.948920
13.030000	25.948920
13.040000	25.948920
13.050000	25.948920
13.060000	25.948920
13.070000	25.948920
13.080000	25.948920
13.090000	25.948920
13.100000	25.948920
13.110000	25.948920
13.120000	25.948920
13.130000	25.948920
13.140000	25.948920
13.150000	25.948920
13.160000	25.948920
13.170000	25.948920
13.180000	25.948920
13.190000	25.948920
13.200000	25.948920
13.210000	25.948920
13.220000	25.948920
13.230000	25.948920
13.240000	25.948920
13.250000	25.948920
13.260000	25.948920
13.270000	25.948920
13.280000	25.948920
13.290000	25.948920
13.300000	25.948920
13.310000	25.948920
13.320000	25.948920
13.330000	25.948920
13.340000	25.948920
13.350000	25.948920
13.360000	25.948920
13.370000	25.948920
13.380000	25.948920
13.390000	25.948920
13.400000	25.948920
13.410000	25.948920
13.420000	25.948920
13.430000	25.948920
13.440000	25.948920
13.450000	25.948920
13.460000	25.948920
13.470000	25.948920
13.480000	25.948920
13.490000	25.948920
13.500000	25.913126
13.510000	25.913126
13.520000	25.913126
13.530000	25.913126
13.540000	25.913126
13.550000	25.913126
13.560000	25.913126
13.570000	25.913126
13.580000	25.913126
13.590000	25.913126
13.600000	25.913126
13.610000	25.913126
13.620000	25.913126
13.630000	25.913126
13.640000	25.913126
13.650000	25.913126
13.660000	25.913126
13.670000	25.913126
13.680000	25.913126
13.690000	25.913126
13.700000	25.913126
13.710000	25.913126
13.720000	25.913126
13.730000	25.913126
13.740000	25.913126
13.750000	25.913126
13.760000	25.913126
13.770000	25.913126
13.780000	25.913126
13.790000	25.913126
13.800000	25.913126
13.810000	25.913126
13.820000	25.913126
13.830000	25.913126
13.840000	25.913126
13.850000	25.913126
13.860000	25.913126
13.870000	25.913126
13.880000	25.913126
13.890000	25.913126
13.900000	25.913126
13.910000	25.913126
13.920000	25.913126
13.930000	25.913126
13.940000	25.913126
13.950000	25.913126
13.960000	25.913126
13.970000	25.913126
13.980000	25.913126
13.990000	25.913126
14.000000	25.876348
14.010000	25.876348
14.020000	25.876348
14.030000	25.876348
14.040000	25.876348
14.050000	25.876348
14.060000	25.876348
14.070000	25.876348
14.080000	25.876348
14.090000	25.876348
14.100000	25.876348
14.110000	25.876348
14.120000	25.876348
14.130000	25.876348
14.140000	25.876348
14.150000	25.876348
14.160000	25.876348
14.170000	25.876348
14.180000	25.876348
14.190000	25.876348
14.200000	25.876348
14.210000	25.876348
14.220000	25.876348
14.230000	25.876348
14.240000	25.876348
14.250000	25.876348
14.260000	25.876348
14.270000	25.876348
14.280000	25.876348
14.290000	25.876348
14.300000	25.876348
14.310000	25.876348
14.320000	25.876348
14.330000	25.876348
14.340000	25.876348
14.350000	25.876348
14.360000	25.876348
14.370000	25.876348
14.380000	25.876348
14.390000	25.876348
14.400000	25.876348
14.410000	25.876348
14.420000	25.876348
14.430000	25.876348
14.440000	25.876348
14.450000	25.876348
14.460000	25.876348
14.470000	25.876348
14.480000	25.876348
14.490000	25.876348
14.500000	25.844394
14.510000	25.844394
14.520000	25.844394
14.530000	25.844394
14.540000	25.844394
14.550000	25.844394
14.560000	25.844394
14.570000	25.844394
14.580000	25.844394
14.590000	25.844394
14.600000	25.844394
14.610000	25.844394
14.620000	25.844394
14.630000	25.844394
14.640000	25.844394
14.650000	25.844394
14.660000	25.844394
14.670000	25.844394
14.680000	25.844394
14.690000	25.844394
14.700000	25.844394
14.710000	25.844394
14.720000	25.844394
14.730000	25.844394
14.740000	25.844394
14.750000	25.844394
14.760000	25.844394
14.770000	25.844394
14.780000	25.844394
14.790000	25.844394
14.800000	25.844394
14.810000	25.844394
14.820000	25.844394
14.830000	25.844394
14.840000	25.844394
14.850000	25.844394
14.860000	25.844394
14.870000	25.844394
14.880000	25.844394
14.890000	25.844394
14.900000	25.844394
14.910000	25.844394
14.920000	25.844394
14.930000	25.844394
14.940000	25.844394
14.950000	25.844394
14.960000	25.844394
14.970000	25.844394
14.980000	25.844394
14.990000	25.844394
15.000000	25.815447
15.010000	25.815447
15.020000	25.815447
15.030000	25.815447
15.040000	25.815447
15.050000	25.815447
15.060000	25.815447
15.070000	25.815447
15.080000	25.815447
15.090000	25.815447
15.100000	25.815447
15.110000	25.815447
15.120000	25.815447
15.130000	25.815447
15.140000	25.815447
15.150000	25.815447
15.160000	25.815447
15.170000	25.815447
15.180000	25.815447
15.190000	25.815447
15.200000	25.815447
15.210000	25.815447
15.220000	25.815447
15.230000	25.815447
15.240000	25.815447
15.250000	25.815447
15.260000	25.815447
15.270000	25.815447
15.280000	25.815447
15.290000	25.815447
15.300000	25.815447
15.310000	25.815447
15.320000	25.815447
15.330000	25.815447
15.340000	25.815447
15.350000	25.815447
15.360000	25.815447
15.370000	25.815447
15.380000	25.815447
15.390000	25.815447
15.400000	25.815447
15.410000	25.815447
15.420000	25.815447
15.430000	25.815447
15.440000	25.815447
15.450000	25.815447
15.460000	25.815447
15.470000	25.815447
15.480000	25.815447
15.490000	25.815447
15.500000	25.787961
15.510000	25.787961
15.520000	25.787961
15.530000	25.787961
15.540000	25.787961
15.550000	25.787961
15.560000	25.787961
15.570000	25.787961
15.580000	25.787961
15.590000	25.787961
15.600000	25.787961
15.610000	25.787961
15.620000	25.787961
15.630000	25.787961
15.640000	25.787961
15.650000	25.787961
15.660000	25.787961
15.670000	25.787961
15.680000	25.787961
15.690000	25.787961
15.700000	25.787961
15.710000	25.787961
15.720000	25.787961
15.730000	25.787961
15.740000	25.787961
15.750000	25.787961
15.760000	25.787961
15.770000	25.787961
15.780000	25.787961
15.790000	25.787961
15.800000	25.787961
15.810000	25.787961
15.820000	25.787961
15.830000	25.787961
15.840000	25.787961
15.850000	25.787961
15.860000	25.787961
15.870000	25.787961
15.880000	25.787961
15.890000	25.787961
15.900000	25.787961
15.910000	25.787961
15.920000	25.787961
15.930000	25.787961
15.940000	25.787961
15.950000	25.787961
15.960000	25.787961
15.970000	25.787961
15.980000	25.787961
15.990000	25.787961
16.000000	25.758599
16.010000	25.758599
16.020000	25.758599
16.030000	25.758599
16.040000	25.758599
16.050000	25.758599
16.060000	25.758599
16.070000	25.758599
16.080000	25.758599
16.090000	25.758599
16.100000	25.758599
16.110000	25.758599
16.120000	25.758599
16.130000	25.758599
16.140000	25.758599
16.150000	25.758599
16.160000	25.758599
16.170000	25.758599
16.180000	25.758599
16.190000	25.758599
16.200000	25.758599
16.210000	25.758599
16.220000	25.758599
16.230000	25.758599
16.240000	25.758599
16.250000	25.758599
16.260000	25.758599
16.270000	25.758599
16.280000	25.758599
16.290000	25.758599
16.300000	25.758599
16.310000	25.758599
16.320000	25.758599
16.330000	25.758599
16.340000	25.758599
16.350000	25.758599
16.360000	25.758599
16.370000	25.758599
16.380000	25.758599
16.390000	25.758599
16.400000	25.758599
16.410000	25.758599
16.420000	25.758599
16.430000	25.758599
16.440000	25.758599
16.450000	25.758599
16.460000	25.758599
16.470000	25.758599
16.480000	25.758599
16.490000	25.758599
16.500000	25.727521
16.510000	25.727521
16.520000	25.727521
16.530000	25.727521
16.540000	25.727521
16.550000	25.727521
16.560000	25.727521
16.570000	25.727521
16.580000	25.727521
16.590000	25.727521
16.600000	25.727521
16.610000	25.727521
16.620000	25.727521
16.630000	25.727521
16.640000	25.727521
16.650000	25.727521
16.660000	25.727521
16.670000	25.727521
16.680000	25.727521
16.690000	25.727521
16.700000	25.727521
16.710000	25.727521
16.720000	25.727521
16.730000	25.727521
16.740000	25.727521
16.750000	25.727521
16.760000	25.727521
16.770000	25.727521
16.780000	25.727521
16.790000	25.727521
16.800000	25.727521
16.810000	25.727521
16.820000	25.727521
16.830000	25.727521
16.840000	25.727521
16.850000	25.727521
16.860000	25.727521
16.870000	25.727521
16.880000	25.727521
16.890000	25.727521
16.900000	25.727521
16.910000	25.727521
16.920000	25.727521
16.930000	25.727521
16.940000	25.727521
16.950000	25.727521
16.960000	25.727521
16.970000	25.727521
16.980000	25.727521
16.990000	25.727521
17.000000	25.699356
17.010000	25.699356
17.020000	25.699356
17.030000	25.699356
17.040000	25.699356
17.050000	25.699356
17.060000	25.699356
17.070000	25.699356
17.080000	25.699356
17.090000	25.699356
17.100000	25.699356
17.110000	25.699356
17.120000	25.699356
17.130000	25.699356
17.140000	25.699356
17.150000	25.699356
17.160000	25.699356
17.170000	25.699356
17.180000	25.699356
17.190000	25.699356
17.200000	25.699356
17.210000	25.699356
17.220000	25.699356
17.230000	25.699356
17.240000	25.699356
17.250000	25.699356
17.260000	25.699356
17.270000	25.699356
17.280000	25.699356
17.290000	25.699356
17.300000	25.699356
17.310000	25.699356
17.320000	25.699356
17.330000	25.699356
17.340000	25.699356
17.350000	25.699356
17.360000	25.699356
17.370000	25.699356
17.380000	25.699356
17.390000	25.699356
17.400000	25.699356
17.410000	25.699356
17.420000	25.699356
17.430000	25.699356
17.440000	25.699356
17.450000	25.699356
17.460000	25.699356
17.470000	25.699356
17.480000	25.699356
17.490000	25.699356
