LabVIEW Measurement	
Writer_Version	2
Reader_Version	2
Separator	Tab
Decimal_Separator	.
Multi_Headings	No
X_Columns	One
Time_Pref	Absolute
Operator	biomech-dyno
Date	2023/04/27
Time	17:41:55.9338632999999876419
***End_of_Header***	
	
Channels	1	
Samples	10	
Date	2023/04/27	
Time	18:11:26.2463458999998258402	
X_Dimension	Time	
X0	0.0000000000000000E+0	
Delta_X	0.010000	
***End_of_Header***		
X_Value	Untitled	Comment
0.000000	25.120472
0.010000	25.120472
0.020000	25.120472
0.030000	25.120472
0.040000	25.120472
0.050000	25.120472
0.060000	25.120472
0.070000	25.120472
0.080000	25.120472
0.090000	25.120472
0.100000	25.120472
0.110000	25.120472
0.120000	25.120472
0.130000	25.120472
0.140000	25.120472
0.150000	25.120472
0.160000	25.120472
0.170000	25.120472
0.180000	25.120472
0.190000	25.120472
0.200000	25.120472
0.210000	25.120472
0.220000	25.120472
0.230000	25.120472
0.240000	25.120472
0.250000	25.120472
0.260000	25.120472
0.270000	25.120472
0.280000	25.120472
0.290000	25.120472
0.300000	25.120472
0.310000	25.120472
0.320000	25.120472
0.330000	25.120472
0.340000	25.120472
0.350000	25.120472
0.360000	25.120472
0.370000	25.120472
0.380000	25.120472
0.390000	25.120472
0.400000	25.120472
0.410000	25.120472
0.420000	25.120472
0.430000	25.120472
0.440000	25.120472
0.450000	25.120472
0.460000	25.120472
0.470000	25.120472
0.480000	25.120472
0.490000	25.120472
0.500000	25.122064
0.510000	25.122064
0.520000	25.122064
0.530000	25.122064
0.540000	25.122064
0.550000	25.122064
0.560000	25.122064
0.570000	25.122064
0.580000	25.122064
0.590000	25.122064
0.600000	25.122064
0.610000	25.122064
0.620000	25.122064
0.630000	25.122064
0.640000	25.122064
0.650000	25.122064
0.660000	25.122064
0.670000	25.122064
0.680000	25.122064
0.690000	25.122064
0.700000	25.122064
0.710000	25.122064
0.720000	25.122064
0.730000	25.122064
0.740000	25.122064
0.750000	25.122064
0.760000	25.122064
0.770000	25.122064
0.780000	25.122064
0.790000	25.122064
0.800000	25.122064
0.810000	25.122064
0.820000	25.122064
0.830000	25.122064
0.840000	25.122064
0.850000	25.122064
0.860000	25.122064
0.870000	25.122064
0.880000	25.122064
0.890000	25.122064
0.900000	25.122064
0.910000	25.122064
0.920000	25.122064
0.930000	25.122064
0.940000	25.122064
0.950000	25.122064
0.960000	25.122064
0.970000	25.122064
0.980000	25.122064
0.990000	25.122064
1.000000	25.121909
1.010000	25.121909
1.020000	25.121909
1.030000	25.121909
1.040000	25.121909
1.050000	25.121909
1.060000	25.121909
1.070000	25.121909
1.080000	25.121909
1.090000	25.121909
1.100000	25.121909
1.110000	25.121909
1.120000	25.121909
1.130000	25.121909
1.140000	25.121909
1.150000	25.121909
1.160000	25.121909
1.170000	25.121909
1.180000	25.121909
1.190000	25.121909
1.200000	25.121909
1.210000	25.121909
1.220000	25.121909
1.230000	25.121909
1.240000	25.121909
1.250000	25.121909
1.260000	25.121909
1.270000	25.121909
1.280000	25.121909
1.290000	25.121909
1.300000	25.121909
1.310000	25.121909
1.320000	25.121909
1.330000	25.121909
1.340000	25.121909
1.350000	25.121909
1.360000	25.121909
1.370000	25.121909
1.380000	25.121909
1.390000	25.121909
1.400000	25.121909
1.410000	25.121909
1.420000	25.121909
1.430000	25.121909
1.440000	25.121909
1.450000	25.121909
1.460000	25.121909
1.470000	25.121909
1.480000	25.121909
1.490000	25.121909
1.500000	25.123389
1.510000	25.123389
1.520000	25.123389
1.530000	25.123389
1.540000	25.123389
1.550000	25.123389
1.560000	25.123389
1.570000	25.123389
1.580000	25.123389
1.590000	25.123389
1.600000	25.123389
1.610000	25.123389
1.620000	25.123389
1.630000	25.123389
1.640000	25.123389
1.650000	25.123389
1.660000	25.123389
1.670000	25.123389
1.680000	25.123389
1.690000	25.123389
1.700000	25.123389
1.710000	25.123389
1.720000	25.123389
1.730000	25.123389
1.740000	25.123389
1.750000	25.123389
1.760000	25.123389
1.770000	25.123389
1.780000	25.123389
1.790000	25.123389
1.800000	25.123389
1.810000	25.123389
1.820000	25.123389
1.830000	25.123389
1.840000	25.123389
1.850000	25.123389
1.860000	25.123389
1.870000	25.123389
1.880000	25.123389
1.890000	25.123389
1.900000	25.123389
1.910000	25.123389
1.920000	25.123389
1.930000	25.123389
1.940000	25.123389
1.950000	25.123389
1.960000	25.123389
1.970000	25.123389
1.980000	25.123389
1.990000	25.123389
2.000000	25.125273
2.010000	25.125273
2.020000	25.125273
2.030000	25.125273
2.040000	25.125273
2.050000	25.125273
2.060000	25.125273
2.070000	25.125273
2.080000	25.125273
2.090000	25.125273
2.100000	25.125273
2.110000	25.125273
2.120000	25.125273
2.130000	25.125273
2.140000	25.125273
2.150000	25.125273
2.160000	25.125273
2.170000	25.125273
2.180000	25.125273
2.190000	25.125273
2.200000	25.125273
2.210000	25.125273
2.220000	25.125273
2.230000	25.125273
2.240000	25.125273
2.250000	25.125273
2.260000	25.125273
2.270000	25.125273
2.280000	25.125273
2.290000	25.125273
2.300000	25.125273
2.310000	25.125273
2.320000	25.125273
2.330000	25.125273
2.340000	25.125273
2.350000	25.125273
2.360000	25.125273
2.370000	25.125273
2.380000	25.125273
2.390000	25.125273
2.400000	25.125273
2.410000	25.125273
2.420000	25.125273
2.430000	25.125273
2.440000	25.125273
2.450000	25.125273
2.460000	25.125273
2.470000	25.125273
2.480000	25.125273
2.490000	25.125273
2.500000	25.128818
2.510000	25.128818
2.520000	25.128818
2.530000	25.128818
2.540000	25.128818
2.550000	25.128818
2.560000	25.128818
2.570000	25.128818
2.580000	25.128818
2.590000	25.128818
2.600000	25.128818
2.610000	25.128818
2.620000	25.128818
2.630000	25.128818
2.640000	25.128818
2.650000	25.128818
2.660000	25.128818
2.670000	25.128818
2.680000	25.128818
2.690000	25.128818
2.700000	25.128818
2.710000	25.128818
2.720000	25.128818
2.730000	25.128818
2.740000	25.128818
2.750000	25.128818
2.760000	25.128818
2.770000	25.128818
2.780000	25.128818
2.790000	25.128818
2.800000	25.128818
2.810000	25.128818
2.820000	25.128818
2.830000	25.128818
2.840000	25.128818
2.850000	25.128818
2.860000	25.128818
2.870000	25.128818
2.880000	25.128818
2.890000	25.128818
2.900000	25.128818
2.910000	25.128818
2.920000	25.128818
2.930000	25.128818
2.940000	25.128818
2.950000	25.128818
2.960000	25.128818
2.970000	25.128818
2.980000	25.128818
2.990000	25.128818
3.000000	25.131571
3.010000	25.131571
3.020000	25.131571
3.030000	25.131571
3.040000	25.131571
3.050000	25.131571
3.060000	25.131571
3.070000	25.131571
3.080000	25.131571
3.090000	25.131571
3.100000	25.131571
3.110000	25.131571
3.120000	25.131571
3.130000	25.131571
3.140000	25.131571
3.150000	25.131571
3.160000	25.131571
3.170000	25.131571
3.180000	25.131571
3.190000	25.131571
3.200000	25.131571
3.210000	25.131571
3.220000	25.131571
3.230000	25.131571
3.240000	25.131571
3.250000	25.131571
3.260000	25.131571
3.270000	25.131571
3.280000	25.131571
3.290000	25.131571
3.300000	25.131571
3.310000	25.131571
3.320000	25.131571
3.330000	25.131571
3.340000	25.131571
3.350000	25.131571
3.360000	25.131571
3.370000	25.131571
3.380000	25.131571
3.390000	25.131571
3.400000	25.131571
3.410000	25.131571
3.420000	25.131571
3.430000	25.131571
3.440000	25.131571
3.450000	25.131571
3.460000	25.131571
3.470000	25.131571
3.480000	25.131571
3.490000	25.131571
3.500000	25.131906
3.510000	25.131906
3.520000	25.131906
3.530000	25.131906
3.540000	25.131906
3.550000	25.131906
3.560000	25.131906
3.570000	25.131906
3.580000	25.131906
3.590000	25.131906
3.600000	25.131906
3.610000	25.131906
3.620000	25.131906
3.630000	25.131906
3.640000	25.131906
3.650000	25.131906
3.660000	25.131906
3.670000	25.131906
3.680000	25.131906
3.690000	25.131906
3.700000	25.131906
3.710000	25.131906
3.720000	25.131906
3.730000	25.131906
3.740000	25.131906
3.750000	25.131906
3.760000	25.131906
3.770000	25.131906
3.780000	25.131906
3.790000	25.131906
3.800000	25.131906
3.810000	25.131906
3.820000	25.131906
3.830000	25.131906
3.840000	25.131906
3.850000	25.131906
3.860000	25.131906
3.870000	25.131906
3.880000	25.131906
3.890000	25.131906
3.900000	25.131906
3.910000	25.131906
3.920000	25.131906
3.930000	25.131906
3.940000	25.131906
3.950000	25.131906
3.960000	25.131906
3.970000	25.131906
3.980000	25.131906
3.990000	25.131906
4.000000	25.133515
4.010000	25.133515
4.020000	25.133515
4.030000	25.133515
4.040000	25.133515
4.050000	25.133515
4.060000	25.133515
4.070000	25.133515
4.080000	25.133515
4.090000	25.133515
4.100000	25.133515
4.110000	25.133515
4.120000	25.133515
4.130000	25.133515
4.140000	25.133515
4.150000	25.133515
4.160000	25.133515
4.170000	25.133515
4.180000	25.133515
4.190000	25.133515
4.200000	25.133515
4.210000	25.133515
4.220000	25.133515
4.230000	25.133515
4.240000	25.133515
4.250000	25.133515
4.260000	25.133515
4.270000	25.133515
4.280000	25.133515
4.290000	25.133515
4.300000	25.133515
4.310000	25.133515
4.320000	25.133515
4.330000	25.133515
4.340000	25.133515
4.350000	25.133515
4.360000	25.133515
4.370000	25.133515
4.380000	25.133515
4.390000	25.133515
4.400000	25.133515
4.410000	25.133515
4.420000	25.133515
4.430000	25.133515
4.440000	25.133515
4.450000	25.133515
4.460000	25.133515
4.470000	25.133515
4.480000	25.133515
4.490000	25.133515
4.500000	25.134564
4.510000	25.134564
4.520000	25.134564
4.530000	25.134564
4.540000	25.134564
4.550000	25.134564
4.560000	25.134564
4.570000	25.134564
4.580000	25.134564
4.590000	25.134564
4.600000	25.134564
4.610000	25.134564
4.620000	25.134564
4.630000	25.134564
4.640000	25.134564
4.650000	25.134564
4.660000	25.134564
4.670000	25.134564
4.680000	25.134564
4.690000	25.134564
4.700000	25.134564
4.710000	25.134564
4.720000	25.134564
4.730000	25.134564
4.740000	25.134564
4.750000	25.134564
4.760000	25.134564
4.770000	25.134564
4.780000	25.134564
4.790000	25.134564
4.800000	25.134564
4.810000	25.134564
4.820000	25.134564
4.830000	25.134564
4.840000	25.134564
4.850000	25.134564
4.860000	25.134564
4.870000	25.134564
4.880000	25.134564
4.890000	25.134564
4.900000	25.134564
4.910000	25.134564
4.920000	25.134564
4.930000	25.134564
4.940000	25.134564
4.950000	25.134564
4.960000	25.134564
4.970000	25.134564
4.980000	25.134564
4.990000	25.134564
5.000000	25.135468
5.010000	25.135468
5.020000	25.135468
5.030000	25.135468
5.040000	25.135468
5.050000	25.135468
5.060000	25.135468
5.070000	25.135468
5.080000	25.135468
5.090000	25.135468
5.100000	25.135468
5.110000	25.135468
5.120000	25.135468
5.130000	25.135468
5.140000	25.135468
5.150000	25.135468
5.160000	25.135468
5.170000	25.135468
5.180000	25.135468
5.190000	25.135468
5.200000	25.135468
5.210000	25.135468
5.220000	25.135468
5.230000	25.135468
5.240000	25.135468
5.250000	25.135468
5.260000	25.135468
5.270000	25.135468
5.280000	25.135468
5.290000	25.135468
5.300000	25.135468
5.310000	25.135468
5.320000	25.135468
5.330000	25.135468
5.340000	25.135468
5.350000	25.135468
5.360000	25.135468
5.370000	25.135468
5.380000	25.135468
5.390000	25.135468
5.400000	25.135468
5.410000	25.135468
5.420000	25.135468
5.430000	25.135468
5.440000	25.135468
5.450000	25.135468
5.460000	25.135468
5.470000	25.135468
5.480000	25.135468
5.490000	25.135468
5.500000	25.135992
5.510000	25.135992
5.520000	25.135992
5.530000	25.135992
5.540000	25.135992
5.550000	25.135992
5.560000	25.135992
5.570000	25.135992
5.580000	25.135992
5.590000	25.135992
5.600000	25.135992
5.610000	25.135992
5.620000	25.135992
5.630000	25.135992
5.640000	25.135992
5.650000	25.135992
5.660000	25.135992
5.670000	25.135992
5.680000	25.135992
5.690000	25.135992
5.700000	25.135992
5.710000	25.135992
5.720000	25.135992
5.730000	25.135992
5.740000	25.135992
5.750000	25.135992
5.760000	25.135992
5.770000	25.135992
5.780000	25.135992
5.790000	25.135992
5.800000	25.135992
5.810000	25.135992
5.820000	25.135992
5.830000	25.135992
5.840000	25.135992
5.850000	25.135992
5.860000	25.135992
5.870000	25.135992
5.880000	25.135992
5.890000	25.135992
5.900000	25.135992
5.910000	25.135992
5.920000	25.135992
5.930000	25.135992
5.940000	25.135992
5.950000	25.135992
5.960000	25.135992
5.970000	25.135992
5.980000	25.135992
5.990000	25.135992
6.000000	25.136466
6.010000	25.136466
6.020000	25.136466
6.030000	25.136466
6.040000	25.136466
6.050000	25.136466
6.060000	25.136466
6.070000	25.136466
6.080000	25.136466
6.090000	25.136466
6.100000	25.136466
6.110000	25.136466
6.120000	25.136466
6.130000	25.136466
6.140000	25.136466
6.150000	25.136466
6.160000	25.136466
6.170000	25.136466
6.180000	25.136466
6.190000	25.136466
6.200000	25.136466
6.210000	25.136466
6.220000	25.136466
6.230000	25.136466
6.240000	25.136466
6.250000	25.136466
6.260000	25.136466
6.270000	25.136466
6.280000	25.136466
6.290000	25.136466
6.300000	25.136466
6.310000	25.136466
6.320000	25.136466
6.330000	25.136466
6.340000	25.136466
6.350000	25.136466
6.360000	25.136466
6.370000	25.136466
6.380000	25.136466
6.390000	25.136466
6.400000	25.136466
6.410000	25.136466
6.420000	25.136466
6.430000	25.136466
6.440000	25.136466
6.450000	25.136466
6.460000	25.136466
6.470000	25.136466
6.480000	25.136466
6.490000	25.136466
6.500000	25.136285
6.510000	25.136285
6.520000	25.136285
6.530000	25.136285
6.540000	25.136285
6.550000	25.136285
6.560000	25.136285
6.570000	25.136285
6.580000	25.136285
6.590000	25.136285
6.600000	25.136285
6.610000	25.136285
6.620000	25.136285
6.630000	25.136285
6.640000	25.136285
6.650000	25.136285
6.660000	25.136285
6.670000	25.136285
6.680000	25.136285
6.690000	25.136285
6.700000	25.136285
6.710000	25.136285
6.720000	25.136285
6.730000	25.136285
6.740000	25.136285
6.750000	25.136285
6.760000	25.136285
6.770000	25.136285
6.780000	25.136285
6.790000	25.136285
6.800000	25.136285
6.810000	25.136285
6.820000	25.136285
6.830000	25.136285
6.840000	25.136285
6.850000	25.136285
6.860000	25.136285
6.870000	25.136285
6.880000	25.136285
6.890000	25.136285
6.900000	25.136285
6.910000	25.136285
6.920000	25.136285
6.930000	25.136285
6.940000	25.136285
6.950000	25.136285
6.960000	25.136285
6.970000	25.136285
6.980000	25.136285
6.990000	25.136285
7.000000	25.135898
7.010000	25.135898
7.020000	25.135898
7.030000	25.135898
7.040000	25.135898
7.050000	25.135898
7.060000	25.135898
7.070000	25.135898
7.080000	25.135898
7.090000	25.135898
7.100000	25.135898
7.110000	25.135898
7.120000	25.135898
7.130000	25.135898
7.140000	25.135898
7.150000	25.135898
7.160000	25.135898
7.170000	25.135898
7.180000	25.135898
7.190000	25.135898
7.200000	25.135898
7.210000	25.135898
7.220000	25.135898
7.230000	25.135898
7.240000	25.135898
7.250000	25.135898
7.260000	25.135898
7.270000	25.135898
7.280000	25.135898
7.290000	25.135898
7.300000	25.135898
7.310000	25.135898
7.320000	25.135898
7.330000	25.135898
7.340000	25.135898
7.350000	25.135898
7.360000	25.135898
7.370000	25.135898
7.380000	25.135898
7.390000	25.135898
7.400000	25.135898
7.410000	25.135898
7.420000	25.135898
7.430000	25.135898
7.440000	25.135898
7.450000	25.135898
7.460000	25.135898
7.470000	25.135898
7.480000	25.135898
7.490000	25.135898
7.500000	25.135666
7.510000	25.135666
7.520000	25.135666
7.530000	25.135666
7.540000	25.135666
7.550000	25.135666
7.560000	25.135666
7.570000	25.135666
7.580000	25.135666
7.590000	25.135666
7.600000	25.135666
7.610000	25.135666
7.620000	25.135666
7.630000	25.135666
7.640000	25.135666
7.650000	25.135666
7.660000	25.135666
7.670000	25.135666
7.680000	25.135666
7.690000	25.135666
7.700000	25.135666
7.710000	25.135666
7.720000	25.135666
7.730000	25.135666
7.740000	25.135666
7.750000	25.135666
7.760000	25.135666
7.770000	25.135666
7.780000	25.135666
7.790000	25.135666
7.800000	25.135666
7.810000	25.135666
7.820000	25.135666
7.830000	25.135666
7.840000	25.135666
7.850000	25.135666
7.860000	25.135666
7.870000	25.135666
7.880000	25.135666
7.890000	25.135666
7.900000	25.135666
7.910000	25.135666
7.920000	25.135666
7.930000	25.135666
7.940000	25.135666
7.950000	25.135666
7.960000	25.135666
7.970000	25.135666
7.980000	25.135666
7.990000	25.135666
8.000000	25.135812
8.010000	25.135812
8.020000	25.135812
8.030000	25.135812
8.040000	25.135812
8.050000	25.135812
8.060000	25.135812
8.070000	25.135812
8.080000	25.135812
8.090000	25.135812
8.100000	25.135812
8.110000	25.135812
8.120000	25.135812
8.130000	25.135812
8.140000	25.135812
8.150000	25.135812
8.160000	25.135812
8.170000	25.135812
8.180000	25.135812
8.190000	25.135812
8.200000	25.135812
8.210000	25.135812
8.220000	25.135812
8.230000	25.135812
8.240000	25.135812
8.250000	25.135812
8.260000	25.135812
8.270000	25.135812
8.280000	25.135812
8.290000	25.135812
8.300000	25.135812
8.310000	25.135812
8.320000	25.135812
8.330000	25.135812
8.340000	25.135812
8.350000	25.135812
8.360000	25.135812
8.370000	25.135812
8.380000	25.135812
8.390000	25.135812
8.400000	25.135812
8.410000	25.135812
8.420000	25.135812
8.430000	25.135812
8.440000	25.135812
8.450000	25.135812
8.460000	25.135812
8.470000	25.135812
8.480000	25.135812
8.490000	25.135812
8.500000	25.136345
8.510000	25.136345
8.520000	25.136345
8.530000	25.136345
8.540000	25.136345
8.550000	25.136345
8.560000	25.136345
8.570000	25.136345
8.580000	25.136345
8.590000	25.136345
8.600000	25.136345
8.610000	25.136345
8.620000	25.136345
8.630000	25.136345
8.640000	25.136345
8.650000	25.136345
8.660000	25.136345
8.670000	25.136345
8.680000	25.136345
8.690000	25.136345
8.700000	25.136345
8.710000	25.136345
8.720000	25.136345
8.730000	25.136345
8.740000	25.136345
8.750000	25.136345
8.760000	25.136345
8.770000	25.136345
8.780000	25.136345
8.790000	25.136345
8.800000	25.136345
8.810000	25.136345
8.820000	25.136345
8.830000	25.136345
8.840000	25.136345
8.850000	25.136345
8.860000	25.136345
8.870000	25.136345
8.880000	25.136345
8.890000	25.136345
8.900000	25.136345
8.910000	25.136345
8.920000	25.136345
8.930000	25.136345
8.940000	25.136345
8.950000	25.136345
8.960000	25.136345
8.970000	25.136345
8.980000	25.136345
8.990000	25.136345
9.000000	25.136844
9.010000	25.136844
9.020000	25.136844
9.030000	25.136844
9.040000	25.136844
9.050000	25.136844
9.060000	25.136844
9.070000	25.136844
9.080000	25.136844
9.090000	25.136844
9.100000	25.136844
9.110000	25.136844
9.120000	25.136844
9.130000	25.136844
9.140000	25.136844
9.150000	25.136844
9.160000	25.136844
9.170000	25.136844
9.180000	25.136844
9.190000	25.136844
9.200000	25.136844
9.210000	25.136844
9.220000	25.136844
9.230000	25.136844
9.240000	25.136844
9.250000	25.136844
9.260000	25.136844
9.270000	25.136844
9.280000	25.136844
9.290000	25.136844
9.300000	25.136844
9.310000	25.136844
9.320000	25.136844
9.330000	25.136844
9.340000	25.136844
9.350000	25.136844
9.360000	25.136844
9.370000	25.136844
9.380000	25.136844
9.390000	25.136844
9.400000	25.136844
9.410000	25.136844
9.420000	25.136844
9.430000	25.136844
9.440000	25.136844
9.450000	25.136844
9.460000	25.136844
9.470000	25.136844
9.480000	25.136844
9.490000	25.136844
9.500000	25.136113
9.510000	25.136113
9.520000	25.136113
9.530000	25.136113
9.540000	25.136113
9.550000	25.136113
9.560000	25.136113
9.570000	25.136113
9.580000	25.136113
9.590000	25.136113
9.600000	25.136113
9.610000	25.136113
9.620000	25.136113
9.630000	25.136113
9.640000	25.136113
9.650000	25.136113
9.660000	25.136113
9.670000	25.136113
9.680000	25.136113
9.690000	25.136113
9.700000	25.136113
9.710000	25.136113
9.720000	25.136113
9.730000	25.136113
9.740000	25.136113
9.750000	25.136113
9.760000	25.136113
9.770000	25.136113
9.780000	25.136113
9.790000	25.136113
9.800000	25.136113
9.810000	25.136113
9.820000	25.136113
9.830000	25.136113
9.840000	25.136113
9.850000	25.136113
9.860000	25.136113
9.870000	25.136113
9.880000	25.136113
9.890000	25.136113
9.900000	25.136113
9.910000	25.136113
9.920000	25.136113
9.930000	25.136113
9.940000	25.136113
9.950000	25.136113
9.960000	25.136113
9.970000	25.136113
9.980000	25.136113
9.990000	25.136113
10.000000	25.134220
10.010000	25.134220
10.020000	25.134220
10.030000	25.134220
10.040000	25.134220
10.050000	25.134220
10.060000	25.134220
10.070000	25.134220
10.080000	25.134220
10.090000	25.134220
10.100000	25.134220
10.110000	25.134220
10.120000	25.134220
10.130000	25.134220
10.140000	25.134220
10.150000	25.134220
10.160000	25.134220
10.170000	25.134220
10.180000	25.134220
10.190000	25.134220
10.200000	25.134220
10.210000	25.134220
10.220000	25.134220
10.230000	25.134220
10.240000	25.134220
10.250000	25.134220
10.260000	25.134220
10.270000	25.134220
10.280000	25.134220
10.290000	25.134220
10.300000	25.134220
10.310000	25.134220
10.320000	25.134220
10.330000	25.134220
10.340000	25.134220
10.350000	25.134220
10.360000	25.134220
10.370000	25.134220
10.380000	25.134220
10.390000	25.134220
10.400000	25.134220
10.410000	25.134220
10.420000	25.134220
10.430000	25.134220
10.440000	25.134220
10.450000	25.134220
10.460000	25.134220
10.470000	25.134220
10.480000	25.134220
10.490000	25.134220
10.500000	25.132336
10.510000	25.132336
10.520000	25.132336
10.530000	25.132336
10.540000	25.132336
10.550000	25.132336
10.560000	25.132336
10.570000	25.132336
10.580000	25.132336
10.590000	25.132336
10.600000	25.132336
10.610000	25.132336
10.620000	25.132336
10.630000	25.132336
10.640000	25.132336
10.650000	25.132336
10.660000	25.132336
10.670000	25.132336
10.680000	25.132336
10.690000	25.132336
10.700000	25.132336
10.710000	25.132336
10.720000	25.132336
10.730000	25.132336
10.740000	25.132336
10.750000	25.132336
10.760000	25.132336
10.770000	25.132336
10.780000	25.132336
10.790000	25.132336
10.800000	25.132336
10.810000	25.132336
10.820000	25.132336
10.830000	25.132336
10.840000	25.132336
10.850000	25.132336
10.860000	25.132336
10.870000	25.132336
10.880000	25.132336
10.890000	25.132336
10.900000	25.132336
10.910000	25.132336
10.920000	25.132336
10.930000	25.132336
10.940000	25.132336
10.950000	25.132336
10.960000	25.132336
10.970000	25.132336
10.980000	25.132336
10.990000	25.132336
11.000000	25.130272
11.010000	25.130272
11.020000	25.130272
11.030000	25.130272
11.040000	25.130272
11.050000	25.130272
11.060000	25.130272
11.070000	25.130272
11.080000	25.130272
11.090000	25.130272
11.100000	25.130272
11.110000	25.130272
11.120000	25.130272
11.130000	25.130272
11.140000	25.130272
11.150000	25.130272
11.160000	25.130272
11.170000	25.130272
11.180000	25.130272
11.190000	25.130272
11.200000	25.130272
11.210000	25.130272
11.220000	25.130272
11.230000	25.130272
11.240000	25.130272
11.250000	25.130272
11.260000	25.130272
11.270000	25.130272
11.280000	25.130272
11.290000	25.130272
11.300000	25.130272
11.310000	25.130272
11.320000	25.130272
11.330000	25.130272
11.340000	25.130272
11.350000	25.130272
11.360000	25.130272
11.370000	25.130272
11.380000	25.130272
11.390000	25.130272
11.400000	25.130272
11.410000	25.130272
11.420000	25.130272
11.430000	25.130272
11.440000	25.130272
11.450000	25.130272
11.460000	25.130272
11.470000	25.130272
11.480000	25.130272
11.490000	25.130272
11.500000	25.127923
11.510000	25.127923
11.520000	25.127923
11.530000	25.127923
11.540000	25.127923
11.550000	25.127923
11.560000	25.127923
11.570000	25.127923
11.580000	25.127923
11.590000	25.127923
11.600000	25.127923
11.610000	25.127923
11.620000	25.127923
11.630000	25.127923
11.640000	25.127923
11.650000	25.127923
11.660000	25.127923
11.670000	25.127923
11.680000	25.127923
11.690000	25.127923
11.700000	25.127923
11.710000	25.127923
11.720000	25.127923
11.730000	25.127923
11.740000	25.127923
11.750000	25.127923
11.760000	25.127923
11.770000	25.127923
11.780000	25.127923
11.790000	25.127923
11.800000	25.127923
11.810000	25.127923
11.820000	25.127923
11.830000	25.127923
11.840000	25.127923
11.850000	25.127923
11.860000	25.127923
11.870000	25.127923
11.880000	25.127923
11.890000	25.127923
11.900000	25.127923
11.910000	25.127923
11.920000	25.127923
11.930000	25.127923
11.940000	25.127923
11.950000	25.127923
11.960000	25.127923
11.970000	25.127923
11.980000	25.127923
11.990000	25.127923
12.000000	25.125609
12.010000	25.125609
12.020000	25.125609
12.030000	25.125609
12.040000	25.125609
12.050000	25.125609
12.060000	25.125609
12.070000	25.125609
12.080000	25.125609
12.090000	25.125609
12.100000	25.125609
12.110000	25.125609
12.120000	25.125609
12.130000	25.125609
12.140000	25.125609
12.150000	25.125609
12.160000	25.125609
12.170000	25.125609
12.180000	25.125609
12.190000	25.125609
12.200000	25.125609
12.210000	25.125609
12.220000	25.125609
12.230000	25.125609
12.240000	25.125609
12.250000	25.125609
12.260000	25.125609
12.270000	25.125609
12.280000	25.125609
12.290000	25.125609
12.300000	25.125609
12.310000	25.125609
12.320000	25.125609
12.330000	25.125609
12.340000	25.125609
12.350000	25.125609
12.360000	25.125609
12.370000	25.125609
12.380000	25.125609
12.390000	25.125609
12.400000	25.125609
12.410000	25.125609
12.420000	25.125609
12.430000	25.125609
12.440000	25.125609
12.450000	25.125609
12.460000	25.125609
12.470000	25.125609
12.480000	25.125609
12.490000	25.125609
12.500000	25.122829
12.510000	25.122829
12.520000	25.122829
12.530000	25.122829
12.540000	25.122829
12.550000	25.122829
12.560000	25.122829
12.570000	25.122829
12.580000	25.122829
12.590000	25.122829
12.600000	25.122829
12.610000	25.122829
12.620000	25.122829
12.630000	25.122829
12.640000	25.122829
12.650000	25.122829
12.660000	25.122829
12.670000	25.122829
12.680000	25.122829
12.690000	25.122829
12.700000	25.122829
12.710000	25.122829
12.720000	25.122829
12.730000	25.122829
12.740000	25.122829
12.750000	25.122829
12.760000	25.122829
12.770000	25.122829
12.780000	25.122829
12.790000	25.122829
12.800000	25.122829
12.810000	25.122829
12.820000	25.122829
12.830000	25.122829
12.840000	25.122829
12.850000	25.122829
12.860000	25.122829
12.870000	25.122829
12.880000	25.122829
12.890000	25.122829
12.900000	25.122829
12.910000	25.122829
12.920000	25.122829
12.930000	25.122829
12.940000	25.122829
12.950000	25.122829
12.960000	25.122829
12.970000	25.122829
12.980000	25.122829
12.990000	25.122829
13.000000	25.120360
13.010000	25.120360
13.020000	25.120360
13.030000	25.120360
13.040000	25.120360
13.050000	25.120360
13.060000	25.120360
13.070000	25.120360
13.080000	25.120360
13.090000	25.120360
13.100000	25.120360
13.110000	25.120360
13.120000	25.120360
13.130000	25.120360
13.140000	25.120360
13.150000	25.120360
13.160000	25.120360
13.170000	25.120360
13.180000	25.120360
13.190000	25.120360
13.200000	25.120360
13.210000	25.120360
13.220000	25.120360
13.230000	25.120360
13.240000	25.120360
13.250000	25.120360
13.260000	25.120360
13.270000	25.120360
13.280000	25.120360
13.290000	25.120360
13.300000	25.120360
13.310000	25.120360
13.320000	25.120360
13.330000	25.120360
13.340000	25.120360
13.350000	25.120360
13.360000	25.120360
13.370000	25.120360
13.380000	25.120360
13.390000	25.120360
13.400000	25.120360
13.410000	25.120360
13.420000	25.120360
13.430000	25.120360
13.440000	25.120360
13.450000	25.120360
13.460000	25.120360
13.470000	25.120360
13.480000	25.120360
13.490000	25.120360
13.500000	25.117933
13.510000	25.117933
13.520000	25.117933
13.530000	25.117933
13.540000	25.117933
13.550000	25.117933
13.560000	25.117933
13.570000	25.117933
13.580000	25.117933
13.590000	25.117933
13.600000	25.117933
13.610000	25.117933
13.620000	25.117933
13.630000	25.117933
13.640000	25.117933
13.650000	25.117933
13.660000	25.117933
13.670000	25.117933
13.680000	25.117933
13.690000	25.117933
13.700000	25.117933
13.710000	25.117933
13.720000	25.117933
13.730000	25.117933
13.740000	25.117933
13.750000	25.117933
13.760000	25.117933
13.770000	25.117933
13.780000	25.117933
13.790000	25.117933
13.800000	25.117933
13.810000	25.117933
13.820000	25.117933
13.830000	25.117933
13.840000	25.117933
13.850000	25.117933
13.860000	25.117933
13.870000	25.117933
13.880000	25.117933
13.890000	25.117933
13.900000	25.117933
13.910000	25.117933
13.920000	25.117933
13.930000	25.117933
13.940000	25.117933
13.950000	25.117933
13.960000	25.117933
13.970000	25.117933
13.980000	25.117933
13.990000	25.117933
14.000000	25.115145
14.010000	25.115145
14.020000	25.115145
14.030000	25.115145
14.040000	25.115145
14.050000	25.115145
14.060000	25.115145
14.070000	25.115145
14.080000	25.115145
14.090000	25.115145
14.100000	25.115145
14.110000	25.115145
14.120000	25.115145
14.130000	25.115145
14.140000	25.115145
14.150000	25.115145
14.160000	25.115145
14.170000	25.115145
14.180000	25.115145
14.190000	25.115145
14.200000	25.115145
14.210000	25.115145
14.220000	25.115145
14.230000	25.115145
14.240000	25.115145
14.250000	25.115145
14.260000	25.115145
14.270000	25.115145
14.280000	25.115145
14.290000	25.115145
14.300000	25.115145
14.310000	25.115145
14.320000	25.115145
14.330000	25.115145
14.340000	25.115145
14.350000	25.115145
14.360000	25.115145
14.370000	25.115145
14.380000	25.115145
14.390000	25.115145
14.400000	25.115145
14.410000	25.115145
14.420000	25.115145
14.430000	25.115145
14.440000	25.115145
14.450000	25.115145
14.460000	25.115145
14.470000	25.115145
14.480000	25.115145
14.490000	25.115145
14.500000	25.112382
14.510000	25.112382
14.520000	25.112382
14.530000	25.112382
14.540000	25.112382
14.550000	25.112382
14.560000	25.112382
14.570000	25.112382
14.580000	25.112382
14.590000	25.112382
14.600000	25.112382
14.610000	25.112382
14.620000	25.112382
14.630000	25.112382
14.640000	25.112382
14.650000	25.112382
14.660000	25.112382
14.670000	25.112382
14.680000	25.112382
14.690000	25.112382
14.700000	25.112382
14.710000	25.112382
14.720000	25.112382
14.730000	25.112382
14.740000	25.112382
14.750000	25.112382
14.760000	25.112382
14.770000	25.112382
14.780000	25.112382
14.790000	25.112382
14.800000	25.112382
14.810000	25.112382
14.820000	25.112382
14.830000	25.112382
14.840000	25.112382
14.850000	25.112382
14.860000	25.112382
14.870000	25.112382
14.880000	25.112382
14.890000	25.112382
14.900000	25.112382
14.910000	25.112382
14.920000	25.112382
14.930000	25.112382
14.940000	25.112382
14.950000	25.112382
14.960000	25.112382
14.970000	25.112382
14.980000	25.112382
14.990000	25.112382
15.000000	25.108983
15.010000	25.108983
15.020000	25.108983
15.030000	25.108983
15.040000	25.108983
15.050000	25.108983
15.060000	25.108983
15.070000	25.108983
15.080000	25.108983
15.090000	25.108983
15.100000	25.108983
15.110000	25.108983
15.120000	25.108983
15.130000	25.108983
15.140000	25.108983
15.150000	25.108983
15.160000	25.108983
15.170000	25.108983
15.180000	25.108983
15.190000	25.108983
15.200000	25.108983
15.210000	25.108983
15.220000	25.108983
15.230000	25.108983
15.240000	25.108983
15.250000	25.108983
15.260000	25.108983
15.270000	25.108983
15.280000	25.108983
15.290000	25.108983
15.300000	25.108983
15.310000	25.108983
15.320000	25.108983
15.330000	25.108983
15.340000	25.108983
15.350000	25.108983
15.360000	25.108983
15.370000	25.108983
15.380000	25.108983
15.390000	25.108983
15.400000	25.108983
15.410000	25.108983
15.420000	25.108983
15.430000	25.108983
15.440000	25.108983
15.450000	25.108983
15.460000	25.108983
15.470000	25.108983
15.480000	25.108983
15.490000	25.108983
15.500000	25.105686
15.510000	25.105686
15.520000	25.105686
15.530000	25.105686
15.540000	25.105686
15.550000	25.105686
15.560000	25.105686
15.570000	25.105686
15.580000	25.105686
15.590000	25.105686
15.600000	25.105686
15.610000	25.105686
15.620000	25.105686
15.630000	25.105686
15.640000	25.105686
15.650000	25.105686
15.660000	25.105686
15.670000	25.105686
15.680000	25.105686
15.690000	25.105686
15.700000	25.105686
15.710000	25.105686
15.720000	25.105686
15.730000	25.105686
15.740000	25.105686
15.750000	25.105686
15.760000	25.105686
15.770000	25.105686
15.780000	25.105686
15.790000	25.105686
15.800000	25.105686
15.810000	25.105686
15.820000	25.105686
15.830000	25.105686
15.840000	25.105686
15.850000	25.105686
15.860000	25.105686
15.870000	25.105686
15.880000	25.105686
15.890000	25.105686
15.900000	25.105686
15.910000	25.105686
15.920000	25.105686
15.930000	25.105686
15.940000	25.105686
15.950000	25.105686
15.960000	25.105686
15.970000	25.105686
15.980000	25.105686
15.990000	25.105686
16.000000	25.101804
16.010000	25.101804
16.020000	25.101804
16.030000	25.101804
16.040000	25.101804
16.050000	25.101804
16.060000	25.101804
16.070000	25.101804
16.080000	25.101804
16.090000	25.101804
16.100000	25.101804
16.110000	25.101804
16.120000	25.101804
16.130000	25.101804
16.140000	25.101804
16.150000	25.101804
16.160000	25.101804
16.170000	25.101804
16.180000	25.101804
16.190000	25.101804
16.200000	25.101804
16.210000	25.101804
16.220000	25.101804
16.230000	25.101804
16.240000	25.101804
16.250000	25.101804
16.260000	25.101804
16.270000	25.101804
16.280000	25.101804
16.290000	25.101804
16.300000	25.101804
16.310000	25.101804
16.320000	25.101804
16.330000	25.101804
16.340000	25.101804
16.350000	25.101804
16.360000	25.101804
16.370000	25.101804
16.380000	25.101804
16.390000	25.101804
16.400000	25.101804
16.410000	25.101804
16.420000	25.101804
16.430000	25.101804
16.440000	25.101804
16.450000	25.101804
16.460000	25.101804
16.470000	25.101804
16.480000	25.101804
16.490000	25.101804
16.500000	25.097646
16.510000	25.097646
16.520000	25.097646
16.530000	25.097646
16.540000	25.097646
16.550000	25.097646
16.560000	25.097646
16.570000	25.097646
16.580000	25.097646
16.590000	25.097646
16.600000	25.097646
16.610000	25.097646
16.620000	25.097646
16.630000	25.097646
16.640000	25.097646
16.650000	25.097646
16.660000	25.097646
16.670000	25.097646
16.680000	25.097646
16.690000	25.097646
16.700000	25.097646
16.710000	25.097646
16.720000	25.097646
16.730000	25.097646
16.740000	25.097646
16.750000	25.097646
16.760000	25.097646
16.770000	25.097646
16.780000	25.097646
16.790000	25.097646
16.800000	25.097646
16.810000	25.097646
16.820000	25.097646
16.830000	25.097646
16.840000	25.097646
16.850000	25.097646
16.860000	25.097646
16.870000	25.097646
16.880000	25.097646
16.890000	25.097646
16.900000	25.097646
16.910000	25.097646
16.920000	25.097646
16.930000	25.097646
16.940000	25.097646
16.950000	25.097646
16.960000	25.097646
16.970000	25.097646
16.980000	25.097646
16.990000	25.097646
17.000000	25.092790
17.010000	25.092790
17.020000	25.092790
17.030000	25.092790
17.040000	25.092790
17.050000	25.092790
17.060000	25.092790
17.070000	25.092790
17.080000	25.092790
17.090000	25.092790
17.100000	25.092790
17.110000	25.092790
17.120000	25.092790
17.130000	25.092790
17.140000	25.092790
17.150000	25.092790
17.160000	25.092790
17.170000	25.092790
17.180000	25.092790
17.190000	25.092790
17.200000	25.092790
17.210000	25.092790
17.220000	25.092790
17.230000	25.092790
17.240000	25.092790
17.250000	25.092790
17.260000	25.092790
17.270000	25.092790
17.280000	25.092790
17.290000	25.092790
17.300000	25.092790
17.310000	25.092790
17.320000	25.092790
17.330000	25.092790
17.340000	25.092790
17.350000	25.092790
17.360000	25.092790
17.370000	25.092790
17.380000	25.092790
17.390000	25.092790
17.400000	25.092790
17.410000	25.092790
17.420000	25.092790
17.430000	25.092790
17.440000	25.092790
17.450000	25.092790
17.460000	25.092790
17.470000	25.092790
17.480000	25.092790
17.490000	25.092790
