LabVIEW Measurement	
Writer_Version	2
Reader_Version	2
Separator	Tab
Decimal_Separator	.
Multi_Headings	No
X_Columns	One
Time_Pref	Absolute
Operator	biomech-dyno
Date	2023/04/27
Time	17:41:55.9338632999999876419
***End_of_Header***	
	
Channels	1	
Samples	10	
Date	2023/04/27	
Time	18:12:31.8583115999995089679	
X_Dimension	Time	
X0	0.0000000000000000E+0	
Delta_X	0.010000	
***End_of_Header***		
X_Value	Untitled	Comment
0.000000	24.516454
0.010000	24.516454
0.020000	24.516454
0.030000	24.516454
0.040000	24.516454
0.050000	24.516454
0.060000	24.516454
0.070000	24.516454
0.080000	24.516454
0.090000	24.516454
0.100000	24.516454
0.110000	24.516454
0.120000	24.516454
0.130000	24.516454
0.140000	24.516454
0.150000	24.516454
0.160000	24.516454
0.170000	24.516454
0.180000	24.516454
0.190000	24.516454
0.200000	24.516454
0.210000	24.516454
0.220000	24.516454
0.230000	24.516454
0.240000	24.516454
0.250000	24.516454
0.260000	24.516454
0.270000	24.516454
0.280000	24.516454
0.290000	24.516454
0.300000	24.516454
0.310000	24.516454
0.320000	24.516454
0.330000	24.516454
0.340000	24.516454
0.350000	24.516454
0.360000	24.516454
0.370000	24.516454
0.380000	24.516454
0.390000	24.516454
0.400000	24.516454
0.410000	24.516454
0.420000	24.516454
0.430000	24.516454
0.440000	24.516454
0.450000	24.516454
0.460000	24.516454
0.470000	24.516454
0.480000	24.516454
0.490000	24.516454
0.500000	24.518345
0.510000	24.518345
0.520000	24.518345
0.530000	24.518345
0.540000	24.518345
0.550000	24.518345
0.560000	24.518345
0.570000	24.518345
0.580000	24.518345
0.590000	24.518345
0.600000	24.518345
0.610000	24.518345
0.620000	24.518345
0.630000	24.518345
0.640000	24.518345
0.650000	24.518345
0.660000	24.518345
0.670000	24.518345
0.680000	24.518345
0.690000	24.518345
0.700000	24.518345
0.710000	24.518345
0.720000	24.518345
0.730000	24.518345
0.740000	24.518345
0.750000	24.518345
0.760000	24.518345
0.770000	24.518345
0.780000	24.518345
0.790000	24.518345
0.800000	24.518345
0.810000	24.518345
0.820000	24.518345
0.830000	24.518345
0.840000	24.518345
0.850000	24.518345
0.860000	24.518345
0.870000	24.518345
0.880000	24.518345
0.890000	24.518345
0.900000	24.518345
0.910000	24.518345
0.920000	24.518345
0.930000	24.518345
0.940000	24.518345
0.950000	24.518345
0.960000	24.518345
0.970000	24.518345
0.980000	24.518345
0.990000	24.518345
1.000000	24.544166
1.010000	24.544166
1.020000	24.544166
1.030000	24.544166
1.040000	24.544166
1.050000	24.544166
1.060000	24.544166
1.070000	24.544166
1.080000	24.544166
1.090000	24.544166
1.100000	24.544166
1.110000	24.544166
1.120000	24.544166
1.130000	24.544166
1.140000	24.544166
1.150000	24.544166
1.160000	24.544166
1.170000	24.544166
1.180000	24.544166
1.190000	24.544166
1.200000	24.544166
1.210000	24.544166
1.220000	24.544166
1.230000	24.544166
1.240000	24.544166
1.250000	24.544166
1.260000	24.544166
1.270000	24.544166
1.280000	24.544166
1.290000	24.544166
1.300000	24.544166
1.310000	24.544166
1.320000	24.544166
1.330000	24.544166
1.340000	24.544166
1.350000	24.544166
1.360000	24.544166
1.370000	24.544166
1.380000	24.544166
1.390000	24.544166
1.400000	24.544166
1.410000	24.544166
1.420000	24.544166
1.430000	24.544166
1.440000	24.544166
1.450000	24.544166
1.460000	24.544166
1.470000	24.544166
1.480000	24.544166
1.490000	24.544166
1.500000	24.605099
1.510000	24.605099
1.520000	24.605099
1.530000	24.605099
1.540000	24.605099
1.550000	24.605099
1.560000	24.605099
1.570000	24.605099
1.580000	24.605099
1.590000	24.605099
1.600000	24.605099
1.610000	24.605099
1.620000	24.605099
1.630000	24.605099
1.640000	24.605099
1.650000	24.605099
1.660000	24.605099
1.670000	24.605099
1.680000	24.605099
1.690000	24.605099
1.700000	24.605099
1.710000	24.605099
1.720000	24.605099
1.730000	24.605099
1.740000	24.605099
1.750000	24.605099
1.760000	24.605099
1.770000	24.605099
1.780000	24.605099
1.790000	24.605099
1.800000	24.605099
1.810000	24.605099
1.820000	24.605099
1.830000	24.605099
1.840000	24.605099
1.850000	24.605099
1.860000	24.605099
1.870000	24.605099
1.880000	24.605099
1.890000	24.605099
1.900000	24.605099
1.910000	24.605099
1.920000	24.605099
1.930000	24.605099
1.940000	24.605099
1.950000	24.605099
1.960000	24.605099
1.970000	24.605099
1.980000	24.605099
1.990000	24.605099
2.000000	24.695333
2.010000	24.695333
2.020000	24.695333
2.030000	24.695333
2.040000	24.695333
2.050000	24.695333
2.060000	24.695333
2.070000	24.695333
2.080000	24.695333
2.090000	24.695333
2.100000	24.695333
2.110000	24.695333
2.120000	24.695333
2.130000	24.695333
2.140000	24.695333
2.150000	24.695333
2.160000	24.695333
2.170000	24.695333
2.180000	24.695333
2.190000	24.695333
2.200000	24.695333
2.210000	24.695333
2.220000	24.695333
2.230000	24.695333
2.240000	24.695333
2.250000	24.695333
2.260000	24.695333
2.270000	24.695333
2.280000	24.695333
2.290000	24.695333
2.300000	24.695333
2.310000	24.695333
2.320000	24.695333
2.330000	24.695333
2.340000	24.695333
2.350000	24.695333
2.360000	24.695333
2.370000	24.695333
2.380000	24.695333
2.390000	24.695333
2.400000	24.695333
2.410000	24.695333
2.420000	24.695333
2.430000	24.695333
2.440000	24.695333
2.450000	24.695333
2.460000	24.695333
2.470000	24.695333
2.480000	24.695333
2.490000	24.695333
2.500000	24.807669
2.510000	24.807669
2.520000	24.807669
2.530000	24.807669
2.540000	24.807669
2.550000	24.807669
2.560000	24.807669
2.570000	24.807669
2.580000	24.807669
2.590000	24.807669
2.600000	24.807669
2.610000	24.807669
2.620000	24.807669
2.630000	24.807669
2.640000	24.807669
2.650000	24.807669
2.660000	24.807669
2.670000	24.807669
2.680000	24.807669
2.690000	24.807669
2.700000	24.807669
2.710000	24.807669
2.720000	24.807669
2.730000	24.807669
2.740000	24.807669
2.750000	24.807669
2.760000	24.807669
2.770000	24.807669
2.780000	24.807669
2.790000	24.807669
2.800000	24.807669
2.810000	24.807669
2.820000	24.807669
2.830000	24.807669
2.840000	24.807669
2.850000	24.807669
2.860000	24.807669
2.870000	24.807669
2.880000	24.807669
2.890000	24.807669
2.900000	24.807669
2.910000	24.807669
2.920000	24.807669
2.930000	24.807669
2.940000	24.807669
2.950000	24.807669
2.960000	24.807669
2.970000	24.807669
2.980000	24.807669
2.990000	24.807669
3.000000	24.933711
3.010000	24.933711
3.020000	24.933711
3.030000	24.933711
3.040000	24.933711
3.050000	24.933711
3.060000	24.933711
3.070000	24.933711
3.080000	24.933711
3.090000	24.933711
3.100000	24.933711
3.110000	24.933711
3.120000	24.933711
3.130000	24.933711
3.140000	24.933711
3.150000	24.933711
3.160000	24.933711
3.170000	24.933711
3.180000	24.933711
3.190000	24.933711
3.200000	24.933711
3.210000	24.933711
3.220000	24.933711
3.230000	24.933711
3.240000	24.933711
3.250000	24.933711
3.260000	24.933711
3.270000	24.933711
3.280000	24.933711
3.290000	24.933711
3.300000	24.933711
3.310000	24.933711
3.320000	24.933711
3.330000	24.933711
3.340000	24.933711
3.350000	24.933711
3.360000	24.933711
3.370000	24.933711
3.380000	24.933711
3.390000	24.933711
3.400000	24.933711
3.410000	24.933711
3.420000	24.933711
3.430000	24.933711
3.440000	24.933711
3.450000	24.933711
3.460000	24.933711
3.470000	24.933711
3.480000	24.933711
3.490000	24.933711
3.500000	25.043534
3.510000	25.043534
3.520000	25.043534
3.530000	25.043534
3.540000	25.043534
3.550000	25.043534
3.560000	25.043534
3.570000	25.043534
3.580000	25.043534
3.590000	25.043534
3.600000	25.043534
3.610000	25.043534
3.620000	25.043534
3.630000	25.043534
3.640000	25.043534
3.650000	25.043534
3.660000	25.043534
3.670000	25.043534
3.680000	25.043534
3.690000	25.043534
3.700000	25.043534
3.710000	25.043534
3.720000	25.043534
3.730000	25.043534
3.740000	25.043534
3.750000	25.043534
3.760000	25.043534
3.770000	25.043534
3.780000	25.043534
3.790000	25.043534
3.800000	25.043534
3.810000	25.043534
3.820000	25.043534
3.830000	25.043534
3.840000	25.043534
3.850000	25.043534
3.860000	25.043534
3.870000	25.043534
3.880000	25.043534
3.890000	25.043534
3.900000	25.043534
3.910000	25.043534
3.920000	25.043534
3.930000	25.043534
3.940000	25.043534
3.950000	25.043534
3.960000	25.043534
3.970000	25.043534
3.980000	25.043534
3.990000	25.043534
4.000000	25.124180
4.010000	25.124180
4.020000	25.124180
4.030000	25.124180
4.040000	25.124180
4.050000	25.124180
4.060000	25.124180
4.070000	25.124180
4.080000	25.124180
4.090000	25.124180
4.100000	25.124180
4.110000	25.124180
4.120000	25.124180
4.130000	25.124180
4.140000	25.124180
4.150000	25.124180
4.160000	25.124180
4.170000	25.124180
4.180000	25.124180
4.190000	25.124180
4.200000	25.124180
4.210000	25.124180
4.220000	25.124180
4.230000	25.124180
4.240000	25.124180
4.250000	25.124180
4.260000	25.124180
4.270000	25.124180
4.280000	25.124180
4.290000	25.124180
4.300000	25.124180
4.310000	25.124180
4.320000	25.124180
4.330000	25.124180
4.340000	25.124180
4.350000	25.124180
4.360000	25.124180
4.370000	25.124180
4.380000	25.124180
4.390000	25.124180
4.400000	25.124180
4.410000	25.124180
4.420000	25.124180
4.430000	25.124180
4.440000	25.124180
4.450000	25.124180
4.460000	25.124180
4.470000	25.124180
4.480000	25.124180
4.490000	25.124180
4.500000	25.181571
4.510000	25.181571
4.520000	25.181571
4.530000	25.181571
4.540000	25.181571
4.550000	25.181571
4.560000	25.181571
4.570000	25.181571
4.580000	25.181571
4.590000	25.181571
4.600000	25.181571
4.610000	25.181571
4.620000	25.181571
4.630000	25.181571
4.640000	25.181571
4.650000	25.181571
4.660000	25.181571
4.670000	25.181571
4.680000	25.181571
4.690000	25.181571
4.700000	25.181571
4.710000	25.181571
4.720000	25.181571
4.730000	25.181571
4.740000	25.181571
4.750000	25.181571
4.760000	25.181571
4.770000	25.181571
4.780000	25.181571
4.790000	25.181571
4.800000	25.181571
4.810000	25.181571
4.820000	25.181571
4.830000	25.181571
4.840000	25.181571
4.850000	25.181571
4.860000	25.181571
4.870000	25.181571
4.880000	25.181571
4.890000	25.181571
4.900000	25.181571
4.910000	25.181571
4.920000	25.181571
4.930000	25.181571
4.940000	25.181571
4.950000	25.181571
4.960000	25.181571
4.970000	25.181571
4.980000	25.181571
4.990000	25.181571
5.000000	25.220993
5.010000	25.220993
5.020000	25.220993
5.030000	25.220993
5.040000	25.220993
5.050000	25.220993
5.060000	25.220993
5.070000	25.220993
5.080000	25.220993
5.090000	25.220993
5.100000	25.220993
5.110000	25.220993
5.120000	25.220993
5.130000	25.220993
5.140000	25.220993
5.150000	25.220993
5.160000	25.220993
5.170000	25.220993
5.180000	25.220993
5.190000	25.220993
5.200000	25.220993
5.210000	25.220993
5.220000	25.220993
5.230000	25.220993
5.240000	25.220993
5.250000	25.220993
5.260000	25.220993
5.270000	25.220993
5.280000	25.220993
5.290000	25.220993
5.300000	25.220993
5.310000	25.220993
5.320000	25.220993
5.330000	25.220993
5.340000	25.220993
5.350000	25.220993
5.360000	25.220993
5.370000	25.220993
5.380000	25.220993
5.390000	25.220993
5.400000	25.220993
5.410000	25.220993
5.420000	25.220993
5.430000	25.220993
5.440000	25.220993
5.450000	25.220993
5.460000	25.220993
5.470000	25.220993
5.480000	25.220993
5.490000	25.220993
5.500000	25.247786
5.510000	25.247786
5.520000	25.247786
5.530000	25.247786
5.540000	25.247786
5.550000	25.247786
5.560000	25.247786
5.570000	25.247786
5.580000	25.247786
5.590000	25.247786
5.600000	25.247786
5.610000	25.247786
5.620000	25.247786
5.630000	25.247786
5.640000	25.247786
5.650000	25.247786
5.660000	25.247786
5.670000	25.247786
5.680000	25.247786
5.690000	25.247786
5.700000	25.247786
5.710000	25.247786
5.720000	25.247786
5.730000	25.247786
5.740000	25.247786
5.750000	25.247786
5.760000	25.247786
5.770000	25.247786
5.780000	25.247786
5.790000	25.247786
5.800000	25.247786
5.810000	25.247786
5.820000	25.247786
5.830000	25.247786
5.840000	25.247786
5.850000	25.247786
5.860000	25.247786
5.870000	25.247786
5.880000	25.247786
5.890000	25.247786
5.900000	25.247786
5.910000	25.247786
5.920000	25.247786
5.930000	25.247786
5.940000	25.247786
5.950000	25.247786
5.960000	25.247786
5.970000	25.247786
5.980000	25.247786
5.990000	25.247786
6.000000	25.263515
6.010000	25.263515
6.020000	25.263515
6.030000	25.263515
6.040000	25.263515
6.050000	25.263515
6.060000	25.263515
6.070000	25.263515
6.080000	25.263515
6.090000	25.263515
6.100000	25.263515
6.110000	25.263515
6.120000	25.263515
6.130000	25.263515
6.140000	25.263515
6.150000	25.263515
6.160000	25.263515
6.170000	25.263515
6.180000	25.263515
6.190000	25.263515
6.200000	25.263515
6.210000	25.263515
6.220000	25.263515
6.230000	25.263515
6.240000	25.263515
6.250000	25.263515
6.260000	25.263515
6.270000	25.263515
6.280000	25.263515
6.290000	25.263515
6.300000	25.263515
6.310000	25.263515
6.320000	25.263515
6.330000	25.263515
6.340000	25.263515
6.350000	25.263515
6.360000	25.263515
6.370000	25.263515
6.380000	25.263515
6.390000	25.263515
6.400000	25.263515
6.410000	25.263515
6.420000	25.263515
6.430000	25.263515
6.440000	25.263515
6.450000	25.263515
6.460000	25.263515
6.470000	25.263515
6.480000	25.263515
6.490000	25.263515
6.500000	25.271039
6.510000	25.271039
6.520000	25.271039
6.530000	25.271039
6.540000	25.271039
6.550000	25.271039
6.560000	25.271039
6.570000	25.271039
6.580000	25.271039
6.590000	25.271039
6.600000	25.271039
6.610000	25.271039
6.620000	25.271039
6.630000	25.271039
6.640000	25.271039
6.650000	25.271039
6.660000	25.271039
6.670000	25.271039
6.680000	25.271039
6.690000	25.271039
6.700000	25.271039
6.710000	25.271039
6.720000	25.271039
6.730000	25.271039
6.740000	25.271039
6.750000	25.271039
6.760000	25.271039
6.770000	25.271039
6.780000	25.271039
6.790000	25.271039
6.800000	25.271039
6.810000	25.271039
6.820000	25.271039
6.830000	25.271039
6.840000	25.271039
6.850000	25.271039
6.860000	25.271039
6.870000	25.271039
6.880000	25.271039
6.890000	25.271039
6.900000	25.271039
6.910000	25.271039
6.920000	25.271039
6.930000	25.271039
6.940000	25.271039
6.950000	25.271039
6.960000	25.271039
6.970000	25.271039
6.980000	25.271039
6.990000	25.271039
7.000000	25.272548
7.010000	25.272548
7.020000	25.272548
7.030000	25.272548
7.040000	25.272548
7.050000	25.272548
7.060000	25.272548
7.070000	25.272548
7.080000	25.272548
7.090000	25.272548
7.100000	25.272548
7.110000	25.272548
7.120000	25.272548
7.130000	25.272548
7.140000	25.272548
7.150000	25.272548
7.160000	25.272548
7.170000	25.272548
7.180000	25.272548
7.190000	25.272548
7.200000	25.272548
7.210000	25.272548
7.220000	25.272548
7.230000	25.272548
7.240000	25.272548
7.250000	25.272548
7.260000	25.272548
7.270000	25.272548
7.280000	25.272548
7.290000	25.272548
7.300000	25.272548
7.310000	25.272548
7.320000	25.272548
7.330000	25.272548
7.340000	25.272548
7.350000	25.272548
7.360000	25.272548
7.370000	25.272548
7.380000	25.272548
7.390000	25.272548
7.400000	25.272548
7.410000	25.272548
7.420000	25.272548
7.430000	25.272548
7.440000	25.272548
7.450000	25.272548
7.460000	25.272548
7.470000	25.272548
7.480000	25.272548
7.490000	25.272548
7.500000	25.269203
7.510000	25.269203
7.520000	25.269203
7.530000	25.269203
7.540000	25.269203
7.550000	25.269203
7.560000	25.269203
7.570000	25.269203
7.580000	25.269203
7.590000	25.269203
7.600000	25.269203
7.610000	25.269203
7.620000	25.269203
7.630000	25.269203
7.640000	25.269203
7.650000	25.269203
7.660000	25.269203
7.670000	25.269203
7.680000	25.269203
7.690000	25.269203
7.700000	25.269203
7.710000	25.269203
7.720000	25.269203
7.730000	25.269203
7.740000	25.269203
7.750000	25.269203
7.760000	25.269203
7.770000	25.269203
7.780000	25.269203
7.790000	25.269203
7.800000	25.269203
7.810000	25.269203
7.820000	25.269203
7.830000	25.269203
7.840000	25.269203
7.850000	25.269203
7.860000	25.269203
7.870000	25.269203
7.880000	25.269203
7.890000	25.269203
7.900000	25.269203
7.910000	25.269203
7.920000	25.269203
7.930000	25.269203
7.940000	25.269203
7.950000	25.269203
7.960000	25.269203
7.970000	25.269203
7.980000	25.269203
7.990000	25.269203
8.000000	25.262923
8.010000	25.262923
8.020000	25.262923
8.030000	25.262923
8.040000	25.262923
8.050000	25.262923
8.060000	25.262923
8.070000	25.262923
8.080000	25.262923
8.090000	25.262923
8.100000	25.262923
8.110000	25.262923
8.120000	25.262923
8.130000	25.262923
8.140000	25.262923
8.150000	25.262923
8.160000	25.262923
8.170000	25.262923
8.180000	25.262923
8.190000	25.262923
8.200000	25.262923
8.210000	25.262923
8.220000	25.262923
8.230000	25.262923
8.240000	25.262923
8.250000	25.262923
8.260000	25.262923
8.270000	25.262923
8.280000	25.262923
8.290000	25.262923
8.300000	25.262923
8.310000	25.262923
8.320000	25.262923
8.330000	25.262923
8.340000	25.262923
8.350000	25.262923
8.360000	25.262923
8.370000	25.262923
8.380000	25.262923
8.390000	25.262923
8.400000	25.262923
8.410000	25.262923
8.420000	25.262923
8.430000	25.262923
8.440000	25.262923
8.450000	25.262923
8.460000	25.262923
8.470000	25.262923
8.480000	25.262923
8.490000	25.262923
8.500000	25.252652
8.510000	25.252652
8.520000	25.252652
8.530000	25.252652
8.540000	25.252652
8.550000	25.252652
8.560000	25.252652
8.570000	25.252652
8.580000	25.252652
8.590000	25.252652
8.600000	25.252652
8.610000	25.252652
8.620000	25.252652
8.630000	25.252652
8.640000	25.252652
8.650000	25.252652
8.660000	25.252652
8.670000	25.252652
8.680000	25.252652
8.690000	25.252652
8.700000	25.252652
8.710000	25.252652
8.720000	25.252652
8.730000	25.252652
8.740000	25.252652
8.750000	25.252652
8.760000	25.252652
8.770000	25.252652
8.780000	25.252652
8.790000	25.252652
8.800000	25.252652
8.810000	25.252652
8.820000	25.252652
8.830000	25.252652
8.840000	25.252652
8.850000	25.252652
8.860000	25.252652
8.870000	25.252652
8.880000	25.252652
8.890000	25.252652
8.900000	25.252652
8.910000	25.252652
8.920000	25.252652
8.930000	25.252652
8.940000	25.252652
8.950000	25.252652
8.960000	25.252652
8.970000	25.252652
8.980000	25.252652
8.990000	25.252652
9.000000	25.241340
9.010000	25.241340
9.020000	25.241340
9.030000	25.241340
9.040000	25.241340
9.050000	25.241340
9.060000	25.241340
9.070000	25.241340
9.080000	25.241340
9.090000	25.241340
9.100000	25.241340
9.110000	25.241340
9.120000	25.241340
9.130000	25.241340
9.140000	25.241340
9.150000	25.241340
9.160000	25.241340
9.170000	25.241340
9.180000	25.241340
9.190000	25.241340
9.200000	25.241340
9.210000	25.241340
9.220000	25.241340
9.230000	25.241340
9.240000	25.241340
9.250000	25.241340
9.260000	25.241340
9.270000	25.241340
9.280000	25.241340
9.290000	25.241340
9.300000	25.241340
9.310000	25.241340
9.320000	25.241340
9.330000	25.241340
9.340000	25.241340
9.350000	25.241340
9.360000	25.241340
9.370000	25.241340
9.380000	25.241340
9.390000	25.241340
9.400000	25.241340
9.410000	25.241340
9.420000	25.241340
9.430000	25.241340
9.440000	25.241340
9.450000	25.241340
9.460000	25.241340
9.470000	25.241340
9.480000	25.241340
9.490000	25.241340
9.500000	25.228961
9.510000	25.228961
9.520000	25.228961
9.530000	25.228961
9.540000	25.228961
9.550000	25.228961
9.560000	25.228961
9.570000	25.228961
9.580000	25.228961
9.590000	25.228961
9.600000	25.228961
9.610000	25.228961
9.620000	25.228961
9.630000	25.228961
9.640000	25.228961
9.650000	25.228961
9.660000	25.228961
9.670000	25.228961
9.680000	25.228961
9.690000	25.228961
9.700000	25.228961
9.710000	25.228961
9.720000	25.228961
9.730000	25.228961
9.740000	25.228961
9.750000	25.228961
9.760000	25.228961
9.770000	25.228961
9.780000	25.228961
9.790000	25.228961
9.800000	25.228961
9.810000	25.228961
9.820000	25.228961
9.830000	25.228961
9.840000	25.228961
9.850000	25.228961
9.860000	25.228961
9.870000	25.228961
9.880000	25.228961
9.890000	25.228961
9.900000	25.228961
9.910000	25.228961
9.920000	25.228961
9.930000	25.228961
9.940000	25.228961
9.950000	25.228961
9.960000	25.228961
9.970000	25.228961
9.980000	25.228961
9.990000	25.228961
10.000000	25.215385
10.010000	25.215385
10.020000	25.215385
10.030000	25.215385
10.040000	25.215385
10.050000	25.215385
10.060000	25.215385
10.070000	25.215385
10.080000	25.215385
10.090000	25.215385
10.100000	25.215385
10.110000	25.215385
10.120000	25.215385
10.130000	25.215385
10.140000	25.215385
10.150000	25.215385
10.160000	25.215385
10.170000	25.215385
10.180000	25.215385
10.190000	25.215385
10.200000	25.215385
10.210000	25.215385
10.220000	25.215385
10.230000	25.215385
10.240000	25.215385
10.250000	25.215385
10.260000	25.215385
10.270000	25.215385
10.280000	25.215385
10.290000	25.215385
10.300000	25.215385
10.310000	25.215385
10.320000	25.215385
10.330000	25.215385
10.340000	25.215385
10.350000	25.215385
10.360000	25.215385
10.370000	25.215385
10.380000	25.215385
10.390000	25.215385
10.400000	25.215385
10.410000	25.215385
10.420000	25.215385
10.430000	25.215385
10.440000	25.215385
10.450000	25.215385
10.460000	25.215385
10.470000	25.215385
10.480000	25.215385
10.490000	25.215385
10.500000	25.201368
10.510000	25.201368
10.520000	25.201368
10.530000	25.201368
10.540000	25.201368
10.550000	25.201368
10.560000	25.201368
10.570000	25.201368
10.580000	25.201368
10.590000	25.201368
10.600000	25.201368
10.610000	25.201368
10.620000	25.201368
10.630000	25.201368
10.640000	25.201368
10.650000	25.201368
10.660000	25.201368
10.670000	25.201368
10.680000	25.201368
10.690000	25.201368
10.700000	25.201368
10.710000	25.201368
10.720000	25.201368
10.730000	25.201368
10.740000	25.201368
10.750000	25.201368
10.760000	25.201368
10.770000	25.201368
10.780000	25.201368
10.790000	25.201368
10.800000	25.201368
10.810000	25.201368
10.820000	25.201368
10.830000	25.201368
10.840000	25.201368
10.850000	25.201368
10.860000	25.201368
10.870000	25.201368
10.880000	25.201368
10.890000	25.201368
10.900000	25.201368
10.910000	25.201368
10.920000	25.201368
10.930000	25.201368
10.940000	25.201368
10.950000	25.201368
10.960000	25.201368
10.970000	25.201368
10.980000	25.201368
10.990000	25.201368
11.000000	25.186383
11.010000	25.186383
11.020000	25.186383
11.030000	25.186383
11.040000	25.186383
11.050000	25.186383
11.060000	25.186383
11.070000	25.186383
11.080000	25.186383
11.090000	25.186383
11.100000	25.186383
11.110000	25.186383
11.120000	25.186383
11.130000	25.186383
11.140000	25.186383
11.150000	25.186383
11.160000	25.186383
11.170000	25.186383
11.180000	25.186383
11.190000	25.186383
11.200000	25.186383
11.210000	25.186383
11.220000	25.186383
11.230000	25.186383
11.240000	25.186383
11.250000	25.186383
11.260000	25.186383
11.270000	25.186383
11.280000	25.186383
11.290000	25.186383
11.300000	25.186383
11.310000	25.186383
11.320000	25.186383
11.330000	25.186383
11.340000	25.186383
11.350000	25.186383
11.360000	25.186383
11.370000	25.186383
11.380000	25.186383
11.390000	25.186383
11.400000	25.186383
11.410000	25.186383
11.420000	25.186383
11.430000	25.186383
11.440000	25.186383
11.450000	25.186383
11.460000	25.186383
11.470000	25.186383
11.480000	25.186383
11.490000	25.186383
11.500000	25.170415
11.510000	25.170415
11.520000	25.170415
11.530000	25.170415
11.540000	25.170415
11.550000	25.170415
11.560000	25.170415
11.570000	25.170415
11.580000	25.170415
11.590000	25.170415
11.600000	25.170415
11.610000	25.170415
11.620000	25.170415
11.630000	25.170415
11.640000	25.170415
11.650000	25.170415
11.660000	25.170415
11.670000	25.170415
11.680000	25.170415
11.690000	25.170415
11.700000	25.170415
11.710000	25.170415
11.720000	25.170415
11.730000	25.170415
11.740000	25.170415
11.750000	25.170415
11.760000	25.170415
11.770000	25.170415
11.780000	25.170415
11.790000	25.170415
11.800000	25.170415
11.810000	25.170415
11.820000	25.170415
11.830000	25.170415
11.840000	25.170415
11.850000	25.170415
11.860000	25.170415
11.870000	25.170415
11.880000	25.170415
11.890000	25.170415
11.900000	25.170415
11.910000	25.170415
11.920000	25.170415
11.930000	25.170415
11.940000	25.170415
11.950000	25.170415
11.960000	25.170415
11.970000	25.170415
11.980000	25.170415
11.990000	25.170415
12.000000	25.154355
12.010000	25.154355
12.020000	25.154355
12.030000	25.154355
12.040000	25.154355
12.050000	25.154355
12.060000	25.154355
12.070000	25.154355
12.080000	25.154355
12.090000	25.154355
12.100000	25.154355
12.110000	25.154355
12.120000	25.154355
12.130000	25.154355
12.140000	25.154355
12.150000	25.154355
12.160000	25.154355
12.170000	25.154355
12.180000	25.154355
12.190000	25.154355
12.200000	25.154355
12.210000	25.154355
12.220000	25.154355
12.230000	25.154355
12.240000	25.154355
12.250000	25.154355
12.260000	25.154355
12.270000	25.154355
12.280000	25.154355
12.290000	25.154355
12.300000	25.154355
12.310000	25.154355
12.320000	25.154355
12.330000	25.154355
12.340000	25.154355
12.350000	25.154355
12.360000	25.154355
12.370000	25.154355
12.380000	25.154355
12.390000	25.154355
12.400000	25.154355
12.410000	25.154355
12.420000	25.154355
12.430000	25.154355
12.440000	25.154355
12.450000	25.154355
12.460000	25.154355
12.470000	25.154355
12.480000	25.154355
12.490000	25.154355
12.500000	25.139554
12.510000	25.139554
12.520000	25.139554
12.530000	25.139554
12.540000	25.139554
12.550000	25.139554
12.560000	25.139554
12.570000	25.139554
12.580000	25.139554
12.590000	25.139554
12.600000	25.139554
12.610000	25.139554
12.620000	25.139554
12.630000	25.139554
12.640000	25.139554
12.650000	25.139554
12.660000	25.139554
12.670000	25.139554
12.680000	25.139554
12.690000	25.139554
12.700000	25.139554
12.710000	25.139554
12.720000	25.139554
12.730000	25.139554
12.740000	25.139554
12.750000	25.139554
12.760000	25.139554
12.770000	25.139554
12.780000	25.139554
12.790000	25.139554
12.800000	25.139554
12.810000	25.139554
12.820000	25.139554
12.830000	25.139554
12.840000	25.139554
12.850000	25.139554
12.860000	25.139554
12.870000	25.139554
12.880000	25.139554
12.890000	25.139554
12.900000	25.139554
12.910000	25.139554
12.920000	25.139554
12.930000	25.139554
12.940000	25.139554
12.950000	25.139554
12.960000	25.139554
12.970000	25.139554
12.980000	25.139554
12.990000	25.139554
13.000000	25.124740
13.010000	25.124740
13.020000	25.124740
13.030000	25.124740
13.040000	25.124740
13.050000	25.124740
13.060000	25.124740
13.070000	25.124740
13.080000	25.124740
13.090000	25.124740
13.100000	25.124740
13.110000	25.124740
13.120000	25.124740
13.130000	25.124740
13.140000	25.124740
13.150000	25.124740
13.160000	25.124740
13.170000	25.124740
13.180000	25.124740
13.190000	25.124740
13.200000	25.124740
13.210000	25.124740
13.220000	25.124740
13.230000	25.124740
13.240000	25.124740
13.250000	25.124740
13.260000	25.124740
13.270000	25.124740
13.280000	25.124740
13.290000	25.124740
13.300000	25.124740
13.310000	25.124740
13.320000	25.124740
13.330000	25.124740
13.340000	25.124740
13.350000	25.124740
13.360000	25.124740
13.370000	25.124740
13.380000	25.124740
13.390000	25.124740
13.400000	25.124740
13.410000	25.124740
13.420000	25.124740
13.430000	25.124740
13.440000	25.124740
13.450000	25.124740
13.460000	25.124740
13.470000	25.124740
13.480000	25.124740
13.490000	25.124740
13.500000	25.109973
13.510000	25.109973
13.520000	25.109973
13.530000	25.109973
13.540000	25.109973
13.550000	25.109973
13.560000	25.109973
13.570000	25.109973
13.580000	25.109973
13.590000	25.109973
13.600000	25.109973
13.610000	25.109973
13.620000	25.109973
13.630000	25.109973
13.640000	25.109973
13.650000	25.109973
13.660000	25.109973
13.670000	25.109973
13.680000	25.109973
13.690000	25.109973
13.700000	25.109973
13.710000	25.109973
13.720000	25.109973
13.730000	25.109973
13.740000	25.109973
13.750000	25.109973
13.760000	25.109973
13.770000	25.109973
13.780000	25.109973
13.790000	25.109973
13.800000	25.109973
13.810000	25.109973
13.820000	25.109973
13.830000	25.109973
13.840000	25.109973
13.850000	25.109973
13.860000	25.109973
13.870000	25.109973
13.880000	25.109973
13.890000	25.109973
13.900000	25.109973
13.910000	25.109973
13.920000	25.109973
13.930000	25.109973
13.940000	25.109973
13.950000	25.109973
13.960000	25.109973
13.970000	25.109973
13.980000	25.109973
13.990000	25.109973
14.000000	25.095459
14.010000	25.095459
14.020000	25.095459
14.030000	25.095459
14.040000	25.095459
14.050000	25.095459
14.060000	25.095459
14.070000	25.095459
14.080000	25.095459
14.090000	25.095459
14.100000	25.095459
14.110000	25.095459
14.120000	25.095459
14.130000	25.095459
14.140000	25.095459
14.150000	25.095459
14.160000	25.095459
14.170000	25.095459
14.180000	25.095459
14.190000	25.095459
14.200000	25.095459
14.210000	25.095459
14.220000	25.095459
14.230000	25.095459
14.240000	25.095459
14.250000	25.095459
14.260000	25.095459
14.270000	25.095459
14.280000	25.095459
14.290000	25.095459
14.300000	25.095459
14.310000	25.095459
14.320000	25.095459
14.330000	25.095459
14.340000	25.095459
14.350000	25.095459
14.360000	25.095459
14.370000	25.095459
14.380000	25.095459
14.390000	25.095459
14.400000	25.095459
14.410000	25.095459
14.420000	25.095459
14.430000	25.095459
14.440000	25.095459
14.450000	25.095459
14.460000	25.095459
14.470000	25.095459
14.480000	25.095459
14.490000	25.095459
14.500000	25.080124
14.510000	25.080124
14.520000	25.080124
14.530000	25.080124
14.540000	25.080124
14.550000	25.080124
14.560000	25.080124
14.570000	25.080124
14.580000	25.080124
14.590000	25.080124
14.600000	25.080124
14.610000	25.080124
14.620000	25.080124
14.630000	25.080124
14.640000	25.080124
14.650000	25.080124
14.660000	25.080124
14.670000	25.080124
14.680000	25.080124
14.690000	25.080124
14.700000	25.080124
14.710000	25.080124
14.720000	25.080124
14.730000	25.080124
14.740000	25.080124
14.750000	25.080124
14.760000	25.080124
14.770000	25.080124
14.780000	25.080124
14.790000	25.080124
14.800000	25.080124
14.810000	25.080124
14.820000	25.080124
14.830000	25.080124
14.840000	25.080124
14.850000	25.080124
14.860000	25.080124
14.870000	25.080124
14.880000	25.080124
14.890000	25.080124
14.900000	25.080124
14.910000	25.080124
14.920000	25.080124
14.930000	25.080124
14.940000	25.080124
14.950000	25.080124
14.960000	25.080124
14.970000	25.080124
14.980000	25.080124
14.990000	25.080124
15.000000	25.064973
15.010000	25.064973
15.020000	25.064973
15.030000	25.064973
15.040000	25.064973
15.050000	25.064973
15.060000	25.064973
15.070000	25.064973
15.080000	25.064973
15.090000	25.064973
15.100000	25.064973
15.110000	25.064973
15.120000	25.064973
15.130000	25.064973
15.140000	25.064973
15.150000	25.064973
15.160000	25.064973
15.170000	25.064973
15.180000	25.064973
15.190000	25.064973
15.200000	25.064973
15.210000	25.064973
15.220000	25.064973
15.230000	25.064973
15.240000	25.064973
15.250000	25.064973
15.260000	25.064973
15.270000	25.064973
15.280000	25.064973
15.290000	25.064973
15.300000	25.064973
15.310000	25.064973
15.320000	25.064973
15.330000	25.064973
15.340000	25.064973
15.350000	25.064973
15.360000	25.064973
15.370000	25.064973
15.380000	25.064973
15.390000	25.064973
15.400000	25.064973
15.410000	25.064973
15.420000	25.064973
15.430000	25.064973
15.440000	25.064973
15.450000	25.064973
15.460000	25.064973
15.470000	25.064973
15.480000	25.064973
15.490000	25.064973
15.500000	25.051153
15.510000	25.051153
15.520000	25.051153
15.530000	25.051153
15.540000	25.051153
15.550000	25.051153
15.560000	25.051153
15.570000	25.051153
15.580000	25.051153
15.590000	25.051153
15.600000	25.051153
15.610000	25.051153
15.620000	25.051153
15.630000	25.051153
15.640000	25.051153
15.650000	25.051153
15.660000	25.051153
15.670000	25.051153
15.680000	25.051153
15.690000	25.051153
15.700000	25.051153
15.710000	25.051153
15.720000	25.051153
15.730000	25.051153
15.740000	25.051153
15.750000	25.051153
15.760000	25.051153
15.770000	25.051153
15.780000	25.051153
15.790000	25.051153
15.800000	25.051153
15.810000	25.051153
15.820000	25.051153
15.830000	25.051153
15.840000	25.051153
15.850000	25.051153
15.860000	25.051153
15.870000	25.051153
15.880000	25.051153
15.890000	25.051153
15.900000	25.051153
15.910000	25.051153
15.920000	25.051153
15.930000	25.051153
15.940000	25.051153
15.950000	25.051153
15.960000	25.051153
15.970000	25.051153
15.980000	25.051153
15.990000	25.051153
16.000000	25.037846
16.010000	25.037846
16.020000	25.037846
16.030000	25.037846
16.040000	25.037846
16.050000	25.037846
16.060000	25.037846
16.070000	25.037846
16.080000	25.037846
16.090000	25.037846
16.100000	25.037846
16.110000	25.037846
16.120000	25.037846
16.130000	25.037846
16.140000	25.037846
16.150000	25.037846
16.160000	25.037846
16.170000	25.037846
16.180000	25.037846
16.190000	25.037846
16.200000	25.037846
16.210000	25.037846
16.220000	25.037846
16.230000	25.037846
16.240000	25.037846
16.250000	25.037846
16.260000	25.037846
16.270000	25.037846
16.280000	25.037846
16.290000	25.037846
16.300000	25.037846
16.310000	25.037846
16.320000	25.037846
16.330000	25.037846
16.340000	25.037846
16.350000	25.037846
16.360000	25.037846
16.370000	25.037846
16.380000	25.037846
16.390000	25.037846
16.400000	25.037846
16.410000	25.037846
16.420000	25.037846
16.430000	25.037846
16.440000	25.037846
16.450000	25.037846
16.460000	25.037846
16.470000	25.037846
16.480000	25.037846
16.490000	25.037846
16.500000	25.024871
16.510000	25.024871
16.520000	25.024871
16.530000	25.024871
16.540000	25.024871
16.550000	25.024871
16.560000	25.024871
16.570000	25.024871
16.580000	25.024871
16.590000	25.024871
16.600000	25.024871
16.610000	25.024871
16.620000	25.024871
16.630000	25.024871
16.640000	25.024871
16.650000	25.024871
16.660000	25.024871
16.670000	25.024871
16.680000	25.024871
16.690000	25.024871
16.700000	25.024871
16.710000	25.024871
16.720000	25.024871
16.730000	25.024871
16.740000	25.024871
16.750000	25.024871
16.760000	25.024871
16.770000	25.024871
16.780000	25.024871
16.790000	25.024871
16.800000	25.024871
16.810000	25.024871
16.820000	25.024871
16.830000	25.024871
16.840000	25.024871
16.850000	25.024871
16.860000	25.024871
16.870000	25.024871
16.880000	25.024871
16.890000	25.024871
16.900000	25.024871
16.910000	25.024871
16.920000	25.024871
16.930000	25.024871
16.940000	25.024871
16.950000	25.024871
16.960000	25.024871
16.970000	25.024871
16.980000	25.024871
16.990000	25.024871
17.000000	25.011661
17.010000	25.011661
17.020000	25.011661
17.030000	25.011661
17.040000	25.011661
17.050000	25.011661
17.060000	25.011661
17.070000	25.011661
17.080000	25.011661
17.090000	25.011661
17.100000	25.011661
17.110000	25.011661
17.120000	25.011661
17.130000	25.011661
17.140000	25.011661
17.150000	25.011661
17.160000	25.011661
17.170000	25.011661
17.180000	25.011661
17.190000	25.011661
17.200000	25.011661
17.210000	25.011661
17.220000	25.011661
17.230000	25.011661
17.240000	25.011661
17.250000	25.011661
17.260000	25.011661
17.270000	25.011661
17.280000	25.011661
17.290000	25.011661
17.300000	25.011661
17.310000	25.011661
17.320000	25.011661
17.330000	25.011661
17.340000	25.011661
17.350000	25.011661
17.360000	25.011661
17.370000	25.011661
17.380000	25.011661
17.390000	25.011661
17.400000	25.011661
17.410000	25.011661
17.420000	25.011661
17.430000	25.011661
17.440000	25.011661
17.450000	25.011661
17.460000	25.011661
17.470000	25.011661
17.480000	25.011661
17.490000	25.011661
