LabVIEW Measurement	
Writer_Version	2
Reader_Version	2
Separator	Tab
Decimal_Separator	.
Multi_Headings	No
X_Columns	One
Time_Pref	Absolute
Operator	biomech-dyno
Date	2023/04/27
Time	17:41:55.9338632999999876419
***End_of_Header***	
	
Channels	1	
Samples	10	
Date	2023/04/27	
Time	18:21:25.1978146999998509693	
X_Dimension	Time	
X0	0.0000000000000000E+0	
Delta_X	0.010000	
***End_of_Header***		
X_Value	Untitled	Comment
0.000000	25.135605
0.010000	25.135605
0.020000	25.135605
0.030000	25.135605
0.040000	25.135605
0.050000	25.135605
0.060000	25.135605
0.070000	25.135605
0.080000	25.135605
0.090000	25.135605
0.100000	25.135605
0.110000	25.135605
0.120000	25.135605
0.130000	25.135605
0.140000	25.135605
0.150000	25.135605
0.160000	25.135605
0.170000	25.135605
0.180000	25.135605
0.190000	25.135605
0.200000	25.135605
0.210000	25.135605
0.220000	25.135605
0.230000	25.135605
0.240000	25.135605
0.250000	25.135605
0.260000	25.135605
0.270000	25.135605
0.280000	25.135605
0.290000	25.135605
0.300000	25.135605
0.310000	25.135605
0.320000	25.135605
0.330000	25.135605
0.340000	25.135605
0.350000	25.135605
0.360000	25.135605
0.370000	25.135605
0.380000	25.135605
0.390000	25.135605
0.400000	25.135605
0.410000	25.135605
0.420000	25.135605
0.430000	25.135605
0.440000	25.135605
0.450000	25.135605
0.460000	25.135605
0.470000	25.135605
0.480000	25.135605
0.490000	25.135605
0.500000	25.132233
0.510000	25.132233
0.520000	25.132233
0.530000	25.132233
0.540000	25.132233
0.550000	25.132233
0.560000	25.132233
0.570000	25.132233
0.580000	25.132233
0.590000	25.132233
0.600000	25.132233
0.610000	25.132233
0.620000	25.132233
0.630000	25.132233
0.640000	25.132233
0.650000	25.132233
0.660000	25.132233
0.670000	25.132233
0.680000	25.132233
0.690000	25.132233
0.700000	25.132233
0.710000	25.132233
0.720000	25.132233
0.730000	25.132233
0.740000	25.132233
0.750000	25.132233
0.760000	25.132233
0.770000	25.132233
0.780000	25.132233
0.790000	25.132233
0.800000	25.132233
0.810000	25.132233
0.820000	25.132233
0.830000	25.132233
0.840000	25.132233
0.850000	25.132233
0.860000	25.132233
0.870000	25.132233
0.880000	25.132233
0.890000	25.132233
0.900000	25.132233
0.910000	25.132233
0.920000	25.132233
0.930000	25.132233
0.940000	25.132233
0.950000	25.132233
0.960000	25.132233
0.970000	25.132233
0.980000	25.132233
0.990000	25.132233
1.000000	25.136087
1.010000	25.136087
1.020000	25.136087
1.030000	25.136087
1.040000	25.136087
1.050000	25.136087
1.060000	25.136087
1.070000	25.136087
1.080000	25.136087
1.090000	25.136087
1.100000	25.136087
1.110000	25.136087
1.120000	25.136087
1.130000	25.136087
1.140000	25.136087
1.150000	25.136087
1.160000	25.136087
1.170000	25.136087
1.180000	25.136087
1.190000	25.136087
1.200000	25.136087
1.210000	25.136087
1.220000	25.136087
1.230000	25.136087
1.240000	25.136087
1.250000	25.136087
1.260000	25.136087
1.270000	25.136087
1.280000	25.136087
1.290000	25.136087
1.300000	25.136087
1.310000	25.136087
1.320000	25.136087
1.330000	25.136087
1.340000	25.136087
1.350000	25.136087
1.360000	25.136087
1.370000	25.136087
1.380000	25.136087
1.390000	25.136087
1.400000	25.136087
1.410000	25.136087
1.420000	25.136087
1.430000	25.136087
1.440000	25.136087
1.450000	25.136087
1.460000	25.136087
1.470000	25.136087
1.480000	25.136087
1.490000	25.136087
1.500000	25.143037
1.510000	25.143037
1.520000	25.143037
1.530000	25.143037
1.540000	25.143037
1.550000	25.143037
1.560000	25.143037
1.570000	25.143037
1.580000	25.143037
1.590000	25.143037
1.600000	25.143037
1.610000	25.143037
1.620000	25.143037
1.630000	25.143037
1.640000	25.143037
1.650000	25.143037
1.660000	25.143037
1.670000	25.143037
1.680000	25.143037
1.690000	25.143037
1.700000	25.143037
1.710000	25.143037
1.720000	25.143037
1.730000	25.143037
1.740000	25.143037
1.750000	25.143037
1.760000	25.143037
1.770000	25.143037
1.780000	25.143037
1.790000	25.143037
1.800000	25.143037
1.810000	25.143037
1.820000	25.143037
1.830000	25.143037
1.840000	25.143037
1.850000	25.143037
1.860000	25.143037
1.870000	25.143037
1.880000	25.143037
1.890000	25.143037
1.900000	25.143037
1.910000	25.143037
1.920000	25.143037
1.930000	25.143037
1.940000	25.143037
1.950000	25.143037
1.960000	25.143037
1.970000	25.143037
1.980000	25.143037
1.990000	25.143037
2.000000	25.150631
2.010000	25.150631
2.020000	25.150631
2.030000	25.150631
2.040000	25.150631
2.050000	25.150631
2.060000	25.150631
2.070000	25.150631
2.080000	25.150631
2.090000	25.150631
2.100000	25.150631
2.110000	25.150631
2.120000	25.150631
2.130000	25.150631
2.140000	25.150631
2.150000	25.150631
2.160000	25.150631
2.170000	25.150631
2.180000	25.150631
2.190000	25.150631
2.200000	25.150631
2.210000	25.150631
2.220000	25.150631
2.230000	25.150631
2.240000	25.150631
2.250000	25.150631
2.260000	25.150631
2.270000	25.150631
2.280000	25.150631
2.290000	25.150631
2.300000	25.150631
2.310000	25.150631
2.320000	25.150631
2.330000	25.150631
2.340000	25.150631
2.350000	25.150631
2.360000	25.150631
2.370000	25.150631
2.380000	25.150631
2.390000	25.150631
2.400000	25.150631
2.410000	25.150631
2.420000	25.150631
2.430000	25.150631
2.440000	25.150631
2.450000	25.150631
2.460000	25.150631
2.470000	25.150631
2.480000	25.150631
2.490000	25.150631
2.500000	25.154595
2.510000	25.154595
2.520000	25.154595
2.530000	25.154595
2.540000	25.154595
2.550000	25.154595
2.560000	25.154595
2.570000	25.154595
2.580000	25.154595
2.590000	25.154595
2.600000	25.154595
2.610000	25.154595
2.620000	25.154595
2.630000	25.154595
2.640000	25.154595
2.650000	25.154595
2.660000	25.154595
2.670000	25.154595
2.680000	25.154595
2.690000	25.154595
2.700000	25.154595
2.710000	25.154595
2.720000	25.154595
2.730000	25.154595
2.740000	25.154595
2.750000	25.154595
2.760000	25.154595
2.770000	25.154595
2.780000	25.154595
2.790000	25.154595
2.800000	25.154595
2.810000	25.154595
2.820000	25.154595
2.830000	25.154595
2.840000	25.154595
2.850000	25.154595
2.860000	25.154595
2.870000	25.154595
2.880000	25.154595
2.890000	25.154595
2.900000	25.154595
2.910000	25.154595
2.920000	25.154595
2.930000	25.154595
2.940000	25.154595
2.950000	25.154595
2.960000	25.154595
2.970000	25.154595
2.980000	25.154595
2.990000	25.154595
3.000000	25.153555
3.010000	25.153555
3.020000	25.153555
3.030000	25.153555
3.040000	25.153555
3.050000	25.153555
3.060000	25.153555
3.070000	25.153555
3.080000	25.153555
3.090000	25.153555
3.100000	25.153555
3.110000	25.153555
3.120000	25.153555
3.130000	25.153555
3.140000	25.153555
3.150000	25.153555
3.160000	25.153555
3.170000	25.153555
3.180000	25.153555
3.190000	25.153555
3.200000	25.153555
3.210000	25.153555
3.220000	25.153555
3.230000	25.153555
3.240000	25.153555
3.250000	25.153555
3.260000	25.153555
3.270000	25.153555
3.280000	25.153555
3.290000	25.153555
3.300000	25.153555
3.310000	25.153555
3.320000	25.153555
3.330000	25.153555
3.340000	25.153555
3.350000	25.153555
3.360000	25.153555
3.370000	25.153555
3.380000	25.153555
3.390000	25.153555
3.400000	25.153555
3.410000	25.153555
3.420000	25.153555
3.430000	25.153555
3.440000	25.153555
3.450000	25.153555
3.460000	25.153555
3.470000	25.153555
3.480000	25.153555
3.490000	25.153555
3.500000	25.156074
3.510000	25.156074
3.520000	25.156074
3.530000	25.156074
3.540000	25.156074
3.550000	25.156074
3.560000	25.156074
3.570000	25.156074
3.580000	25.156074
3.590000	25.156074
3.600000	25.156074
3.610000	25.156074
3.620000	25.156074
3.630000	25.156074
3.640000	25.156074
3.650000	25.156074
3.660000	25.156074
3.670000	25.156074
3.680000	25.156074
3.690000	25.156074
3.700000	25.156074
3.710000	25.156074
3.720000	25.156074
3.730000	25.156074
3.740000	25.156074
3.750000	25.156074
3.760000	25.156074
3.770000	25.156074
3.780000	25.156074
3.790000	25.156074
3.800000	25.156074
3.810000	25.156074
3.820000	25.156074
3.830000	25.156074
3.840000	25.156074
3.850000	25.156074
3.860000	25.156074
3.870000	25.156074
3.880000	25.156074
3.890000	25.156074
3.900000	25.156074
3.910000	25.156074
3.920000	25.156074
3.930000	25.156074
3.940000	25.156074
3.950000	25.156074
3.960000	25.156074
3.970000	25.156074
3.980000	25.156074
3.990000	25.156074
4.000000	25.158981
4.010000	25.158981
4.020000	25.158981
4.030000	25.158981
4.040000	25.158981
4.050000	25.158981
4.060000	25.158981
4.070000	25.158981
4.080000	25.158981
4.090000	25.158981
4.100000	25.158981
4.110000	25.158981
4.120000	25.158981
4.130000	25.158981
4.140000	25.158981
4.150000	25.158981
4.160000	25.158981
4.170000	25.158981
4.180000	25.158981
4.190000	25.158981
4.200000	25.158981
4.210000	25.158981
4.220000	25.158981
4.230000	25.158981
4.240000	25.158981
4.250000	25.158981
4.260000	25.158981
4.270000	25.158981
4.280000	25.158981
4.290000	25.158981
4.300000	25.158981
4.310000	25.158981
4.320000	25.158981
4.330000	25.158981
4.340000	25.158981
4.350000	25.158981
4.360000	25.158981
4.370000	25.158981
4.380000	25.158981
4.390000	25.158981
4.400000	25.158981
4.410000	25.158981
4.420000	25.158981
4.430000	25.158981
4.440000	25.158981
4.450000	25.158981
4.460000	25.158981
4.470000	25.158981
4.480000	25.158981
4.490000	25.158981
4.500000	25.158078
4.510000	25.158078
4.520000	25.158078
4.530000	25.158078
4.540000	25.158078
4.550000	25.158078
4.560000	25.158078
4.570000	25.158078
4.580000	25.158078
4.590000	25.158078
4.600000	25.158078
4.610000	25.158078
4.620000	25.158078
4.630000	25.158078
4.640000	25.158078
4.650000	25.158078
4.660000	25.158078
4.670000	25.158078
4.680000	25.158078
4.690000	25.158078
4.700000	25.158078
4.710000	25.158078
4.720000	25.158078
4.730000	25.158078
4.740000	25.158078
4.750000	25.158078
4.760000	25.158078
4.770000	25.158078
4.780000	25.158078
4.790000	25.158078
4.800000	25.158078
4.810000	25.158078
4.820000	25.158078
4.830000	25.158078
4.840000	25.158078
4.850000	25.158078
4.860000	25.158078
4.870000	25.158078
4.880000	25.158078
4.890000	25.158078
4.900000	25.158078
4.910000	25.158078
4.920000	25.158078
4.930000	25.158078
4.940000	25.158078
4.950000	25.158078
4.960000	25.158078
4.970000	25.158078
4.980000	25.158078
4.990000	25.158078
5.000000	25.154621
5.010000	25.154621
5.020000	25.154621
5.030000	25.154621
5.040000	25.154621
5.050000	25.154621
5.060000	25.154621
5.070000	25.154621
5.080000	25.154621
5.090000	25.154621
5.100000	25.154621
5.110000	25.154621
5.120000	25.154621
5.130000	25.154621
5.140000	25.154621
5.150000	25.154621
5.160000	25.154621
5.170000	25.154621
5.180000	25.154621
5.190000	25.154621
5.200000	25.154621
5.210000	25.154621
5.220000	25.154621
5.230000	25.154621
5.240000	25.154621
5.250000	25.154621
5.260000	25.154621
5.270000	25.154621
5.280000	25.154621
5.290000	25.154621
5.300000	25.154621
5.310000	25.154621
5.320000	25.154621
5.330000	25.154621
5.340000	25.154621
5.350000	25.154621
5.360000	25.154621
5.370000	25.154621
5.380000	25.154621
5.390000	25.154621
5.400000	25.154621
5.410000	25.154621
5.420000	25.154621
5.430000	25.154621
5.440000	25.154621
5.450000	25.154621
5.460000	25.154621
5.470000	25.154621
5.480000	25.154621
5.490000	25.154621
5.500000	25.152970
5.510000	25.152970
5.520000	25.152970
5.530000	25.152970
5.540000	25.152970
5.550000	25.152970
5.560000	25.152970
5.570000	25.152970
5.580000	25.152970
5.590000	25.152970
5.600000	25.152970
5.610000	25.152970
5.620000	25.152970
5.630000	25.152970
5.640000	25.152970
5.650000	25.152970
5.660000	25.152970
5.670000	25.152970
5.680000	25.152970
5.690000	25.152970
5.700000	25.152970
5.710000	25.152970
5.720000	25.152970
5.730000	25.152970
5.740000	25.152970
5.750000	25.152970
5.760000	25.152970
5.770000	25.152970
5.780000	25.152970
5.790000	25.152970
5.800000	25.152970
5.810000	25.152970
5.820000	25.152970
5.830000	25.152970
5.840000	25.152970
5.850000	25.152970
5.860000	25.152970
5.870000	25.152970
5.880000	25.152970
5.890000	25.152970
5.900000	25.152970
5.910000	25.152970
5.920000	25.152970
5.930000	25.152970
5.940000	25.152970
5.950000	25.152970
5.960000	25.152970
5.970000	25.152970
5.980000	25.152970
5.990000	25.152970
6.000000	25.153684
6.010000	25.153684
6.020000	25.153684
6.030000	25.153684
6.040000	25.153684
6.050000	25.153684
6.060000	25.153684
6.070000	25.153684
6.080000	25.153684
6.090000	25.153684
6.100000	25.153684
6.110000	25.153684
6.120000	25.153684
6.130000	25.153684
6.140000	25.153684
6.150000	25.153684
6.160000	25.153684
6.170000	25.153684
6.180000	25.153684
6.190000	25.153684
6.200000	25.153684
6.210000	25.153684
6.220000	25.153684
6.230000	25.153684
6.240000	25.153684
6.250000	25.153684
6.260000	25.153684
6.270000	25.153684
6.280000	25.153684
6.290000	25.153684
6.300000	25.153684
6.310000	25.153684
6.320000	25.153684
6.330000	25.153684
6.340000	25.153684
6.350000	25.153684
6.360000	25.153684
6.370000	25.153684
6.380000	25.153684
6.390000	25.153684
6.400000	25.153684
6.410000	25.153684
6.420000	25.153684
6.430000	25.153684
6.440000	25.153684
6.450000	25.153684
6.460000	25.153684
6.470000	25.153684
6.480000	25.153684
6.490000	25.153684
6.500000	25.153744
6.510000	25.153744
6.520000	25.153744
6.530000	25.153744
6.540000	25.153744
6.550000	25.153744
6.560000	25.153744
6.570000	25.153744
6.580000	25.153744
6.590000	25.153744
6.600000	25.153744
6.610000	25.153744
6.620000	25.153744
6.630000	25.153744
6.640000	25.153744
6.650000	25.153744
6.660000	25.153744
6.670000	25.153744
6.680000	25.153744
6.690000	25.153744
6.700000	25.153744
6.710000	25.153744
6.720000	25.153744
6.730000	25.153744
6.740000	25.153744
6.750000	25.153744
6.760000	25.153744
6.770000	25.153744
6.780000	25.153744
6.790000	25.153744
6.800000	25.153744
6.810000	25.153744
6.820000	25.153744
6.830000	25.153744
6.840000	25.153744
6.850000	25.153744
6.860000	25.153744
6.870000	25.153744
6.880000	25.153744
6.890000	25.153744
6.900000	25.153744
6.910000	25.153744
6.920000	25.153744
6.930000	25.153744
6.940000	25.153744
6.950000	25.153744
6.960000	25.153744
6.970000	25.153744
6.980000	25.153744
6.990000	25.153744
7.000000	25.153968
7.010000	25.153968
7.020000	25.153968
7.030000	25.153968
7.040000	25.153968
7.050000	25.153968
7.060000	25.153968
7.070000	25.153968
7.080000	25.153968
7.090000	25.153968
7.100000	25.153968
7.110000	25.153968
7.120000	25.153968
7.130000	25.153968
7.140000	25.153968
7.150000	25.153968
7.160000	25.153968
7.170000	25.153968
7.180000	25.153968
7.190000	25.153968
7.200000	25.153968
7.210000	25.153968
7.220000	25.153968
7.230000	25.153968
7.240000	25.153968
7.250000	25.153968
7.260000	25.153968
7.270000	25.153968
7.280000	25.153968
7.290000	25.153968
7.300000	25.153968
7.310000	25.153968
7.320000	25.153968
7.330000	25.153968
7.340000	25.153968
7.350000	25.153968
7.360000	25.153968
7.370000	25.153968
7.380000	25.153968
7.390000	25.153968
7.400000	25.153968
7.410000	25.153968
7.420000	25.153968
7.430000	25.153968
7.440000	25.153968
7.450000	25.153968
7.460000	25.153968
7.470000	25.153968
7.480000	25.153968
7.490000	25.153968
7.500000	25.152007
7.510000	25.152007
7.520000	25.152007
7.530000	25.152007
7.540000	25.152007
7.550000	25.152007
7.560000	25.152007
7.570000	25.152007
7.580000	25.152007
7.590000	25.152007
7.600000	25.152007
7.610000	25.152007
7.620000	25.152007
7.630000	25.152007
7.640000	25.152007
7.650000	25.152007
7.660000	25.152007
7.670000	25.152007
7.680000	25.152007
7.690000	25.152007
7.700000	25.152007
7.710000	25.152007
7.720000	25.152007
7.730000	25.152007
7.740000	25.152007
7.750000	25.152007
7.760000	25.152007
7.770000	25.152007
7.780000	25.152007
7.790000	25.152007
7.800000	25.152007
7.810000	25.152007
7.820000	25.152007
7.830000	25.152007
7.840000	25.152007
7.850000	25.152007
7.860000	25.152007
7.870000	25.152007
7.880000	25.152007
7.890000	25.152007
7.900000	25.152007
7.910000	25.152007
7.920000	25.152007
7.930000	25.152007
7.940000	25.152007
7.950000	25.152007
7.960000	25.152007
7.970000	25.152007
7.980000	25.152007
7.990000	25.152007
8.000000	25.151138
8.010000	25.151138
8.020000	25.151138
8.030000	25.151138
8.040000	25.151138
8.050000	25.151138
8.060000	25.151138
8.070000	25.151138
8.080000	25.151138
8.090000	25.151138
8.100000	25.151138
8.110000	25.151138
8.120000	25.151138
8.130000	25.151138
8.140000	25.151138
8.150000	25.151138
8.160000	25.151138
8.170000	25.151138
8.180000	25.151138
8.190000	25.151138
8.200000	25.151138
8.210000	25.151138
8.220000	25.151138
8.230000	25.151138
8.240000	25.151138
8.250000	25.151138
8.260000	25.151138
8.270000	25.151138
8.280000	25.151138
8.290000	25.151138
8.300000	25.151138
8.310000	25.151138
8.320000	25.151138
8.330000	25.151138
8.340000	25.151138
8.350000	25.151138
8.360000	25.151138
8.370000	25.151138
8.380000	25.151138
8.390000	25.151138
8.400000	25.151138
8.410000	25.151138
8.420000	25.151138
8.430000	25.151138
8.440000	25.151138
8.450000	25.151138
8.460000	25.151138
8.470000	25.151138
8.480000	25.151138
8.490000	25.151138
8.500000	25.150880
8.510000	25.150880
8.520000	25.150880
8.530000	25.150880
8.540000	25.150880
8.550000	25.150880
8.560000	25.150880
8.570000	25.150880
8.580000	25.150880
8.590000	25.150880
8.600000	25.150880
8.610000	25.150880
8.620000	25.150880
8.630000	25.150880
8.640000	25.150880
8.650000	25.150880
8.660000	25.150880
8.670000	25.150880
8.680000	25.150880
8.690000	25.150880
8.700000	25.150880
8.710000	25.150880
8.720000	25.150880
8.730000	25.150880
8.740000	25.150880
8.750000	25.150880
8.760000	25.150880
8.770000	25.150880
8.780000	25.150880
8.790000	25.150880
8.800000	25.150880
8.810000	25.150880
8.820000	25.150880
8.830000	25.150880
8.840000	25.150880
8.850000	25.150880
8.860000	25.150880
8.870000	25.150880
8.880000	25.150880
8.890000	25.150880
8.900000	25.150880
8.910000	25.150880
8.920000	25.150880
8.930000	25.150880
8.940000	25.150880
8.950000	25.150880
8.960000	25.150880
8.970000	25.150880
8.980000	25.150880
8.990000	25.150880
9.000000	25.148765
9.010000	25.148765
9.020000	25.148765
9.030000	25.148765
9.040000	25.148765
9.050000	25.148765
9.060000	25.148765
9.070000	25.148765
9.080000	25.148765
9.090000	25.148765
9.100000	25.148765
9.110000	25.148765
9.120000	25.148765
9.130000	25.148765
9.140000	25.148765
9.150000	25.148765
9.160000	25.148765
9.170000	25.148765
9.180000	25.148765
9.190000	25.148765
9.200000	25.148765
9.210000	25.148765
9.220000	25.148765
9.230000	25.148765
9.240000	25.148765
9.250000	25.148765
9.260000	25.148765
9.270000	25.148765
9.280000	25.148765
9.290000	25.148765
9.300000	25.148765
9.310000	25.148765
9.320000	25.148765
9.330000	25.148765
9.340000	25.148765
9.350000	25.148765
9.360000	25.148765
9.370000	25.148765
9.380000	25.148765
9.390000	25.148765
9.400000	25.148765
9.410000	25.148765
9.420000	25.148765
9.430000	25.148765
9.440000	25.148765
9.450000	25.148765
9.460000	25.148765
9.470000	25.148765
9.480000	25.148765
9.490000	25.148765
9.500000	25.145918
9.510000	25.145918
9.520000	25.145918
9.530000	25.145918
9.540000	25.145918
9.550000	25.145918
9.560000	25.145918
9.570000	25.145918
9.580000	25.145918
9.590000	25.145918
9.600000	25.145918
9.610000	25.145918
9.620000	25.145918
9.630000	25.145918
9.640000	25.145918
9.650000	25.145918
9.660000	25.145918
9.670000	25.145918
9.680000	25.145918
9.690000	25.145918
9.700000	25.145918
9.710000	25.145918
9.720000	25.145918
9.730000	25.145918
9.740000	25.145918
9.750000	25.145918
9.760000	25.145918
9.770000	25.145918
9.780000	25.145918
9.790000	25.145918
9.800000	25.145918
9.810000	25.145918
9.820000	25.145918
9.830000	25.145918
9.840000	25.145918
9.850000	25.145918
9.860000	25.145918
9.870000	25.145918
9.880000	25.145918
9.890000	25.145918
9.900000	25.145918
9.910000	25.145918
9.920000	25.145918
9.930000	25.145918
9.940000	25.145918
9.950000	25.145918
9.960000	25.145918
9.970000	25.145918
9.980000	25.145918
9.990000	25.145918
10.000000	25.144172
10.010000	25.144172
10.020000	25.144172
10.030000	25.144172
10.040000	25.144172
10.050000	25.144172
10.060000	25.144172
10.070000	25.144172
10.080000	25.144172
10.090000	25.144172
10.100000	25.144172
10.110000	25.144172
10.120000	25.144172
10.130000	25.144172
10.140000	25.144172
10.150000	25.144172
10.160000	25.144172
10.170000	25.144172
10.180000	25.144172
10.190000	25.144172
10.200000	25.144172
10.210000	25.144172
10.220000	25.144172
10.230000	25.144172
10.240000	25.144172
10.250000	25.144172
10.260000	25.144172
10.270000	25.144172
10.280000	25.144172
10.290000	25.144172
10.300000	25.144172
10.310000	25.144172
10.320000	25.144172
10.330000	25.144172
10.340000	25.144172
10.350000	25.144172
10.360000	25.144172
10.370000	25.144172
10.380000	25.144172
10.390000	25.144172
10.400000	25.144172
10.410000	25.144172
10.420000	25.144172
10.430000	25.144172
10.440000	25.144172
10.450000	25.144172
10.460000	25.144172
10.470000	25.144172
10.480000	25.144172
10.490000	25.144172
10.500000	25.143166
10.510000	25.143166
10.520000	25.143166
10.530000	25.143166
10.540000	25.143166
10.550000	25.143166
10.560000	25.143166
10.570000	25.143166
10.580000	25.143166
10.590000	25.143166
10.600000	25.143166
10.610000	25.143166
10.620000	25.143166
10.630000	25.143166
10.640000	25.143166
10.650000	25.143166
10.660000	25.143166
10.670000	25.143166
10.680000	25.143166
10.690000	25.143166
10.700000	25.143166
10.710000	25.143166
10.720000	25.143166
10.730000	25.143166
10.740000	25.143166
10.750000	25.143166
10.760000	25.143166
10.770000	25.143166
10.780000	25.143166
10.790000	25.143166
10.800000	25.143166
10.810000	25.143166
10.820000	25.143166
10.830000	25.143166
10.840000	25.143166
10.850000	25.143166
10.860000	25.143166
10.870000	25.143166
10.880000	25.143166
10.890000	25.143166
10.900000	25.143166
10.910000	25.143166
10.920000	25.143166
10.930000	25.143166
10.940000	25.143166
10.950000	25.143166
10.960000	25.143166
10.970000	25.143166
10.980000	25.143166
10.990000	25.143166
11.000000	25.141549
11.010000	25.141549
11.020000	25.141549
11.030000	25.141549
11.040000	25.141549
11.050000	25.141549
11.060000	25.141549
11.070000	25.141549
11.080000	25.141549
11.090000	25.141549
11.100000	25.141549
11.110000	25.141549
11.120000	25.141549
11.130000	25.141549
11.140000	25.141549
11.150000	25.141549
11.160000	25.141549
11.170000	25.141549
11.180000	25.141549
11.190000	25.141549
11.200000	25.141549
11.210000	25.141549
11.220000	25.141549
11.230000	25.141549
11.240000	25.141549
11.250000	25.141549
11.260000	25.141549
11.270000	25.141549
11.280000	25.141549
11.290000	25.141549
11.300000	25.141549
11.310000	25.141549
11.320000	25.141549
11.330000	25.141549
11.340000	25.141549
11.350000	25.141549
11.360000	25.141549
11.370000	25.141549
11.380000	25.141549
11.390000	25.141549
11.400000	25.141549
11.410000	25.141549
11.420000	25.141549
11.430000	25.141549
11.440000	25.141549
11.450000	25.141549
11.460000	25.141549
11.470000	25.141549
11.480000	25.141549
11.490000	25.141549
11.500000	25.140388
11.510000	25.140388
11.520000	25.140388
11.530000	25.140388
11.540000	25.140388
11.550000	25.140388
11.560000	25.140388
11.570000	25.140388
11.580000	25.140388
11.590000	25.140388
11.600000	25.140388
11.610000	25.140388
11.620000	25.140388
11.630000	25.140388
11.640000	25.140388
11.650000	25.140388
11.660000	25.140388
11.670000	25.140388
11.680000	25.140388
11.690000	25.140388
11.700000	25.140388
11.710000	25.140388
11.720000	25.140388
11.730000	25.140388
11.740000	25.140388
11.750000	25.140388
11.760000	25.140388
11.770000	25.140388
11.780000	25.140388
11.790000	25.140388
11.800000	25.140388
11.810000	25.140388
11.820000	25.140388
11.830000	25.140388
11.840000	25.140388
11.850000	25.140388
11.860000	25.140388
11.870000	25.140388
11.880000	25.140388
11.890000	25.140388
11.900000	25.140388
11.910000	25.140388
11.920000	25.140388
11.930000	25.140388
11.940000	25.140388
11.950000	25.140388
11.960000	25.140388
11.970000	25.140388
11.980000	25.140388
11.990000	25.140388
12.000000	25.138659
12.010000	25.138659
12.020000	25.138659
12.030000	25.138659
12.040000	25.138659
12.050000	25.138659
12.060000	25.138659
12.070000	25.138659
12.080000	25.138659
12.090000	25.138659
12.100000	25.138659
12.110000	25.138659
12.120000	25.138659
12.130000	25.138659
12.140000	25.138659
12.150000	25.138659
12.160000	25.138659
12.170000	25.138659
12.180000	25.138659
12.190000	25.138659
12.200000	25.138659
12.210000	25.138659
12.220000	25.138659
12.230000	25.138659
12.240000	25.138659
12.250000	25.138659
12.260000	25.138659
12.270000	25.138659
12.280000	25.138659
12.290000	25.138659
12.300000	25.138659
12.310000	25.138659
12.320000	25.138659
12.330000	25.138659
12.340000	25.138659
12.350000	25.138659
12.360000	25.138659
12.370000	25.138659
12.380000	25.138659
12.390000	25.138659
12.400000	25.138659
12.410000	25.138659
12.420000	25.138659
12.430000	25.138659
12.440000	25.138659
12.450000	25.138659
12.460000	25.138659
12.470000	25.138659
12.480000	25.138659
12.490000	25.138659
12.500000	25.136638
12.510000	25.136638
12.520000	25.136638
12.530000	25.136638
12.540000	25.136638
12.550000	25.136638
12.560000	25.136638
12.570000	25.136638
12.580000	25.136638
12.590000	25.136638
12.600000	25.136638
12.610000	25.136638
12.620000	25.136638
12.630000	25.136638
12.640000	25.136638
12.650000	25.136638
12.660000	25.136638
12.670000	25.136638
12.680000	25.136638
12.690000	25.136638
12.700000	25.136638
12.710000	25.136638
12.720000	25.136638
12.730000	25.136638
12.740000	25.136638
12.750000	25.136638
12.760000	25.136638
12.770000	25.136638
12.780000	25.136638
12.790000	25.136638
12.800000	25.136638
12.810000	25.136638
12.820000	25.136638
12.830000	25.136638
12.840000	25.136638
12.850000	25.136638
12.860000	25.136638
12.870000	25.136638
12.880000	25.136638
12.890000	25.136638
12.900000	25.136638
12.910000	25.136638
12.920000	25.136638
12.930000	25.136638
12.940000	25.136638
12.950000	25.136638
12.960000	25.136638
12.970000	25.136638
12.980000	25.136638
12.990000	25.136638
13.000000	25.133764
13.010000	25.133764
13.020000	25.133764
13.030000	25.133764
13.040000	25.133764
13.050000	25.133764
13.060000	25.133764
13.070000	25.133764
13.080000	25.133764
13.090000	25.133764
13.100000	25.133764
13.110000	25.133764
13.120000	25.133764
13.130000	25.133764
13.140000	25.133764
13.150000	25.133764
13.160000	25.133764
13.170000	25.133764
13.180000	25.133764
13.190000	25.133764
13.200000	25.133764
13.210000	25.133764
13.220000	25.133764
13.230000	25.133764
13.240000	25.133764
13.250000	25.133764
13.260000	25.133764
13.270000	25.133764
13.280000	25.133764
13.290000	25.133764
13.300000	25.133764
13.310000	25.133764
13.320000	25.133764
13.330000	25.133764
13.340000	25.133764
13.350000	25.133764
13.360000	25.133764
13.370000	25.133764
13.380000	25.133764
13.390000	25.133764
13.400000	25.133764
13.410000	25.133764
13.420000	25.133764
13.430000	25.133764
13.440000	25.133764
13.450000	25.133764
13.460000	25.133764
13.470000	25.133764
13.480000	25.133764
13.490000	25.133764
13.500000	25.129910
13.510000	25.129910
13.520000	25.129910
13.530000	25.129910
13.540000	25.129910
13.550000	25.129910
13.560000	25.129910
13.570000	25.129910
13.580000	25.129910
13.590000	25.129910
13.600000	25.129910
13.610000	25.129910
13.620000	25.129910
13.630000	25.129910
13.640000	25.129910
13.650000	25.129910
13.660000	25.129910
13.670000	25.129910
13.680000	25.129910
13.690000	25.129910
13.700000	25.129910
13.710000	25.129910
13.720000	25.129910
13.730000	25.129910
13.740000	25.129910
13.750000	25.129910
13.760000	25.129910
13.770000	25.129910
13.780000	25.129910
13.790000	25.129910
13.800000	25.129910
13.810000	25.129910
13.820000	25.129910
13.830000	25.129910
13.840000	25.129910
13.850000	25.129910
13.860000	25.129910
13.870000	25.129910
13.880000	25.129910
13.890000	25.129910
13.900000	25.129910
13.910000	25.129910
13.920000	25.129910
13.930000	25.129910
13.940000	25.129910
13.950000	25.129910
13.960000	25.129910
13.970000	25.129910
13.980000	25.129910
13.990000	25.129910
14.000000	25.125282
14.010000	25.125282
14.020000	25.125282
14.030000	25.125282
14.040000	25.125282
14.050000	25.125282
14.060000	25.125282
14.070000	25.125282
14.080000	25.125282
14.090000	25.125282
14.100000	25.125282
14.110000	25.125282
14.120000	25.125282
14.130000	25.125282
14.140000	25.125282
14.150000	25.125282
14.160000	25.125282
14.170000	25.125282
14.180000	25.125282
14.190000	25.125282
14.200000	25.125282
14.210000	25.125282
14.220000	25.125282
14.230000	25.125282
14.240000	25.125282
14.250000	25.125282
14.260000	25.125282
14.270000	25.125282
14.280000	25.125282
14.290000	25.125282
14.300000	25.125282
14.310000	25.125282
14.320000	25.125282
14.330000	25.125282
14.340000	25.125282
14.350000	25.125282
14.360000	25.125282
14.370000	25.125282
14.380000	25.125282
14.390000	25.125282
14.400000	25.125282
14.410000	25.125282
14.420000	25.125282
14.430000	25.125282
14.440000	25.125282
14.450000	25.125282
14.460000	25.125282
14.470000	25.125282
14.480000	25.125282
14.490000	25.125282
14.500000	25.121040
14.510000	25.121040
14.520000	25.121040
14.530000	25.121040
14.540000	25.121040
14.550000	25.121040
14.560000	25.121040
14.570000	25.121040
14.580000	25.121040
14.590000	25.121040
14.600000	25.121040
14.610000	25.121040
14.620000	25.121040
14.630000	25.121040
14.640000	25.121040
14.650000	25.121040
14.660000	25.121040
14.670000	25.121040
14.680000	25.121040
14.690000	25.121040
14.700000	25.121040
14.710000	25.121040
14.720000	25.121040
14.730000	25.121040
14.740000	25.121040
14.750000	25.121040
14.760000	25.121040
14.770000	25.121040
14.780000	25.121040
14.790000	25.121040
14.800000	25.121040
14.810000	25.121040
14.820000	25.121040
14.830000	25.121040
14.840000	25.121040
14.850000	25.121040
14.860000	25.121040
14.870000	25.121040
14.880000	25.121040
14.890000	25.121040
14.900000	25.121040
14.910000	25.121040
14.920000	25.121040
14.930000	25.121040
14.940000	25.121040
14.950000	25.121040
14.960000	25.121040
14.970000	25.121040
14.980000	25.121040
14.990000	25.121040
15.000000	25.116944
15.010000	25.116944
15.020000	25.116944
15.030000	25.116944
15.040000	25.116944
15.050000	25.116944
15.060000	25.116944
15.070000	25.116944
15.080000	25.116944
15.090000	25.116944
15.100000	25.116944
15.110000	25.116944
15.120000	25.116944
15.130000	25.116944
15.140000	25.116944
15.150000	25.116944
15.160000	25.116944
15.170000	25.116944
15.180000	25.116944
15.190000	25.116944
15.200000	25.116944
15.210000	25.116944
15.220000	25.116944
15.230000	25.116944
15.240000	25.116944
15.250000	25.116944
15.260000	25.116944
15.270000	25.116944
15.280000	25.116944
15.290000	25.116944
15.300000	25.116944
15.310000	25.116944
15.320000	25.116944
15.330000	25.116944
15.340000	25.116944
15.350000	25.116944
15.360000	25.116944
15.370000	25.116944
15.380000	25.116944
15.390000	25.116944
15.400000	25.116944
15.410000	25.116944
15.420000	25.116944
15.430000	25.116944
15.440000	25.116944
15.450000	25.116944
15.460000	25.116944
15.470000	25.116944
15.480000	25.116944
15.490000	25.116944
15.500000	25.112649
15.510000	25.112649
15.520000	25.112649
15.530000	25.112649
15.540000	25.112649
15.550000	25.112649
15.560000	25.112649
15.570000	25.112649
15.580000	25.112649
15.590000	25.112649
15.600000	25.112649
15.610000	25.112649
15.620000	25.112649
15.630000	25.112649
15.640000	25.112649
15.650000	25.112649
15.660000	25.112649
15.670000	25.112649
15.680000	25.112649
15.690000	25.112649
15.700000	25.112649
15.710000	25.112649
15.720000	25.112649
15.730000	25.112649
15.740000	25.112649
15.750000	25.112649
15.760000	25.112649
15.770000	25.112649
15.780000	25.112649
15.790000	25.112649
15.800000	25.112649
15.810000	25.112649
15.820000	25.112649
15.830000	25.112649
15.840000	25.112649
15.850000	25.112649
15.860000	25.112649
15.870000	25.112649
15.880000	25.112649
15.890000	25.112649
15.900000	25.112649
15.910000	25.112649
15.920000	25.112649
15.930000	25.112649
15.940000	25.112649
15.950000	25.112649
15.960000	25.112649
15.970000	25.112649
15.980000	25.112649
15.990000	25.112649
16.000000	25.108311
16.010000	25.108311
16.020000	25.108311
16.030000	25.108311
16.040000	25.108311
16.050000	25.108311
16.060000	25.108311
16.070000	25.108311
16.080000	25.108311
16.090000	25.108311
16.100000	25.108311
16.110000	25.108311
16.120000	25.108311
16.130000	25.108311
16.140000	25.108311
16.150000	25.108311
16.160000	25.108311
16.170000	25.108311
16.180000	25.108311
16.190000	25.108311
16.200000	25.108311
16.210000	25.108311
16.220000	25.108311
16.230000	25.108311
16.240000	25.108311
16.250000	25.108311
16.260000	25.108311
16.270000	25.108311
16.280000	25.108311
16.290000	25.108311
16.300000	25.108311
16.310000	25.108311
16.320000	25.108311
16.330000	25.108311
16.340000	25.108311
16.350000	25.108311
16.360000	25.108311
16.370000	25.108311
16.380000	25.108311
16.390000	25.108311
16.400000	25.108311
16.410000	25.108311
16.420000	25.108311
16.430000	25.108311
16.440000	25.108311
16.450000	25.108311
16.460000	25.108311
16.470000	25.108311
16.480000	25.108311
16.490000	25.108311
16.500000	25.103629
16.510000	25.103629
16.520000	25.103629
16.530000	25.103629
16.540000	25.103629
16.550000	25.103629
16.560000	25.103629
16.570000	25.103629
16.580000	25.103629
16.590000	25.103629
16.600000	25.103629
16.610000	25.103629
16.620000	25.103629
16.630000	25.103629
16.640000	25.103629
16.650000	25.103629
16.660000	25.103629
16.670000	25.103629
16.680000	25.103629
16.690000	25.103629
16.700000	25.103629
16.710000	25.103629
16.720000	25.103629
16.730000	25.103629
16.740000	25.103629
16.750000	25.103629
16.760000	25.103629
16.770000	25.103629
16.780000	25.103629
16.790000	25.103629
16.800000	25.103629
16.810000	25.103629
16.820000	25.103629
16.830000	25.103629
16.840000	25.103629
16.850000	25.103629
16.860000	25.103629
16.870000	25.103629
16.880000	25.103629
16.890000	25.103629
16.900000	25.103629
16.910000	25.103629
16.920000	25.103629
16.930000	25.103629
16.940000	25.103629
16.950000	25.103629
16.960000	25.103629
16.970000	25.103629
16.980000	25.103629
16.990000	25.103629
17.000000	25.099299
17.010000	25.099299
17.020000	25.099299
17.030000	25.099299
17.040000	25.099299
17.050000	25.099299
17.060000	25.099299
17.070000	25.099299
17.080000	25.099299
17.090000	25.099299
17.100000	25.099299
17.110000	25.099299
17.120000	25.099299
17.130000	25.099299
17.140000	25.099299
17.150000	25.099299
17.160000	25.099299
17.170000	25.099299
17.180000	25.099299
17.190000	25.099299
17.200000	25.099299
17.210000	25.099299
17.220000	25.099299
17.230000	25.099299
17.240000	25.099299
17.250000	25.099299
17.260000	25.099299
17.270000	25.099299
17.280000	25.099299
17.290000	25.099299
17.300000	25.099299
17.310000	25.099299
17.320000	25.099299
17.330000	25.099299
17.340000	25.099299
17.350000	25.099299
17.360000	25.099299
17.370000	25.099299
17.380000	25.099299
17.390000	25.099299
17.400000	25.099299
17.410000	25.099299
17.420000	25.099299
17.430000	25.099299
17.440000	25.099299
17.450000	25.099299
17.460000	25.099299
17.470000	25.099299
17.480000	25.099299
17.490000	25.099299
