LabVIEW Measurement	
Writer_Version	2
Reader_Version	2
Separator	Tab
Decimal_Separator	.
Multi_Headings	No
X_Columns	One
Time_Pref	Absolute
Operator	biomech-dyno
Date	2023/04/27
Time	17:41:55.9338632999999876419
***End_of_Header***	
	
Channels	1	
Samples	10	
Date	2023/04/27	
Time	18:21:58.7574183999995612099	
X_Dimension	Time	
X0	0.0000000000000000E+0	
Delta_X	0.010000	
***End_of_Header***		
X_Value	Untitled	Comment
0.000000	24.705914
0.010000	24.705914
0.020000	24.705914
0.030000	24.705914
0.040000	24.705914
0.050000	24.705914
0.060000	24.705914
0.070000	24.705914
0.080000	24.705914
0.090000	24.705914
0.100000	24.705914
0.110000	24.705914
0.120000	24.705914
0.130000	24.705914
0.140000	24.705914
0.150000	24.705914
0.160000	24.705914
0.170000	24.705914
0.180000	24.705914
0.190000	24.705914
0.200000	24.705914
0.210000	24.705914
0.220000	24.705914
0.230000	24.705914
0.240000	24.705914
0.250000	24.705914
0.260000	24.705914
0.270000	24.705914
0.280000	24.705914
0.290000	24.705914
0.300000	24.705914
0.310000	24.705914
0.320000	24.705914
0.330000	24.705914
0.340000	24.705914
0.350000	24.705914
0.360000	24.705914
0.370000	24.705914
0.380000	24.705914
0.390000	24.705914
0.400000	24.705914
0.410000	24.705914
0.420000	24.705914
0.430000	24.705914
0.440000	24.705914
0.450000	24.705914
0.460000	24.705914
0.470000	24.705914
0.480000	24.705914
0.490000	24.705914
0.500000	24.702729
0.510000	24.702729
0.520000	24.702729
0.530000	24.702729
0.540000	24.702729
0.550000	24.702729
0.560000	24.702729
0.570000	24.702729
0.580000	24.702729
0.590000	24.702729
0.600000	24.702729
0.610000	24.702729
0.620000	24.702729
0.630000	24.702729
0.640000	24.702729
0.650000	24.702729
0.660000	24.702729
0.670000	24.702729
0.680000	24.702729
0.690000	24.702729
0.700000	24.702729
0.710000	24.702729
0.720000	24.702729
0.730000	24.702729
0.740000	24.702729
0.750000	24.702729
0.760000	24.702729
0.770000	24.702729
0.780000	24.702729
0.790000	24.702729
0.800000	24.702729
0.810000	24.702729
0.820000	24.702729
0.830000	24.702729
0.840000	24.702729
0.850000	24.702729
0.860000	24.702729
0.870000	24.702729
0.880000	24.702729
0.890000	24.702729
0.900000	24.702729
0.910000	24.702729
0.920000	24.702729
0.930000	24.702729
0.940000	24.702729
0.950000	24.702729
0.960000	24.702729
0.970000	24.702729
0.980000	24.702729
0.990000	24.702729
1.000000	24.708032
1.010000	24.708032
1.020000	24.708032
1.030000	24.708032
1.040000	24.708032
1.050000	24.708032
1.060000	24.708032
1.070000	24.708032
1.080000	24.708032
1.090000	24.708032
1.100000	24.708032
1.110000	24.708032
1.120000	24.708032
1.130000	24.708032
1.140000	24.708032
1.150000	24.708032
1.160000	24.708032
1.170000	24.708032
1.180000	24.708032
1.190000	24.708032
1.200000	24.708032
1.210000	24.708032
1.220000	24.708032
1.230000	24.708032
1.240000	24.708032
1.250000	24.708032
1.260000	24.708032
1.270000	24.708032
1.280000	24.708032
1.290000	24.708032
1.300000	24.708032
1.310000	24.708032
1.320000	24.708032
1.330000	24.708032
1.340000	24.708032
1.350000	24.708032
1.360000	24.708032
1.370000	24.708032
1.380000	24.708032
1.390000	24.708032
1.400000	24.708032
1.410000	24.708032
1.420000	24.708032
1.430000	24.708032
1.440000	24.708032
1.450000	24.708032
1.460000	24.708032
1.470000	24.708032
1.480000	24.708032
1.490000	24.708032
1.500000	24.723774
1.510000	24.723774
1.520000	24.723774
1.530000	24.723774
1.540000	24.723774
1.550000	24.723774
1.560000	24.723774
1.570000	24.723774
1.580000	24.723774
1.590000	24.723774
1.600000	24.723774
1.610000	24.723774
1.620000	24.723774
1.630000	24.723774
1.640000	24.723774
1.650000	24.723774
1.660000	24.723774
1.670000	24.723774
1.680000	24.723774
1.690000	24.723774
1.700000	24.723774
1.710000	24.723774
1.720000	24.723774
1.730000	24.723774
1.740000	24.723774
1.750000	24.723774
1.760000	24.723774
1.770000	24.723774
1.780000	24.723774
1.790000	24.723774
1.800000	24.723774
1.810000	24.723774
1.820000	24.723774
1.830000	24.723774
1.840000	24.723774
1.850000	24.723774
1.860000	24.723774
1.870000	24.723774
1.880000	24.723774
1.890000	24.723774
1.900000	24.723774
1.910000	24.723774
1.920000	24.723774
1.930000	24.723774
1.940000	24.723774
1.950000	24.723774
1.960000	24.723774
1.970000	24.723774
1.980000	24.723774
1.990000	24.723774
2.000000	24.747402
2.010000	24.747402
2.020000	24.747402
2.030000	24.747402
2.040000	24.747402
2.050000	24.747402
2.060000	24.747402
2.070000	24.747402
2.080000	24.747402
2.090000	24.747402
2.100000	24.747402
2.110000	24.747402
2.120000	24.747402
2.130000	24.747402
2.140000	24.747402
2.150000	24.747402
2.160000	24.747402
2.170000	24.747402
2.180000	24.747402
2.190000	24.747402
2.200000	24.747402
2.210000	24.747402
2.220000	24.747402
2.230000	24.747402
2.240000	24.747402
2.250000	24.747402
2.260000	24.747402
2.270000	24.747402
2.280000	24.747402
2.290000	24.747402
2.300000	24.747402
2.310000	24.747402
2.320000	24.747402
2.330000	24.747402
2.340000	24.747402
2.350000	24.747402
2.360000	24.747402
2.370000	24.747402
2.380000	24.747402
2.390000	24.747402
2.400000	24.747402
2.410000	24.747402
2.420000	24.747402
2.430000	24.747402
2.440000	24.747402
2.450000	24.747402
2.460000	24.747402
2.470000	24.747402
2.480000	24.747402
2.490000	24.747402
2.500000	24.777389
2.510000	24.777389
2.520000	24.777389
2.530000	24.777389
2.540000	24.777389
2.550000	24.777389
2.560000	24.777389
2.570000	24.777389
2.580000	24.777389
2.590000	24.777389
2.600000	24.777389
2.610000	24.777389
2.620000	24.777389
2.630000	24.777389
2.640000	24.777389
2.650000	24.777389
2.660000	24.777389
2.670000	24.777389
2.680000	24.777389
2.690000	24.777389
2.700000	24.777389
2.710000	24.777389
2.720000	24.777389
2.730000	24.777389
2.740000	24.777389
2.750000	24.777389
2.760000	24.777389
2.770000	24.777389
2.780000	24.777389
2.790000	24.777389
2.800000	24.777389
2.810000	24.777389
2.820000	24.777389
2.830000	24.777389
2.840000	24.777389
2.850000	24.777389
2.860000	24.777389
2.870000	24.777389
2.880000	24.777389
2.890000	24.777389
2.900000	24.777389
2.910000	24.777389
2.920000	24.777389
2.930000	24.777389
2.940000	24.777389
2.950000	24.777389
2.960000	24.777389
2.970000	24.777389
2.980000	24.777389
2.990000	24.777389
3.000000	24.810916
3.010000	24.810916
3.020000	24.810916
3.030000	24.810916
3.040000	24.810916
3.050000	24.810916
3.060000	24.810916
3.070000	24.810916
3.080000	24.810916
3.090000	24.810916
3.100000	24.810916
3.110000	24.810916
3.120000	24.810916
3.130000	24.810916
3.140000	24.810916
3.150000	24.810916
3.160000	24.810916
3.170000	24.810916
3.180000	24.810916
3.190000	24.810916
3.200000	24.810916
3.210000	24.810916
3.220000	24.810916
3.230000	24.810916
3.240000	24.810916
3.250000	24.810916
3.260000	24.810916
3.270000	24.810916
3.280000	24.810916
3.290000	24.810916
3.300000	24.810916
3.310000	24.810916
3.320000	24.810916
3.330000	24.810916
3.340000	24.810916
3.350000	24.810916
3.360000	24.810916
3.370000	24.810916
3.380000	24.810916
3.390000	24.810916
3.400000	24.810916
3.410000	24.810916
3.420000	24.810916
3.430000	24.810916
3.440000	24.810916
3.450000	24.810916
3.460000	24.810916
3.470000	24.810916
3.480000	24.810916
3.490000	24.810916
3.500000	24.838553
3.510000	24.838553
3.520000	24.838553
3.530000	24.838553
3.540000	24.838553
3.550000	24.838553
3.560000	24.838553
3.570000	24.838553
3.580000	24.838553
3.590000	24.838553
3.600000	24.838553
3.610000	24.838553
3.620000	24.838553
3.630000	24.838553
3.640000	24.838553
3.650000	24.838553
3.660000	24.838553
3.670000	24.838553
3.680000	24.838553
3.690000	24.838553
3.700000	24.838553
3.710000	24.838553
3.720000	24.838553
3.730000	24.838553
3.740000	24.838553
3.750000	24.838553
3.760000	24.838553
3.770000	24.838553
3.780000	24.838553
3.790000	24.838553
3.800000	24.838553
3.810000	24.838553
3.820000	24.838553
3.830000	24.838553
3.840000	24.838553
3.850000	24.838553
3.860000	24.838553
3.870000	24.838553
3.880000	24.838553
3.890000	24.838553
3.900000	24.838553
3.910000	24.838553
3.920000	24.838553
3.930000	24.838553
3.940000	24.838553
3.950000	24.838553
3.960000	24.838553
3.970000	24.838553
3.980000	24.838553
3.990000	24.838553
4.000000	24.858387
4.010000	24.858387
4.020000	24.858387
4.030000	24.858387
4.040000	24.858387
4.050000	24.858387
4.060000	24.858387
4.070000	24.858387
4.080000	24.858387
4.090000	24.858387
4.100000	24.858387
4.110000	24.858387
4.120000	24.858387
4.130000	24.858387
4.140000	24.858387
4.150000	24.858387
4.160000	24.858387
4.170000	24.858387
4.180000	24.858387
4.190000	24.858387
4.200000	24.858387
4.210000	24.858387
4.220000	24.858387
4.230000	24.858387
4.240000	24.858387
4.250000	24.858387
4.260000	24.858387
4.270000	24.858387
4.280000	24.858387
4.290000	24.858387
4.300000	24.858387
4.310000	24.858387
4.320000	24.858387
4.330000	24.858387
4.340000	24.858387
4.350000	24.858387
4.360000	24.858387
4.370000	24.858387
4.380000	24.858387
4.390000	24.858387
4.400000	24.858387
4.410000	24.858387
4.420000	24.858387
4.430000	24.858387
4.440000	24.858387
4.450000	24.858387
4.460000	24.858387
4.470000	24.858387
4.480000	24.858387
4.490000	24.858387
4.500000	24.870939
4.510000	24.870939
4.520000	24.870939
4.530000	24.870939
4.540000	24.870939
4.550000	24.870939
4.560000	24.870939
4.570000	24.870939
4.580000	24.870939
4.590000	24.870939
4.600000	24.870939
4.610000	24.870939
4.620000	24.870939
4.630000	24.870939
4.640000	24.870939
4.650000	24.870939
4.660000	24.870939
4.670000	24.870939
4.680000	24.870939
4.690000	24.870939
4.700000	24.870939
4.710000	24.870939
4.720000	24.870939
4.730000	24.870939
4.740000	24.870939
4.750000	24.870939
4.760000	24.870939
4.770000	24.870939
4.780000	24.870939
4.790000	24.870939
4.800000	24.870939
4.810000	24.870939
4.820000	24.870939
4.830000	24.870939
4.840000	24.870939
4.850000	24.870939
4.860000	24.870939
4.870000	24.870939
4.880000	24.870939
4.890000	24.870939
4.900000	24.870939
4.910000	24.870939
4.920000	24.870939
4.930000	24.870939
4.940000	24.870939
4.950000	24.870939
4.960000	24.870939
4.970000	24.870939
4.980000	24.870939
4.990000	24.870939
5.000000	24.879942
5.010000	24.879942
5.020000	24.879942
5.030000	24.879942
5.040000	24.879942
5.050000	24.879942
5.060000	24.879942
5.070000	24.879942
5.080000	24.879942
5.090000	24.879942
5.100000	24.879942
5.110000	24.879942
5.120000	24.879942
5.130000	24.879942
5.140000	24.879942
5.150000	24.879942
5.160000	24.879942
5.170000	24.879942
5.180000	24.879942
5.190000	24.879942
5.200000	24.879942
5.210000	24.879942
5.220000	24.879942
5.230000	24.879942
5.240000	24.879942
5.250000	24.879942
5.260000	24.879942
5.270000	24.879942
5.280000	24.879942
5.290000	24.879942
5.300000	24.879942
5.310000	24.879942
5.320000	24.879942
5.330000	24.879942
5.340000	24.879942
5.350000	24.879942
5.360000	24.879942
5.370000	24.879942
5.380000	24.879942
5.390000	24.879942
5.400000	24.879942
5.410000	24.879942
5.420000	24.879942
5.430000	24.879942
5.440000	24.879942
5.450000	24.879942
5.460000	24.879942
5.470000	24.879942
5.480000	24.879942
5.490000	24.879942
5.500000	24.886869
5.510000	24.886869
5.520000	24.886869
5.530000	24.886869
5.540000	24.886869
5.550000	24.886869
5.560000	24.886869
5.570000	24.886869
5.580000	24.886869
5.590000	24.886869
5.600000	24.886869
5.610000	24.886869
5.620000	24.886869
5.630000	24.886869
5.640000	24.886869
5.650000	24.886869
5.660000	24.886869
5.670000	24.886869
5.680000	24.886869
5.690000	24.886869
5.700000	24.886869
5.710000	24.886869
5.720000	24.886869
5.730000	24.886869
5.740000	24.886869
5.750000	24.886869
5.760000	24.886869
5.770000	24.886869
5.780000	24.886869
5.790000	24.886869
5.800000	24.886869
5.810000	24.886869
5.820000	24.886869
5.830000	24.886869
5.840000	24.886869
5.850000	24.886869
5.860000	24.886869
5.870000	24.886869
5.880000	24.886869
5.890000	24.886869
5.900000	24.886869
5.910000	24.886869
5.920000	24.886869
5.930000	24.886869
5.940000	24.886869
5.950000	24.886869
5.960000	24.886869
5.970000	24.886869
5.980000	24.886869
5.990000	24.886869
6.000000	24.891374
6.010000	24.891374
6.020000	24.891374
6.030000	24.891374
6.040000	24.891374
6.050000	24.891374
6.060000	24.891374
6.070000	24.891374
6.080000	24.891374
6.090000	24.891374
6.100000	24.891374
6.110000	24.891374
6.120000	24.891374
6.130000	24.891374
6.140000	24.891374
6.150000	24.891374
6.160000	24.891374
6.170000	24.891374
6.180000	24.891374
6.190000	24.891374
6.200000	24.891374
6.210000	24.891374
6.220000	24.891374
6.230000	24.891374
6.240000	24.891374
6.250000	24.891374
6.260000	24.891374
6.270000	24.891374
6.280000	24.891374
6.290000	24.891374
6.300000	24.891374
6.310000	24.891374
6.320000	24.891374
6.330000	24.891374
6.340000	24.891374
6.350000	24.891374
6.360000	24.891374
6.370000	24.891374
6.380000	24.891374
6.390000	24.891374
6.400000	24.891374
6.410000	24.891374
6.420000	24.891374
6.430000	24.891374
6.440000	24.891374
6.450000	24.891374
6.460000	24.891374
6.470000	24.891374
6.480000	24.891374
6.490000	24.891374
6.500000	24.894270
6.510000	24.894270
6.520000	24.894270
6.530000	24.894270
6.540000	24.894270
6.550000	24.894270
6.560000	24.894270
6.570000	24.894270
6.580000	24.894270
6.590000	24.894270
6.600000	24.894270
6.610000	24.894270
6.620000	24.894270
6.630000	24.894270
6.640000	24.894270
6.650000	24.894270
6.660000	24.894270
6.670000	24.894270
6.680000	24.894270
6.690000	24.894270
6.700000	24.894270
6.710000	24.894270
6.720000	24.894270
6.730000	24.894270
6.740000	24.894270
6.750000	24.894270
6.760000	24.894270
6.770000	24.894270
6.780000	24.894270
6.790000	24.894270
6.800000	24.894270
6.810000	24.894270
6.820000	24.894270
6.830000	24.894270
6.840000	24.894270
6.850000	24.894270
6.860000	24.894270
6.870000	24.894270
6.880000	24.894270
6.890000	24.894270
6.900000	24.894270
6.910000	24.894270
6.920000	24.894270
6.930000	24.894270
6.940000	24.894270
6.950000	24.894270
6.960000	24.894270
6.970000	24.894270
6.980000	24.894270
6.990000	24.894270
7.000000	24.894633
7.010000	24.894633
7.020000	24.894633
7.030000	24.894633
7.040000	24.894633
7.050000	24.894633
7.060000	24.894633
7.070000	24.894633
7.080000	24.894633
7.090000	24.894633
7.100000	24.894633
7.110000	24.894633
7.120000	24.894633
7.130000	24.894633
7.140000	24.894633
7.150000	24.894633
7.160000	24.894633
7.170000	24.894633
7.180000	24.894633
7.190000	24.894633
7.200000	24.894633
7.210000	24.894633
7.220000	24.894633
7.230000	24.894633
7.240000	24.894633
7.250000	24.894633
7.260000	24.894633
7.270000	24.894633
7.280000	24.894633
7.290000	24.894633
7.300000	24.894633
7.310000	24.894633
7.320000	24.894633
7.330000	24.894633
7.340000	24.894633
7.350000	24.894633
7.360000	24.894633
7.370000	24.894633
7.380000	24.894633
7.390000	24.894633
7.400000	24.894633
7.410000	24.894633
7.420000	24.894633
7.430000	24.894633
7.440000	24.894633
7.450000	24.894633
7.460000	24.894633
7.470000	24.894633
7.480000	24.894633
7.490000	24.894633
7.500000	24.893544
7.510000	24.893544
7.520000	24.893544
7.530000	24.893544
7.540000	24.893544
7.550000	24.893544
7.560000	24.893544
7.570000	24.893544
7.580000	24.893544
7.590000	24.893544
7.600000	24.893544
7.610000	24.893544
7.620000	24.893544
7.630000	24.893544
7.640000	24.893544
7.650000	24.893544
7.660000	24.893544
7.670000	24.893544
7.680000	24.893544
7.690000	24.893544
7.700000	24.893544
7.710000	24.893544
7.720000	24.893544
7.730000	24.893544
7.740000	24.893544
7.750000	24.893544
7.760000	24.893544
7.770000	24.893544
7.780000	24.893544
7.790000	24.893544
7.800000	24.893544
7.810000	24.893544
7.820000	24.893544
7.830000	24.893544
7.840000	24.893544
7.850000	24.893544
7.860000	24.893544
7.870000	24.893544
7.880000	24.893544
7.890000	24.893544
7.900000	24.893544
7.910000	24.893544
7.920000	24.893544
7.930000	24.893544
7.940000	24.893544
7.950000	24.893544
7.960000	24.893544
7.970000	24.893544
7.980000	24.893544
7.990000	24.893544
8.000000	24.892160
8.010000	24.892160
8.020000	24.892160
8.030000	24.892160
8.040000	24.892160
8.050000	24.892160
8.060000	24.892160
8.070000	24.892160
8.080000	24.892160
8.090000	24.892160
8.100000	24.892160
8.110000	24.892160
8.120000	24.892160
8.130000	24.892160
8.140000	24.892160
8.150000	24.892160
8.160000	24.892160
8.170000	24.892160
8.180000	24.892160
8.190000	24.892160
8.200000	24.892160
8.210000	24.892160
8.220000	24.892160
8.230000	24.892160
8.240000	24.892160
8.250000	24.892160
8.260000	24.892160
8.270000	24.892160
8.280000	24.892160
8.290000	24.892160
8.300000	24.892160
8.310000	24.892160
8.320000	24.892160
8.330000	24.892160
8.340000	24.892160
8.350000	24.892160
8.360000	24.892160
8.370000	24.892160
8.380000	24.892160
8.390000	24.892160
8.400000	24.892160
8.410000	24.892160
8.420000	24.892160
8.430000	24.892160
8.440000	24.892160
8.450000	24.892160
8.460000	24.892160
8.470000	24.892160
8.480000	24.892160
8.490000	24.892160
8.500000	24.890526
8.510000	24.890526
8.520000	24.890526
8.530000	24.890526
8.540000	24.890526
8.550000	24.890526
8.560000	24.890526
8.570000	24.890526
8.580000	24.890526
8.590000	24.890526
8.600000	24.890526
8.610000	24.890526
8.620000	24.890526
8.630000	24.890526
8.640000	24.890526
8.650000	24.890526
8.660000	24.890526
8.670000	24.890526
8.680000	24.890526
8.690000	24.890526
8.700000	24.890526
8.710000	24.890526
8.720000	24.890526
8.730000	24.890526
8.740000	24.890526
8.750000	24.890526
8.760000	24.890526
8.770000	24.890526
8.780000	24.890526
8.790000	24.890526
8.800000	24.890526
8.810000	24.890526
8.820000	24.890526
8.830000	24.890526
8.840000	24.890526
8.850000	24.890526
8.860000	24.890526
8.870000	24.890526
8.880000	24.890526
8.890000	24.890526
8.900000	24.890526
8.910000	24.890526
8.920000	24.890526
8.930000	24.890526
8.940000	24.890526
8.950000	24.890526
8.960000	24.890526
8.970000	24.890526
8.980000	24.890526
8.990000	24.890526
9.000000	24.888226
9.010000	24.888226
9.020000	24.888226
9.030000	24.888226
9.040000	24.888226
9.050000	24.888226
9.060000	24.888226
9.070000	24.888226
9.080000	24.888226
9.090000	24.888226
9.100000	24.888226
9.110000	24.888226
9.120000	24.888226
9.130000	24.888226
9.140000	24.888226
9.150000	24.888226
9.160000	24.888226
9.170000	24.888226
9.180000	24.888226
9.190000	24.888226
9.200000	24.888226
9.210000	24.888226
9.220000	24.888226
9.230000	24.888226
9.240000	24.888226
9.250000	24.888226
9.260000	24.888226
9.270000	24.888226
9.280000	24.888226
9.290000	24.888226
9.300000	24.888226
9.310000	24.888226
9.320000	24.888226
9.330000	24.888226
9.340000	24.888226
9.350000	24.888226
9.360000	24.888226
9.370000	24.888226
9.380000	24.888226
9.390000	24.888226
9.400000	24.888226
9.410000	24.888226
9.420000	24.888226
9.430000	24.888226
9.440000	24.888226
9.450000	24.888226
9.460000	24.888226
9.470000	24.888226
9.480000	24.888226
9.490000	24.888226
9.500000	24.885658
9.510000	24.885658
9.520000	24.885658
9.530000	24.885658
9.540000	24.885658
9.550000	24.885658
9.560000	24.885658
9.570000	24.885658
9.580000	24.885658
9.590000	24.885658
9.600000	24.885658
9.610000	24.885658
9.620000	24.885658
9.630000	24.885658
9.640000	24.885658
9.650000	24.885658
9.660000	24.885658
9.670000	24.885658
9.680000	24.885658
9.690000	24.885658
9.700000	24.885658
9.710000	24.885658
9.720000	24.885658
9.730000	24.885658
9.740000	24.885658
9.750000	24.885658
9.760000	24.885658
9.770000	24.885658
9.780000	24.885658
9.790000	24.885658
9.800000	24.885658
9.810000	24.885658
9.820000	24.885658
9.830000	24.885658
9.840000	24.885658
9.850000	24.885658
9.860000	24.885658
9.870000	24.885658
9.880000	24.885658
9.890000	24.885658
9.900000	24.885658
9.910000	24.885658
9.920000	24.885658
9.930000	24.885658
9.940000	24.885658
9.950000	24.885658
9.960000	24.885658
9.970000	24.885658
9.980000	24.885658
9.990000	24.885658
10.000000	24.882909
10.010000	24.882909
10.020000	24.882909
10.030000	24.882909
10.040000	24.882909
10.050000	24.882909
10.060000	24.882909
10.070000	24.882909
10.080000	24.882909
10.090000	24.882909
10.100000	24.882909
10.110000	24.882909
10.120000	24.882909
10.130000	24.882909
10.140000	24.882909
10.150000	24.882909
10.160000	24.882909
10.170000	24.882909
10.180000	24.882909
10.190000	24.882909
10.200000	24.882909
10.210000	24.882909
10.220000	24.882909
10.230000	24.882909
10.240000	24.882909
10.250000	24.882909
10.260000	24.882909
10.270000	24.882909
10.280000	24.882909
10.290000	24.882909
10.300000	24.882909
10.310000	24.882909
10.320000	24.882909
10.330000	24.882909
10.340000	24.882909
10.350000	24.882909
10.360000	24.882909
10.370000	24.882909
10.380000	24.882909
10.390000	24.882909
10.400000	24.882909
10.410000	24.882909
10.420000	24.882909
10.430000	24.882909
10.440000	24.882909
10.450000	24.882909
10.460000	24.882909
10.470000	24.882909
10.480000	24.882909
10.490000	24.882909
10.500000	24.879640
10.510000	24.879640
10.520000	24.879640
10.530000	24.879640
10.540000	24.879640
10.550000	24.879640
10.560000	24.879640
10.570000	24.879640
10.580000	24.879640
10.590000	24.879640
10.600000	24.879640
10.610000	24.879640
10.620000	24.879640
10.630000	24.879640
10.640000	24.879640
10.650000	24.879640
10.660000	24.879640
10.670000	24.879640
10.680000	24.879640
10.690000	24.879640
10.700000	24.879640
10.710000	24.879640
10.720000	24.879640
10.730000	24.879640
10.740000	24.879640
10.750000	24.879640
10.760000	24.879640
10.770000	24.879640
10.780000	24.879640
10.790000	24.879640
10.800000	24.879640
10.810000	24.879640
10.820000	24.879640
10.830000	24.879640
10.840000	24.879640
10.850000	24.879640
10.860000	24.879640
10.870000	24.879640
10.880000	24.879640
10.890000	24.879640
10.900000	24.879640
10.910000	24.879640
10.920000	24.879640
10.930000	24.879640
10.940000	24.879640
10.950000	24.879640
10.960000	24.879640
10.970000	24.879640
10.980000	24.879640
10.990000	24.879640
11.000000	24.876276
11.010000	24.876276
11.020000	24.876276
11.030000	24.876276
11.040000	24.876276
11.050000	24.876276
11.060000	24.876276
11.070000	24.876276
11.080000	24.876276
11.090000	24.876276
11.100000	24.876276
11.110000	24.876276
11.120000	24.876276
11.130000	24.876276
11.140000	24.876276
11.150000	24.876276
11.160000	24.876276
11.170000	24.876276
11.180000	24.876276
11.190000	24.876276
11.200000	24.876276
11.210000	24.876276
11.220000	24.876276
11.230000	24.876276
11.240000	24.876276
11.250000	24.876276
11.260000	24.876276
11.270000	24.876276
11.280000	24.876276
11.290000	24.876276
11.300000	24.876276
11.310000	24.876276
11.320000	24.876276
11.330000	24.876276
11.340000	24.876276
11.350000	24.876276
11.360000	24.876276
11.370000	24.876276
11.380000	24.876276
11.390000	24.876276
11.400000	24.876276
11.410000	24.876276
11.420000	24.876276
11.430000	24.876276
11.440000	24.876276
11.450000	24.876276
11.460000	24.876276
11.470000	24.876276
11.480000	24.876276
11.490000	24.876276
11.500000	24.872825
11.510000	24.872825
11.520000	24.872825
11.530000	24.872825
11.540000	24.872825
11.550000	24.872825
11.560000	24.872825
11.570000	24.872825
11.580000	24.872825
11.590000	24.872825
11.600000	24.872825
11.610000	24.872825
11.620000	24.872825
11.630000	24.872825
11.640000	24.872825
11.650000	24.872825
11.660000	24.872825
11.670000	24.872825
11.680000	24.872825
11.690000	24.872825
11.700000	24.872825
11.710000	24.872825
11.720000	24.872825
11.730000	24.872825
11.740000	24.872825
11.750000	24.872825
11.760000	24.872825
11.770000	24.872825
11.780000	24.872825
11.790000	24.872825
11.800000	24.872825
11.810000	24.872825
11.820000	24.872825
11.830000	24.872825
11.840000	24.872825
11.850000	24.872825
11.860000	24.872825
11.870000	24.872825
11.880000	24.872825
11.890000	24.872825
11.900000	24.872825
11.910000	24.872825
11.920000	24.872825
11.930000	24.872825
11.940000	24.872825
11.950000	24.872825
11.960000	24.872825
11.970000	24.872825
11.980000	24.872825
11.990000	24.872825
12.000000	24.869097
12.010000	24.869097
12.020000	24.869097
12.030000	24.869097
12.040000	24.869097
12.050000	24.869097
12.060000	24.869097
12.070000	24.869097
12.080000	24.869097
12.090000	24.869097
12.100000	24.869097
12.110000	24.869097
12.120000	24.869097
12.130000	24.869097
12.140000	24.869097
12.150000	24.869097
12.160000	24.869097
12.170000	24.869097
12.180000	24.869097
12.190000	24.869097
12.200000	24.869097
12.210000	24.869097
12.220000	24.869097
12.230000	24.869097
12.240000	24.869097
12.250000	24.869097
12.260000	24.869097
12.270000	24.869097
12.280000	24.869097
12.290000	24.869097
12.300000	24.869097
12.310000	24.869097
12.320000	24.869097
12.330000	24.869097
12.340000	24.869097
12.350000	24.869097
12.360000	24.869097
12.370000	24.869097
12.380000	24.869097
12.390000	24.869097
12.400000	24.869097
12.410000	24.869097
12.420000	24.869097
12.430000	24.869097
12.440000	24.869097
12.450000	24.869097
12.460000	24.869097
12.470000	24.869097
12.480000	24.869097
12.490000	24.869097
12.500000	24.865325
12.510000	24.865325
12.520000	24.865325
12.530000	24.865325
12.540000	24.865325
12.550000	24.865325
12.560000	24.865325
12.570000	24.865325
12.580000	24.865325
12.590000	24.865325
12.600000	24.865325
12.610000	24.865325
12.620000	24.865325
12.630000	24.865325
12.640000	24.865325
12.650000	24.865325
12.660000	24.865325
12.670000	24.865325
12.680000	24.865325
12.690000	24.865325
12.700000	24.865325
12.710000	24.865325
12.720000	24.865325
12.730000	24.865325
12.740000	24.865325
12.750000	24.865325
12.760000	24.865325
12.770000	24.865325
12.780000	24.865325
12.790000	24.865325
12.800000	24.865325
12.810000	24.865325
12.820000	24.865325
12.830000	24.865325
12.840000	24.865325
12.850000	24.865325
12.860000	24.865325
12.870000	24.865325
12.880000	24.865325
12.890000	24.865325
12.900000	24.865325
12.910000	24.865325
12.920000	24.865325
12.930000	24.865325
12.940000	24.865325
12.950000	24.865325
12.960000	24.865325
12.970000	24.865325
12.980000	24.865325
12.990000	24.865325
13.000000	24.860610
13.010000	24.860610
13.020000	24.860610
13.030000	24.860610
13.040000	24.860610
13.050000	24.860610
13.060000	24.860610
13.070000	24.860610
13.080000	24.860610
13.090000	24.860610
13.100000	24.860610
13.110000	24.860610
13.120000	24.860610
13.130000	24.860610
13.140000	24.860610
13.150000	24.860610
13.160000	24.860610
13.170000	24.860610
13.180000	24.860610
13.190000	24.860610
13.200000	24.860610
13.210000	24.860610
13.220000	24.860610
13.230000	24.860610
13.240000	24.860610
13.250000	24.860610
13.260000	24.860610
13.270000	24.860610
13.280000	24.860610
13.290000	24.860610
13.300000	24.860610
13.310000	24.860610
13.320000	24.860610
13.330000	24.860610
13.340000	24.860610
13.350000	24.860610
13.360000	24.860610
13.370000	24.860610
13.380000	24.860610
13.390000	24.860610
13.400000	24.860610
13.410000	24.860610
13.420000	24.860610
13.430000	24.860610
13.440000	24.860610
13.450000	24.860610
13.460000	24.860610
13.470000	24.860610
13.480000	24.860610
13.490000	24.860610
13.500000	24.855878
13.510000	24.855878
13.520000	24.855878
13.530000	24.855878
13.540000	24.855878
13.550000	24.855878
13.560000	24.855878
13.570000	24.855878
13.580000	24.855878
13.590000	24.855878
13.600000	24.855878
13.610000	24.855878
13.620000	24.855878
13.630000	24.855878
13.640000	24.855878
13.650000	24.855878
13.660000	24.855878
13.670000	24.855878
13.680000	24.855878
13.690000	24.855878
13.700000	24.855878
13.710000	24.855878
13.720000	24.855878
13.730000	24.855878
13.740000	24.855878
13.750000	24.855878
13.760000	24.855878
13.770000	24.855878
13.780000	24.855878
13.790000	24.855878
13.800000	24.855878
13.810000	24.855878
13.820000	24.855878
13.830000	24.855878
13.840000	24.855878
13.850000	24.855878
13.860000	24.855878
13.870000	24.855878
13.880000	24.855878
13.890000	24.855878
13.900000	24.855878
13.910000	24.855878
13.920000	24.855878
13.930000	24.855878
13.940000	24.855878
13.950000	24.855878
13.960000	24.855878
13.970000	24.855878
13.980000	24.855878
13.990000	24.855878
14.000000	24.851041
14.010000	24.851041
14.020000	24.851041
14.030000	24.851041
14.040000	24.851041
14.050000	24.851041
14.060000	24.851041
14.070000	24.851041
14.080000	24.851041
14.090000	24.851041
14.100000	24.851041
14.110000	24.851041
14.120000	24.851041
14.130000	24.851041
14.140000	24.851041
14.150000	24.851041
14.160000	24.851041
14.170000	24.851041
14.180000	24.851041
14.190000	24.851041
14.200000	24.851041
14.210000	24.851041
14.220000	24.851041
14.230000	24.851041
14.240000	24.851041
14.250000	24.851041
14.260000	24.851041
14.270000	24.851041
14.280000	24.851041
14.290000	24.851041
14.300000	24.851041
14.310000	24.851041
14.320000	24.851041
14.330000	24.851041
14.340000	24.851041
14.350000	24.851041
14.360000	24.851041
14.370000	24.851041
14.380000	24.851041
14.390000	24.851041
14.400000	24.851041
14.410000	24.851041
14.420000	24.851041
14.430000	24.851041
14.440000	24.851041
14.450000	24.851041
14.460000	24.851041
14.470000	24.851041
14.480000	24.851041
14.490000	24.851041
14.500000	24.846177
14.510000	24.846177
14.520000	24.846177
14.530000	24.846177
14.540000	24.846177
14.550000	24.846177
14.560000	24.846177
14.570000	24.846177
14.580000	24.846177
14.590000	24.846177
14.600000	24.846177
14.610000	24.846177
14.620000	24.846177
14.630000	24.846177
14.640000	24.846177
14.650000	24.846177
14.660000	24.846177
14.670000	24.846177
14.680000	24.846177
14.690000	24.846177
14.700000	24.846177
14.710000	24.846177
14.720000	24.846177
14.730000	24.846177
14.740000	24.846177
14.750000	24.846177
14.760000	24.846177
14.770000	24.846177
14.780000	24.846177
14.790000	24.846177
14.800000	24.846177
14.810000	24.846177
14.820000	24.846177
14.830000	24.846177
14.840000	24.846177
14.850000	24.846177
14.860000	24.846177
14.870000	24.846177
14.880000	24.846177
14.890000	24.846177
14.900000	24.846177
14.910000	24.846177
14.920000	24.846177
14.930000	24.846177
14.940000	24.846177
14.950000	24.846177
14.960000	24.846177
14.970000	24.846177
14.980000	24.846177
14.990000	24.846177
15.000000	24.839946
15.010000	24.839946
15.020000	24.839946
15.030000	24.839946
15.040000	24.839946
15.050000	24.839946
15.060000	24.839946
15.070000	24.839946
15.080000	24.839946
15.090000	24.839946
15.100000	24.839946
15.110000	24.839946
15.120000	24.839946
15.130000	24.839946
15.140000	24.839946
15.150000	24.839946
15.160000	24.839946
15.170000	24.839946
15.180000	24.839946
15.190000	24.839946
15.200000	24.839946
15.210000	24.839946
15.220000	24.839946
15.230000	24.839946
15.240000	24.839946
15.250000	24.839946
15.260000	24.839946
15.270000	24.839946
15.280000	24.839946
15.290000	24.839946
15.300000	24.839946
15.310000	24.839946
15.320000	24.839946
15.330000	24.839946
15.340000	24.839946
15.350000	24.839946
15.360000	24.839946
15.370000	24.839946
15.380000	24.839946
15.390000	24.839946
15.400000	24.839946
15.410000	24.839946
15.420000	24.839946
15.430000	24.839946
15.440000	24.839946
15.450000	24.839946
15.460000	24.839946
15.470000	24.839946
15.480000	24.839946
15.490000	24.839946
15.500000	24.833004
15.510000	24.833004
15.520000	24.833004
15.530000	24.833004
15.540000	24.833004
15.550000	24.833004
15.560000	24.833004
15.570000	24.833004
15.580000	24.833004
15.590000	24.833004
15.600000	24.833004
15.610000	24.833004
15.620000	24.833004
15.630000	24.833004
15.640000	24.833004
15.650000	24.833004
15.660000	24.833004
15.670000	24.833004
15.680000	24.833004
15.690000	24.833004
15.700000	24.833004
15.710000	24.833004
15.720000	24.833004
15.730000	24.833004
15.740000	24.833004
15.750000	24.833004
15.760000	24.833004
15.770000	24.833004
15.780000	24.833004
15.790000	24.833004
15.800000	24.833004
15.810000	24.833004
15.820000	24.833004
15.830000	24.833004
15.840000	24.833004
15.850000	24.833004
15.860000	24.833004
15.870000	24.833004
15.880000	24.833004
15.890000	24.833004
15.900000	24.833004
15.910000	24.833004
15.920000	24.833004
15.930000	24.833004
15.940000	24.833004
15.950000	24.833004
15.960000	24.833004
15.970000	24.833004
15.980000	24.833004
15.990000	24.833004
16.000000	24.827031
16.010000	24.827031
16.020000	24.827031
16.030000	24.827031
16.040000	24.827031
16.050000	24.827031
16.060000	24.827031
16.070000	24.827031
16.080000	24.827031
16.090000	24.827031
16.100000	24.827031
16.110000	24.827031
16.120000	24.827031
16.130000	24.827031
16.140000	24.827031
16.150000	24.827031
16.160000	24.827031
16.170000	24.827031
16.180000	24.827031
16.190000	24.827031
16.200000	24.827031
16.210000	24.827031
16.220000	24.827031
16.230000	24.827031
16.240000	24.827031
16.250000	24.827031
16.260000	24.827031
16.270000	24.827031
16.280000	24.827031
16.290000	24.827031
16.300000	24.827031
16.310000	24.827031
16.320000	24.827031
16.330000	24.827031
16.340000	24.827031
16.350000	24.827031
16.360000	24.827031
16.370000	24.827031
16.380000	24.827031
16.390000	24.827031
16.400000	24.827031
16.410000	24.827031
16.420000	24.827031
16.430000	24.827031
16.440000	24.827031
16.450000	24.827031
16.460000	24.827031
16.470000	24.827031
16.480000	24.827031
16.490000	24.827031
16.500000	24.822104
16.510000	24.822104
16.520000	24.822104
16.530000	24.822104
16.540000	24.822104
16.550000	24.822104
16.560000	24.822104
16.570000	24.822104
16.580000	24.822104
16.590000	24.822104
16.600000	24.822104
16.610000	24.822104
16.620000	24.822104
16.630000	24.822104
16.640000	24.822104
16.650000	24.822104
16.660000	24.822104
16.670000	24.822104
16.680000	24.822104
16.690000	24.822104
16.700000	24.822104
16.710000	24.822104
16.720000	24.822104
16.730000	24.822104
16.740000	24.822104
16.750000	24.822104
16.760000	24.822104
16.770000	24.822104
16.780000	24.822104
16.790000	24.822104
16.800000	24.822104
16.810000	24.822104
16.820000	24.822104
16.830000	24.822104
16.840000	24.822104
16.850000	24.822104
16.860000	24.822104
16.870000	24.822104
16.880000	24.822104
16.890000	24.822104
16.900000	24.822104
16.910000	24.822104
16.920000	24.822104
16.930000	24.822104
16.940000	24.822104
16.950000	24.822104
16.960000	24.822104
16.970000	24.822104
16.980000	24.822104
16.990000	24.822104
17.000000	24.817463
17.010000	24.817463
17.020000	24.817463
17.030000	24.817463
17.040000	24.817463
17.050000	24.817463
17.060000	24.817463
17.070000	24.817463
17.080000	24.817463
17.090000	24.817463
17.100000	24.817463
17.110000	24.817463
17.120000	24.817463
17.130000	24.817463
17.140000	24.817463
17.150000	24.817463
17.160000	24.817463
17.170000	24.817463
17.180000	24.817463
17.190000	24.817463
17.200000	24.817463
17.210000	24.817463
17.220000	24.817463
17.230000	24.817463
17.240000	24.817463
17.250000	24.817463
17.260000	24.817463
17.270000	24.817463
17.280000	24.817463
17.290000	24.817463
17.300000	24.817463
17.310000	24.817463
17.320000	24.817463
17.330000	24.817463
17.340000	24.817463
17.350000	24.817463
17.360000	24.817463
17.370000	24.817463
17.380000	24.817463
17.390000	24.817463
17.400000	24.817463
17.410000	24.817463
17.420000	24.817463
17.430000	24.817463
17.440000	24.817463
17.450000	24.817463
17.460000	24.817463
17.470000	24.817463
17.480000	24.817463
17.490000	24.817463
