LabVIEW Measurement	
Writer_Version	2
Reader_Version	2
Separator	Tab
Decimal_Separator	.
Multi_Headings	No
X_Columns	One
Time_Pref	Absolute
Operator	biomech-dyno
Date	2023/04/27
Time	17:41:55.9338632999999876419
***End_of_Header***	
	
Channels	1	
Samples	10	
Date	2023/04/27	
Time	18:23:39.8705449999995026335	
X_Dimension	Time	
X0	0.0000000000000000E+0	
Delta_X	0.010000	
***End_of_Header***		
X_Value	Untitled	Comment
0.000000	24.774295
0.010000	24.774295
0.020000	24.774295
0.030000	24.774295
0.040000	24.774295
0.050000	24.774295
0.060000	24.774295
0.070000	24.774295
0.080000	24.774295
0.090000	24.774295
0.100000	24.774295
0.110000	24.774295
0.120000	24.774295
0.130000	24.774295
0.140000	24.774295
0.150000	24.774295
0.160000	24.774295
0.170000	24.774295
0.180000	24.774295
0.190000	24.774295
0.200000	24.774295
0.210000	24.774295
0.220000	24.774295
0.230000	24.774295
0.240000	24.774295
0.250000	24.774295
0.260000	24.774295
0.270000	24.774295
0.280000	24.774295
0.290000	24.774295
0.300000	24.774295
0.310000	24.774295
0.320000	24.774295
0.330000	24.774295
0.340000	24.774295
0.350000	24.774295
0.360000	24.774295
0.370000	24.774295
0.380000	24.774295
0.390000	24.774295
0.400000	24.774295
0.410000	24.774295
0.420000	24.774295
0.430000	24.774295
0.440000	24.774295
0.450000	24.774295
0.460000	24.774295
0.470000	24.774295
0.480000	24.774295
0.490000	24.774295
0.500000	24.775369
0.510000	24.775369
0.520000	24.775369
0.530000	24.775369
0.540000	24.775369
0.550000	24.775369
0.560000	24.775369
0.570000	24.775369
0.580000	24.775369
0.590000	24.775369
0.600000	24.775369
0.610000	24.775369
0.620000	24.775369
0.630000	24.775369
0.640000	24.775369
0.650000	24.775369
0.660000	24.775369
0.670000	24.775369
0.680000	24.775369
0.690000	24.775369
0.700000	24.775369
0.710000	24.775369
0.720000	24.775369
0.730000	24.775369
0.740000	24.775369
0.750000	24.775369
0.760000	24.775369
0.770000	24.775369
0.780000	24.775369
0.790000	24.775369
0.800000	24.775369
0.810000	24.775369
0.820000	24.775369
0.830000	24.775369
0.840000	24.775369
0.850000	24.775369
0.860000	24.775369
0.870000	24.775369
0.880000	24.775369
0.890000	24.775369
0.900000	24.775369
0.910000	24.775369
0.920000	24.775369
0.930000	24.775369
0.940000	24.775369
0.950000	24.775369
0.960000	24.775369
0.970000	24.775369
0.980000	24.775369
0.990000	24.775369
1.000000	24.876985
1.010000	24.876985
1.020000	24.876985
1.030000	24.876985
1.040000	24.876985
1.050000	24.876985
1.060000	24.876985
1.070000	24.876985
1.080000	24.876985
1.090000	24.876985
1.100000	24.876985
1.110000	24.876985
1.120000	24.876985
1.130000	24.876985
1.140000	24.876985
1.150000	24.876985
1.160000	24.876985
1.170000	24.876985
1.180000	24.876985
1.190000	24.876985
1.200000	24.876985
1.210000	24.876985
1.220000	24.876985
1.230000	24.876985
1.240000	24.876985
1.250000	24.876985
1.260000	24.876985
1.270000	24.876985
1.280000	24.876985
1.290000	24.876985
1.300000	24.876985
1.310000	24.876985
1.320000	24.876985
1.330000	24.876985
1.340000	24.876985
1.350000	24.876985
1.360000	24.876985
1.370000	24.876985
1.380000	24.876985
1.390000	24.876985
1.400000	24.876985
1.410000	24.876985
1.420000	24.876985
1.430000	24.876985
1.440000	24.876985
1.450000	24.876985
1.460000	24.876985
1.470000	24.876985
1.480000	24.876985
1.490000	24.876985
1.500000	25.127906
1.510000	25.127906
1.520000	25.127906
1.530000	25.127906
1.540000	25.127906
1.550000	25.127906
1.560000	25.127906
1.570000	25.127906
1.580000	25.127906
1.590000	25.127906
1.600000	25.127906
1.610000	25.127906
1.620000	25.127906
1.630000	25.127906
1.640000	25.127906
1.650000	25.127906
1.660000	25.127906
1.670000	25.127906
1.680000	25.127906
1.690000	25.127906
1.700000	25.127906
1.710000	25.127906
1.720000	25.127906
1.730000	25.127906
1.740000	25.127906
1.750000	25.127906
1.760000	25.127906
1.770000	25.127906
1.780000	25.127906
1.790000	25.127906
1.800000	25.127906
1.810000	25.127906
1.820000	25.127906
1.830000	25.127906
1.840000	25.127906
1.850000	25.127906
1.860000	25.127906
1.870000	25.127906
1.880000	25.127906
1.890000	25.127906
1.900000	25.127906
1.910000	25.127906
1.920000	25.127906
1.930000	25.127906
1.940000	25.127906
1.950000	25.127906
1.960000	25.127906
1.970000	25.127906
1.980000	25.127906
1.990000	25.127906
2.000000	25.498022
2.010000	25.498022
2.020000	25.498022
2.030000	25.498022
2.040000	25.498022
2.050000	25.498022
2.060000	25.498022
2.070000	25.498022
2.080000	25.498022
2.090000	25.498022
2.100000	25.498022
2.110000	25.498022
2.120000	25.498022
2.130000	25.498022
2.140000	25.498022
2.150000	25.498022
2.160000	25.498022
2.170000	25.498022
2.180000	25.498022
2.190000	25.498022
2.200000	25.498022
2.210000	25.498022
2.220000	25.498022
2.230000	25.498022
2.240000	25.498022
2.250000	25.498022
2.260000	25.498022
2.270000	25.498022
2.280000	25.498022
2.290000	25.498022
2.300000	25.498022
2.310000	25.498022
2.320000	25.498022
2.330000	25.498022
2.340000	25.498022
2.350000	25.498022
2.360000	25.498022
2.370000	25.498022
2.380000	25.498022
2.390000	25.498022
2.400000	25.498022
2.410000	25.498022
2.420000	25.498022
2.430000	25.498022
2.440000	25.498022
2.450000	25.498022
2.460000	25.498022
2.470000	25.498022
2.480000	25.498022
2.490000	25.498022
2.500000	25.955646
2.510000	25.955646
2.520000	25.955646
2.530000	25.955646
2.540000	25.955646
2.550000	25.955646
2.560000	25.955646
2.570000	25.955646
2.580000	25.955646
2.590000	25.955646
2.600000	25.955646
2.610000	25.955646
2.620000	25.955646
2.630000	25.955646
2.640000	25.955646
2.650000	25.955646
2.660000	25.955646
2.670000	25.955646
2.680000	25.955646
2.690000	25.955646
2.700000	25.955646
2.710000	25.955646
2.720000	25.955646
2.730000	25.955646
2.740000	25.955646
2.750000	25.955646
2.760000	25.955646
2.770000	25.955646
2.780000	25.955646
2.790000	25.955646
2.800000	25.955646
2.810000	25.955646
2.820000	25.955646
2.830000	25.955646
2.840000	25.955646
2.850000	25.955646
2.860000	25.955646
2.870000	25.955646
2.880000	25.955646
2.890000	25.955646
2.900000	25.955646
2.910000	25.955646
2.920000	25.955646
2.930000	25.955646
2.940000	25.955646
2.950000	25.955646
2.960000	25.955646
2.970000	25.955646
2.980000	25.955646
2.990000	25.955646
3.000000	26.461124
3.010000	26.461124
3.020000	26.461124
3.030000	26.461124
3.040000	26.461124
3.050000	26.461124
3.060000	26.461124
3.070000	26.461124
3.080000	26.461124
3.090000	26.461124
3.100000	26.461124
3.110000	26.461124
3.120000	26.461124
3.130000	26.461124
3.140000	26.461124
3.150000	26.461124
3.160000	26.461124
3.170000	26.461124
3.180000	26.461124
3.190000	26.461124
3.200000	26.461124
3.210000	26.461124
3.220000	26.461124
3.230000	26.461124
3.240000	26.461124
3.250000	26.461124
3.260000	26.461124
3.270000	26.461124
3.280000	26.461124
3.290000	26.461124
3.300000	26.461124
3.310000	26.461124
3.320000	26.461124
3.330000	26.461124
3.340000	26.461124
3.350000	26.461124
3.360000	26.461124
3.370000	26.461124
3.380000	26.461124
3.390000	26.461124
3.400000	26.461124
3.410000	26.461124
3.420000	26.461124
3.430000	26.461124
3.440000	26.461124
3.450000	26.461124
3.460000	26.461124
3.470000	26.461124
3.480000	26.461124
3.490000	26.461124
3.500000	26.885596
3.510000	26.885596
3.520000	26.885596
3.530000	26.885596
3.540000	26.885596
3.550000	26.885596
3.560000	26.885596
3.570000	26.885596
3.580000	26.885596
3.590000	26.885596
3.600000	26.885596
3.610000	26.885596
3.620000	26.885596
3.630000	26.885596
3.640000	26.885596
3.650000	26.885596
3.660000	26.885596
3.670000	26.885596
3.680000	26.885596
3.690000	26.885596
3.700000	26.885596
3.710000	26.885596
3.720000	26.885596
3.730000	26.885596
3.740000	26.885596
3.750000	26.885596
3.760000	26.885596
3.770000	26.885596
3.780000	26.885596
3.790000	26.885596
3.800000	26.885596
3.810000	26.885596
3.820000	26.885596
3.830000	26.885596
3.840000	26.885596
3.850000	26.885596
3.860000	26.885596
3.870000	26.885596
3.880000	26.885596
3.890000	26.885596
3.900000	26.885596
3.910000	26.885596
3.920000	26.885596
3.930000	26.885596
3.940000	26.885596
3.950000	26.885596
3.960000	26.885596
3.970000	26.885596
3.980000	26.885596
3.990000	26.885596
4.000000	27.194823
4.010000	27.194823
4.020000	27.194823
4.030000	27.194823
4.040000	27.194823
4.050000	27.194823
4.060000	27.194823
4.070000	27.194823
4.080000	27.194823
4.090000	27.194823
4.100000	27.194823
4.110000	27.194823
4.120000	27.194823
4.130000	27.194823
4.140000	27.194823
4.150000	27.194823
4.160000	27.194823
4.170000	27.194823
4.180000	27.194823
4.190000	27.194823
4.200000	27.194823
4.210000	27.194823
4.220000	27.194823
4.230000	27.194823
4.240000	27.194823
4.250000	27.194823
4.260000	27.194823
4.270000	27.194823
4.280000	27.194823
4.290000	27.194823
4.300000	27.194823
4.310000	27.194823
4.320000	27.194823
4.330000	27.194823
4.340000	27.194823
4.350000	27.194823
4.360000	27.194823
4.370000	27.194823
4.380000	27.194823
4.390000	27.194823
4.400000	27.194823
4.410000	27.194823
4.420000	27.194823
4.430000	27.194823
4.440000	27.194823
4.450000	27.194823
4.460000	27.194823
4.470000	27.194823
4.480000	27.194823
4.490000	27.194823
4.500000	27.411429
4.510000	27.411429
4.520000	27.411429
4.530000	27.411429
4.540000	27.411429
4.550000	27.411429
4.560000	27.411429
4.570000	27.411429
4.580000	27.411429
4.590000	27.411429
4.600000	27.411429
4.610000	27.411429
4.620000	27.411429
4.630000	27.411429
4.640000	27.411429
4.650000	27.411429
4.660000	27.411429
4.670000	27.411429
4.680000	27.411429
4.690000	27.411429
4.700000	27.411429
4.710000	27.411429
4.720000	27.411429
4.730000	27.411429
4.740000	27.411429
4.750000	27.411429
4.760000	27.411429
4.770000	27.411429
4.780000	27.411429
4.790000	27.411429
4.800000	27.411429
4.810000	27.411429
4.820000	27.411429
4.830000	27.411429
4.840000	27.411429
4.850000	27.411429
4.860000	27.411429
4.870000	27.411429
4.880000	27.411429
4.890000	27.411429
4.900000	27.411429
4.910000	27.411429
4.920000	27.411429
4.930000	27.411429
4.940000	27.411429
4.950000	27.411429
4.960000	27.411429
4.970000	27.411429
4.980000	27.411429
4.990000	27.411429
5.000000	27.560468
5.010000	27.560468
5.020000	27.560468
5.030000	27.560468
5.040000	27.560468
5.050000	27.560468
5.060000	27.560468
5.070000	27.560468
5.080000	27.560468
5.090000	27.560468
5.100000	27.560468
5.110000	27.560468
5.120000	27.560468
5.130000	27.560468
5.140000	27.560468
5.150000	27.560468
5.160000	27.560468
5.170000	27.560468
5.180000	27.560468
5.190000	27.560468
5.200000	27.560468
5.210000	27.560468
5.220000	27.560468
5.230000	27.560468
5.240000	27.560468
5.250000	27.560468
5.260000	27.560468
5.270000	27.560468
5.280000	27.560468
5.290000	27.560468
5.300000	27.560468
5.310000	27.560468
5.320000	27.560468
5.330000	27.560468
5.340000	27.560468
5.350000	27.560468
5.360000	27.560468
5.370000	27.560468
5.380000	27.560468
5.390000	27.560468
5.400000	27.560468
5.410000	27.560468
5.420000	27.560468
5.430000	27.560468
5.440000	27.560468
5.450000	27.560468
5.460000	27.560468
5.470000	27.560468
5.480000	27.560468
5.490000	27.560468
5.500000	27.655151
5.510000	27.655151
5.520000	27.655151
5.530000	27.655151
5.540000	27.655151
5.550000	27.655151
5.560000	27.655151
5.570000	27.655151
5.580000	27.655151
5.590000	27.655151
5.600000	27.655151
5.610000	27.655151
5.620000	27.655151
5.630000	27.655151
5.640000	27.655151
5.650000	27.655151
5.660000	27.655151
5.670000	27.655151
5.680000	27.655151
5.690000	27.655151
5.700000	27.655151
5.710000	27.655151
5.720000	27.655151
5.730000	27.655151
5.740000	27.655151
5.750000	27.655151
5.760000	27.655151
5.770000	27.655151
5.780000	27.655151
5.790000	27.655151
5.800000	27.655151
5.810000	27.655151
5.820000	27.655151
5.830000	27.655151
5.840000	27.655151
5.850000	27.655151
5.860000	27.655151
5.870000	27.655151
5.880000	27.655151
5.890000	27.655151
5.900000	27.655151
5.910000	27.655151
5.920000	27.655151
5.930000	27.655151
5.940000	27.655151
5.950000	27.655151
5.960000	27.655151
5.970000	27.655151
5.980000	27.655151
5.990000	27.655151
6.000000	27.711265
6.010000	27.711265
6.020000	27.711265
6.030000	27.711265
6.040000	27.711265
6.050000	27.711265
6.060000	27.711265
6.070000	27.711265
6.080000	27.711265
6.090000	27.711265
6.100000	27.711265
6.110000	27.711265
6.120000	27.711265
6.130000	27.711265
6.140000	27.711265
6.150000	27.711265
6.160000	27.711265
6.170000	27.711265
6.180000	27.711265
6.190000	27.711265
6.200000	27.711265
6.210000	27.711265
6.220000	27.711265
6.230000	27.711265
6.240000	27.711265
6.250000	27.711265
6.260000	27.711265
6.270000	27.711265
6.280000	27.711265
6.290000	27.711265
6.300000	27.711265
6.310000	27.711265
6.320000	27.711265
6.330000	27.711265
6.340000	27.711265
6.350000	27.711265
6.360000	27.711265
6.370000	27.711265
6.380000	27.711265
6.390000	27.711265
6.400000	27.711265
6.410000	27.711265
6.420000	27.711265
6.430000	27.711265
6.440000	27.711265
6.450000	27.711265
6.460000	27.711265
6.470000	27.711265
6.480000	27.711265
6.490000	27.711265
6.500000	27.738764
6.510000	27.738764
6.520000	27.738764
6.530000	27.738764
6.540000	27.738764
6.550000	27.738764
6.560000	27.738764
6.570000	27.738764
6.580000	27.738764
6.590000	27.738764
6.600000	27.738764
6.610000	27.738764
6.620000	27.738764
6.630000	27.738764
6.640000	27.738764
6.650000	27.738764
6.660000	27.738764
6.670000	27.738764
6.680000	27.738764
6.690000	27.738764
6.700000	27.738764
6.710000	27.738764
6.720000	27.738764
6.730000	27.738764
6.740000	27.738764
6.750000	27.738764
6.760000	27.738764
6.770000	27.738764
6.780000	27.738764
6.790000	27.738764
6.800000	27.738764
6.810000	27.738764
6.820000	27.738764
6.830000	27.738764
6.840000	27.738764
6.850000	27.738764
6.860000	27.738764
6.870000	27.738764
6.880000	27.738764
6.890000	27.738764
6.900000	27.738764
6.910000	27.738764
6.920000	27.738764
6.930000	27.738764
6.940000	27.738764
6.950000	27.738764
6.960000	27.738764
6.970000	27.738764
6.980000	27.738764
6.990000	27.738764
7.000000	27.741886
7.010000	27.741886
7.020000	27.741886
7.030000	27.741886
7.040000	27.741886
7.050000	27.741886
7.060000	27.741886
7.070000	27.741886
7.080000	27.741886
7.090000	27.741886
7.100000	27.741886
7.110000	27.741886
7.120000	27.741886
7.130000	27.741886
7.140000	27.741886
7.150000	27.741886
7.160000	27.741886
7.170000	27.741886
7.180000	27.741886
7.190000	27.741886
7.200000	27.741886
7.210000	27.741886
7.220000	27.741886
7.230000	27.741886
7.240000	27.741886
7.250000	27.741886
7.260000	27.741886
7.270000	27.741886
7.280000	27.741886
7.290000	27.741886
7.300000	27.741886
7.310000	27.741886
7.320000	27.741886
7.330000	27.741886
7.340000	27.741886
7.350000	27.741886
7.360000	27.741886
7.370000	27.741886
7.380000	27.741886
7.390000	27.741886
7.400000	27.741886
7.410000	27.741886
7.420000	27.741886
7.430000	27.741886
7.440000	27.741886
7.450000	27.741886
7.460000	27.741886
7.470000	27.741886
7.480000	27.741886
7.490000	27.741886
7.500000	27.729226
7.510000	27.729226
7.520000	27.729226
7.530000	27.729226
7.540000	27.729226
7.550000	27.729226
7.560000	27.729226
7.570000	27.729226
7.580000	27.729226
7.590000	27.729226
7.600000	27.729226
7.610000	27.729226
7.620000	27.729226
7.630000	27.729226
7.640000	27.729226
7.650000	27.729226
7.660000	27.729226
7.670000	27.729226
7.680000	27.729226
7.690000	27.729226
7.700000	27.729226
7.710000	27.729226
7.720000	27.729226
7.730000	27.729226
7.740000	27.729226
7.750000	27.729226
7.760000	27.729226
7.770000	27.729226
7.780000	27.729226
7.790000	27.729226
7.800000	27.729226
7.810000	27.729226
7.820000	27.729226
7.830000	27.729226
7.840000	27.729226
7.850000	27.729226
7.860000	27.729226
7.870000	27.729226
7.880000	27.729226
7.890000	27.729226
7.900000	27.729226
7.910000	27.729226
7.920000	27.729226
7.930000	27.729226
7.940000	27.729226
7.950000	27.729226
7.960000	27.729226
7.970000	27.729226
7.980000	27.729226
7.990000	27.729226
8.000000	27.704658
8.010000	27.704658
8.020000	27.704658
8.030000	27.704658
8.040000	27.704658
8.050000	27.704658
8.060000	27.704658
8.070000	27.704658
8.080000	27.704658
8.090000	27.704658
8.100000	27.704658
8.110000	27.704658
8.120000	27.704658
8.130000	27.704658
8.140000	27.704658
8.150000	27.704658
8.160000	27.704658
8.170000	27.704658
8.180000	27.704658
8.190000	27.704658
8.200000	27.704658
8.210000	27.704658
8.220000	27.704658
8.230000	27.704658
8.240000	27.704658
8.250000	27.704658
8.260000	27.704658
8.270000	27.704658
8.280000	27.704658
8.290000	27.704658
8.300000	27.704658
8.310000	27.704658
8.320000	27.704658
8.330000	27.704658
8.340000	27.704658
8.350000	27.704658
8.360000	27.704658
8.370000	27.704658
8.380000	27.704658
8.390000	27.704658
8.400000	27.704658
8.410000	27.704658
8.420000	27.704658
8.430000	27.704658
8.440000	27.704658
8.450000	27.704658
8.460000	27.704658
8.470000	27.704658
8.480000	27.704658
8.490000	27.704658
8.500000	27.670963
8.510000	27.670963
8.520000	27.670963
8.530000	27.670963
8.540000	27.670963
8.550000	27.670963
8.560000	27.670963
8.570000	27.670963
8.580000	27.670963
8.590000	27.670963
8.600000	27.670963
8.610000	27.670963
8.620000	27.670963
8.630000	27.670963
8.640000	27.670963
8.650000	27.670963
8.660000	27.670963
8.670000	27.670963
8.680000	27.670963
8.690000	27.670963
8.700000	27.670963
8.710000	27.670963
8.720000	27.670963
8.730000	27.670963
8.740000	27.670963
8.750000	27.670963
8.760000	27.670963
8.770000	27.670963
8.780000	27.670963
8.790000	27.670963
8.800000	27.670963
8.810000	27.670963
8.820000	27.670963
8.830000	27.670963
8.840000	27.670963
8.850000	27.670963
8.860000	27.670963
8.870000	27.670963
8.880000	27.670963
8.890000	27.670963
8.900000	27.670963
8.910000	27.670963
8.920000	27.670963
8.930000	27.670963
8.940000	27.670963
8.950000	27.670963
8.960000	27.670963
8.970000	27.670963
8.980000	27.670963
8.990000	27.670963
9.000000	27.630900
9.010000	27.630900
9.020000	27.630900
9.030000	27.630900
9.040000	27.630900
9.050000	27.630900
9.060000	27.630900
9.070000	27.630900
9.080000	27.630900
9.090000	27.630900
9.100000	27.630900
9.110000	27.630900
9.120000	27.630900
9.130000	27.630900
9.140000	27.630900
9.150000	27.630900
9.160000	27.630900
9.170000	27.630900
9.180000	27.630900
9.190000	27.630900
9.200000	27.630900
9.210000	27.630900
9.220000	27.630900
9.230000	27.630900
9.240000	27.630900
9.250000	27.630900
9.260000	27.630900
9.270000	27.630900
9.280000	27.630900
9.290000	27.630900
9.300000	27.630900
9.310000	27.630900
9.320000	27.630900
9.330000	27.630900
9.340000	27.630900
9.350000	27.630900
9.360000	27.630900
9.370000	27.630900
9.380000	27.630900
9.390000	27.630900
9.400000	27.630900
9.410000	27.630900
9.420000	27.630900
9.430000	27.630900
9.440000	27.630900
9.450000	27.630900
9.460000	27.630900
9.470000	27.630900
9.480000	27.630900
9.490000	27.630900
9.500000	27.586160
9.510000	27.586160
9.520000	27.586160
9.530000	27.586160
9.540000	27.586160
9.550000	27.586160
9.560000	27.586160
9.570000	27.586160
9.580000	27.586160
9.590000	27.586160
9.600000	27.586160
9.610000	27.586160
9.620000	27.586160
9.630000	27.586160
9.640000	27.586160
9.650000	27.586160
9.660000	27.586160
9.670000	27.586160
9.680000	27.586160
9.690000	27.586160
9.700000	27.586160
9.710000	27.586160
9.720000	27.586160
9.730000	27.586160
9.740000	27.586160
9.750000	27.586160
9.760000	27.586160
9.770000	27.586160
9.780000	27.586160
9.790000	27.586160
9.800000	27.586160
9.810000	27.586160
9.820000	27.586160
9.830000	27.586160
9.840000	27.586160
9.850000	27.586160
9.860000	27.586160
9.870000	27.586160
9.880000	27.586160
9.890000	27.586160
9.900000	27.586160
9.910000	27.586160
9.920000	27.586160
9.930000	27.586160
9.940000	27.586160
9.950000	27.586160
9.960000	27.586160
9.970000	27.586160
9.980000	27.586160
9.990000	27.586160
10.000000	27.537774
10.010000	27.537774
10.020000	27.537774
10.030000	27.537774
10.040000	27.537774
10.050000	27.537774
10.060000	27.537774
10.070000	27.537774
10.080000	27.537774
10.090000	27.537774
10.100000	27.537774
10.110000	27.537774
10.120000	27.537774
10.130000	27.537774
10.140000	27.537774
10.150000	27.537774
10.160000	27.537774
10.170000	27.537774
10.180000	27.537774
10.190000	27.537774
10.200000	27.537774
10.210000	27.537774
10.220000	27.537774
10.230000	27.537774
10.240000	27.537774
10.250000	27.537774
10.260000	27.537774
10.270000	27.537774
10.280000	27.537774
10.290000	27.537774
10.300000	27.537774
10.310000	27.537774
10.320000	27.537774
10.330000	27.537774
10.340000	27.537774
10.350000	27.537774
10.360000	27.537774
10.370000	27.537774
10.380000	27.537774
10.390000	27.537774
10.400000	27.537774
10.410000	27.537774
10.420000	27.537774
10.430000	27.537774
10.440000	27.537774
10.450000	27.537774
10.460000	27.537774
10.470000	27.537774
10.480000	27.537774
10.490000	27.537774
10.500000	27.486534
10.510000	27.486534
10.520000	27.486534
10.530000	27.486534
10.540000	27.486534
10.550000	27.486534
10.560000	27.486534
10.570000	27.486534
10.580000	27.486534
10.590000	27.486534
10.600000	27.486534
10.610000	27.486534
10.620000	27.486534
10.630000	27.486534
10.640000	27.486534
10.650000	27.486534
10.660000	27.486534
10.670000	27.486534
10.680000	27.486534
10.690000	27.486534
10.700000	27.486534
10.710000	27.486534
10.720000	27.486534
10.730000	27.486534
10.740000	27.486534
10.750000	27.486534
10.760000	27.486534
10.770000	27.486534
10.780000	27.486534
10.790000	27.486534
10.800000	27.486534
10.810000	27.486534
10.820000	27.486534
10.830000	27.486534
10.840000	27.486534
10.850000	27.486534
10.860000	27.486534
10.870000	27.486534
10.880000	27.486534
10.890000	27.486534
10.900000	27.486534
10.910000	27.486534
10.920000	27.486534
10.930000	27.486534
10.940000	27.486534
10.950000	27.486534
10.960000	27.486534
10.970000	27.486534
10.980000	27.486534
10.990000	27.486534
11.000000	27.433511
11.010000	27.433511
11.020000	27.433511
11.030000	27.433511
11.040000	27.433511
11.050000	27.433511
11.060000	27.433511
11.070000	27.433511
11.080000	27.433511
11.090000	27.433511
11.100000	27.433511
11.110000	27.433511
11.120000	27.433511
11.130000	27.433511
11.140000	27.433511
11.150000	27.433511
11.160000	27.433511
11.170000	27.433511
11.180000	27.433511
11.190000	27.433511
11.200000	27.433511
11.210000	27.433511
11.220000	27.433511
11.230000	27.433511
11.240000	27.433511
11.250000	27.433511
11.260000	27.433511
11.270000	27.433511
11.280000	27.433511
11.290000	27.433511
11.300000	27.433511
11.310000	27.433511
11.320000	27.433511
11.330000	27.433511
11.340000	27.433511
11.350000	27.433511
11.360000	27.433511
11.370000	27.433511
11.380000	27.433511
11.390000	27.433511
11.400000	27.433511
11.410000	27.433511
11.420000	27.433511
11.430000	27.433511
11.440000	27.433511
11.450000	27.433511
11.460000	27.433511
11.470000	27.433511
11.480000	27.433511
11.490000	27.433511
11.500000	27.377547
11.510000	27.377547
11.520000	27.377547
11.530000	27.377547
11.540000	27.377547
11.550000	27.377547
11.560000	27.377547
11.570000	27.377547
11.580000	27.377547
11.590000	27.377547
11.600000	27.377547
11.610000	27.377547
11.620000	27.377547
11.630000	27.377547
11.640000	27.377547
11.650000	27.377547
11.660000	27.377547
11.670000	27.377547
11.680000	27.377547
11.690000	27.377547
11.700000	27.377547
11.710000	27.377547
11.720000	27.377547
11.730000	27.377547
11.740000	27.377547
11.750000	27.377547
11.760000	27.377547
11.770000	27.377547
11.780000	27.377547
11.790000	27.377547
11.800000	27.377547
11.810000	27.377547
11.820000	27.377547
11.830000	27.377547
11.840000	27.377547
11.850000	27.377547
11.860000	27.377547
11.870000	27.377547
11.880000	27.377547
11.890000	27.377547
11.900000	27.377547
11.910000	27.377547
11.920000	27.377547
11.930000	27.377547
11.940000	27.377547
11.950000	27.377547
11.960000	27.377547
11.970000	27.377547
11.980000	27.377547
11.990000	27.377547
12.000000	27.320897
12.010000	27.320897
12.020000	27.320897
12.030000	27.320897
12.040000	27.320897
12.050000	27.320897
12.060000	27.320897
12.070000	27.320897
12.080000	27.320897
12.090000	27.320897
12.100000	27.320897
12.110000	27.320897
12.120000	27.320897
12.130000	27.320897
12.140000	27.320897
12.150000	27.320897
12.160000	27.320897
12.170000	27.320897
12.180000	27.320897
12.190000	27.320897
12.200000	27.320897
12.210000	27.320897
12.220000	27.320897
12.230000	27.320897
12.240000	27.320897
12.250000	27.320897
12.260000	27.320897
12.270000	27.320897
12.280000	27.320897
12.290000	27.320897
12.300000	27.320897
12.310000	27.320897
12.320000	27.320897
12.330000	27.320897
12.340000	27.320897
12.350000	27.320897
12.360000	27.320897
12.370000	27.320897
12.380000	27.320897
12.390000	27.320897
12.400000	27.320897
12.410000	27.320897
12.420000	27.320897
12.430000	27.320897
12.440000	27.320897
12.450000	27.320897
12.460000	27.320897
12.470000	27.320897
12.480000	27.320897
12.490000	27.320897
12.500000	27.265489
12.510000	27.265489
12.520000	27.265489
12.530000	27.265489
12.540000	27.265489
12.550000	27.265489
12.560000	27.265489
12.570000	27.265489
12.580000	27.265489
12.590000	27.265489
12.600000	27.265489
12.610000	27.265489
12.620000	27.265489
12.630000	27.265489
12.640000	27.265489
12.650000	27.265489
12.660000	27.265489
12.670000	27.265489
12.680000	27.265489
12.690000	27.265489
12.700000	27.265489
12.710000	27.265489
12.720000	27.265489
12.730000	27.265489
12.740000	27.265489
12.750000	27.265489
12.760000	27.265489
12.770000	27.265489
12.780000	27.265489
12.790000	27.265489
12.800000	27.265489
12.810000	27.265489
12.820000	27.265489
12.830000	27.265489
12.840000	27.265489
12.850000	27.265489
12.860000	27.265489
12.870000	27.265489
12.880000	27.265489
12.890000	27.265489
12.900000	27.265489
12.910000	27.265489
12.920000	27.265489
12.930000	27.265489
12.940000	27.265489
12.950000	27.265489
12.960000	27.265489
12.970000	27.265489
12.980000	27.265489
12.990000	27.265489
13.000000	27.210435
13.010000	27.210435
13.020000	27.210435
13.030000	27.210435
13.040000	27.210435
13.050000	27.210435
13.060000	27.210435
13.070000	27.210435
13.080000	27.210435
13.090000	27.210435
13.100000	27.210435
13.110000	27.210435
13.120000	27.210435
13.130000	27.210435
13.140000	27.210435
13.150000	27.210435
13.160000	27.210435
13.170000	27.210435
13.180000	27.210435
13.190000	27.210435
13.200000	27.210435
13.210000	27.210435
13.220000	27.210435
13.230000	27.210435
13.240000	27.210435
13.250000	27.210435
13.260000	27.210435
13.270000	27.210435
13.280000	27.210435
13.290000	27.210435
13.300000	27.210435
13.310000	27.210435
13.320000	27.210435
13.330000	27.210435
13.340000	27.210435
13.350000	27.210435
13.360000	27.210435
13.370000	27.210435
13.380000	27.210435
13.390000	27.210435
13.400000	27.210435
13.410000	27.210435
13.420000	27.210435
13.430000	27.210435
13.440000	27.210435
13.450000	27.210435
13.460000	27.210435
13.470000	27.210435
13.480000	27.210435
13.490000	27.210435
13.500000	27.156314
13.510000	27.156314
13.520000	27.156314
13.530000	27.156314
13.540000	27.156314
13.550000	27.156314
13.560000	27.156314
13.570000	27.156314
13.580000	27.156314
13.590000	27.156314
13.600000	27.156314
13.610000	27.156314
13.620000	27.156314
13.630000	27.156314
13.640000	27.156314
13.650000	27.156314
13.660000	27.156314
13.670000	27.156314
13.680000	27.156314
13.690000	27.156314
13.700000	27.156314
13.710000	27.156314
13.720000	27.156314
13.730000	27.156314
13.740000	27.156314
13.750000	27.156314
13.760000	27.156314
13.770000	27.156314
13.780000	27.156314
13.790000	27.156314
13.800000	27.156314
13.810000	27.156314
13.820000	27.156314
13.830000	27.156314
13.840000	27.156314
13.850000	27.156314
13.860000	27.156314
13.870000	27.156314
13.880000	27.156314
13.890000	27.156314
13.900000	27.156314
13.910000	27.156314
13.920000	27.156314
13.930000	27.156314
13.940000	27.156314
13.950000	27.156314
13.960000	27.156314
13.970000	27.156314
13.980000	27.156314
13.990000	27.156314
14.000000	27.102882
14.010000	27.102882
14.020000	27.102882
14.030000	27.102882
14.040000	27.102882
14.050000	27.102882
14.060000	27.102882
14.070000	27.102882
14.080000	27.102882
14.090000	27.102882
14.100000	27.102882
14.110000	27.102882
14.120000	27.102882
14.130000	27.102882
14.140000	27.102882
14.150000	27.102882
14.160000	27.102882
14.170000	27.102882
14.180000	27.102882
14.190000	27.102882
14.200000	27.102882
14.210000	27.102882
14.220000	27.102882
14.230000	27.102882
14.240000	27.102882
14.250000	27.102882
14.260000	27.102882
14.270000	27.102882
14.280000	27.102882
14.290000	27.102882
14.300000	27.102882
14.310000	27.102882
14.320000	27.102882
14.330000	27.102882
14.340000	27.102882
14.350000	27.102882
14.360000	27.102882
14.370000	27.102882
14.380000	27.102882
14.390000	27.102882
14.400000	27.102882
14.410000	27.102882
14.420000	27.102882
14.430000	27.102882
14.440000	27.102882
14.450000	27.102882
14.460000	27.102882
14.470000	27.102882
14.480000	27.102882
14.490000	27.102882
14.500000	27.051200
14.510000	27.051200
14.520000	27.051200
14.530000	27.051200
14.540000	27.051200
14.550000	27.051200
14.560000	27.051200
14.570000	27.051200
14.580000	27.051200
14.590000	27.051200
14.600000	27.051200
14.610000	27.051200
14.620000	27.051200
14.630000	27.051200
14.640000	27.051200
14.650000	27.051200
14.660000	27.051200
14.670000	27.051200
14.680000	27.051200
14.690000	27.051200
14.700000	27.051200
14.710000	27.051200
14.720000	27.051200
14.730000	27.051200
14.740000	27.051200
14.750000	27.051200
14.760000	27.051200
14.770000	27.051200
14.780000	27.051200
14.790000	27.051200
14.800000	27.051200
14.810000	27.051200
14.820000	27.051200
14.830000	27.051200
14.840000	27.051200
14.850000	27.051200
14.860000	27.051200
14.870000	27.051200
14.880000	27.051200
14.890000	27.051200
14.900000	27.051200
14.910000	27.051200
14.920000	27.051200
14.930000	27.051200
14.940000	27.051200
14.950000	27.051200
14.960000	27.051200
14.970000	27.051200
14.980000	27.051200
14.990000	27.051200
15.000000	26.999624
15.010000	26.999624
15.020000	26.999624
15.030000	26.999624
15.040000	26.999624
15.050000	26.999624
15.060000	26.999624
15.070000	26.999624
15.080000	26.999624
15.090000	26.999624
15.100000	26.999624
15.110000	26.999624
15.120000	26.999624
15.130000	26.999624
15.140000	26.999624
15.150000	26.999624
15.160000	26.999624
15.170000	26.999624
15.180000	26.999624
15.190000	26.999624
15.200000	26.999624
15.210000	26.999624
15.220000	26.999624
15.230000	26.999624
15.240000	26.999624
15.250000	26.999624
15.260000	26.999624
15.270000	26.999624
15.280000	26.999624
15.290000	26.999624
15.300000	26.999624
15.310000	26.999624
15.320000	26.999624
15.330000	26.999624
15.340000	26.999624
15.350000	26.999624
15.360000	26.999624
15.370000	26.999624
15.380000	26.999624
15.390000	26.999624
15.400000	26.999624
15.410000	26.999624
15.420000	26.999624
15.430000	26.999624
15.440000	26.999624
15.450000	26.999624
15.460000	26.999624
15.470000	26.999624
15.480000	26.999624
15.490000	26.999624
15.500000	26.949200
15.510000	26.949200
15.520000	26.949200
15.530000	26.949200
15.540000	26.949200
15.550000	26.949200
15.560000	26.949200
15.570000	26.949200
15.580000	26.949200
15.590000	26.949200
15.600000	26.949200
15.610000	26.949200
15.620000	26.949200
15.630000	26.949200
15.640000	26.949200
15.650000	26.949200
15.660000	26.949200
15.670000	26.949200
15.680000	26.949200
15.690000	26.949200
15.700000	26.949200
15.710000	26.949200
15.720000	26.949200
15.730000	26.949200
15.740000	26.949200
15.750000	26.949200
15.760000	26.949200
15.770000	26.949200
15.780000	26.949200
15.790000	26.949200
15.800000	26.949200
15.810000	26.949200
15.820000	26.949200
15.830000	26.949200
15.840000	26.949200
15.850000	26.949200
15.860000	26.949200
15.870000	26.949200
15.880000	26.949200
15.890000	26.949200
15.900000	26.949200
15.910000	26.949200
15.920000	26.949200
15.930000	26.949200
15.940000	26.949200
15.950000	26.949200
15.960000	26.949200
15.970000	26.949200
15.980000	26.949200
15.990000	26.949200
16.000000	26.899225
16.010000	26.899225
16.020000	26.899225
16.030000	26.899225
16.040000	26.899225
16.050000	26.899225
16.060000	26.899225
16.070000	26.899225
16.080000	26.899225
16.090000	26.899225
16.100000	26.899225
16.110000	26.899225
16.120000	26.899225
16.130000	26.899225
16.140000	26.899225
16.150000	26.899225
16.160000	26.899225
16.170000	26.899225
16.180000	26.899225
16.190000	26.899225
16.200000	26.899225
16.210000	26.899225
16.220000	26.899225
16.230000	26.899225
16.240000	26.899225
16.250000	26.899225
16.260000	26.899225
16.270000	26.899225
16.280000	26.899225
16.290000	26.899225
16.300000	26.899225
16.310000	26.899225
16.320000	26.899225
16.330000	26.899225
16.340000	26.899225
16.350000	26.899225
16.360000	26.899225
16.370000	26.899225
16.380000	26.899225
16.390000	26.899225
16.400000	26.899225
16.410000	26.899225
16.420000	26.899225
16.430000	26.899225
16.440000	26.899225
16.450000	26.899225
16.460000	26.899225
16.470000	26.899225
16.480000	26.899225
16.490000	26.899225
16.500000	26.850482
16.510000	26.850482
16.520000	26.850482
16.530000	26.850482
16.540000	26.850482
16.550000	26.850482
16.560000	26.850482
16.570000	26.850482
16.580000	26.850482
16.590000	26.850482
16.600000	26.850482
16.610000	26.850482
16.620000	26.850482
16.630000	26.850482
16.640000	26.850482
16.650000	26.850482
16.660000	26.850482
16.670000	26.850482
16.680000	26.850482
16.690000	26.850482
16.700000	26.850482
16.710000	26.850482
16.720000	26.850482
16.730000	26.850482
16.740000	26.850482
16.750000	26.850482
16.760000	26.850482
16.770000	26.850482
16.780000	26.850482
16.790000	26.850482
16.800000	26.850482
16.810000	26.850482
16.820000	26.850482
16.830000	26.850482
16.840000	26.850482
16.850000	26.850482
16.860000	26.850482
16.870000	26.850482
16.880000	26.850482
16.890000	26.850482
16.900000	26.850482
16.910000	26.850482
16.920000	26.850482
16.930000	26.850482
16.940000	26.850482
16.950000	26.850482
16.960000	26.850482
16.970000	26.850482
16.980000	26.850482
16.990000	26.850482
17.000000	26.802608
17.010000	26.802608
17.020000	26.802608
17.030000	26.802608
17.040000	26.802608
17.050000	26.802608
17.060000	26.802608
17.070000	26.802608
17.080000	26.802608
17.090000	26.802608
17.100000	26.802608
17.110000	26.802608
17.120000	26.802608
17.130000	26.802608
17.140000	26.802608
17.150000	26.802608
17.160000	26.802608
17.170000	26.802608
17.180000	26.802608
17.190000	26.802608
17.200000	26.802608
17.210000	26.802608
17.220000	26.802608
17.230000	26.802608
17.240000	26.802608
17.250000	26.802608
17.260000	26.802608
17.270000	26.802608
17.280000	26.802608
17.290000	26.802608
17.300000	26.802608
17.310000	26.802608
17.320000	26.802608
17.330000	26.802608
17.340000	26.802608
17.350000	26.802608
17.360000	26.802608
17.370000	26.802608
17.380000	26.802608
17.390000	26.802608
17.400000	26.802608
17.410000	26.802608
17.420000	26.802608
17.430000	26.802608
17.440000	26.802608
17.450000	26.802608
17.460000	26.802608
17.470000	26.802608
17.480000	26.802608
17.490000	26.802608
