LabVIEW Measurement	
Writer_Version	2
Reader_Version	2
Separator	Tab
Decimal_Separator	.
Multi_Headings	No
X_Columns	One
Time_Pref	Absolute
Operator	biomech-dyno
Date	2023/04/27
Time	17:41:55.9338632999999876419
***End_of_Header***	
	
Channels	1	
Samples	10	
Date	2023/04/27	
Time	18:31:57.9459756999999813701	
X_Dimension	Time	
X0	0.0000000000000000E+0	
Delta_X	0.010000	
***End_of_Header***		
X_Value	Untitled	Comment
0.000000	24.738373
0.010000	24.738373
0.020000	24.738373
0.030000	24.738373
0.040000	24.738373
0.050000	24.738373
0.060000	24.738373
0.070000	24.738373
0.080000	24.738373
0.090000	24.738373
0.100000	24.738373
0.110000	24.738373
0.120000	24.738373
0.130000	24.738373
0.140000	24.738373
0.150000	24.738373
0.160000	24.738373
0.170000	24.738373
0.180000	24.738373
0.190000	24.738373
0.200000	24.738373
0.210000	24.738373
0.220000	24.738373
0.230000	24.738373
0.240000	24.738373
0.250000	24.738373
0.260000	24.738373
0.270000	24.738373
0.280000	24.738373
0.290000	24.738373
0.300000	24.738373
0.310000	24.738373
0.320000	24.738373
0.330000	24.738373
0.340000	24.738373
0.350000	24.738373
0.360000	24.738373
0.370000	24.738373
0.380000	24.738373
0.390000	24.738373
0.400000	24.738373
0.410000	24.738373
0.420000	24.738373
0.430000	24.738373
0.440000	24.738373
0.450000	24.738373
0.460000	24.738373
0.470000	24.738373
0.480000	24.738373
0.490000	24.738373
0.500000	24.737098
0.510000	24.737098
0.520000	24.737098
0.530000	24.737098
0.540000	24.737098
0.550000	24.737098
0.560000	24.737098
0.570000	24.737098
0.580000	24.737098
0.590000	24.737098
0.600000	24.737098
0.610000	24.737098
0.620000	24.737098
0.630000	24.737098
0.640000	24.737098
0.650000	24.737098
0.660000	24.737098
0.670000	24.737098
0.680000	24.737098
0.690000	24.737098
0.700000	24.737098
0.710000	24.737098
0.720000	24.737098
0.730000	24.737098
0.740000	24.737098
0.750000	24.737098
0.760000	24.737098
0.770000	24.737098
0.780000	24.737098
0.790000	24.737098
0.800000	24.737098
0.810000	24.737098
0.820000	24.737098
0.830000	24.737098
0.840000	24.737098
0.850000	24.737098
0.860000	24.737098
0.870000	24.737098
0.880000	24.737098
0.890000	24.737098
0.900000	24.737098
0.910000	24.737098
0.920000	24.737098
0.930000	24.737098
0.940000	24.737098
0.950000	24.737098
0.960000	24.737098
0.970000	24.737098
0.980000	24.737098
0.990000	24.737098
1.000000	24.741782
1.010000	24.741782
1.020000	24.741782
1.030000	24.741782
1.040000	24.741782
1.050000	24.741782
1.060000	24.741782
1.070000	24.741782
1.080000	24.741782
1.090000	24.741782
1.100000	24.741782
1.110000	24.741782
1.120000	24.741782
1.130000	24.741782
1.140000	24.741782
1.150000	24.741782
1.160000	24.741782
1.170000	24.741782
1.180000	24.741782
1.190000	24.741782
1.200000	24.741782
1.210000	24.741782
1.220000	24.741782
1.230000	24.741782
1.240000	24.741782
1.250000	24.741782
1.260000	24.741782
1.270000	24.741782
1.280000	24.741782
1.290000	24.741782
1.300000	24.741782
1.310000	24.741782
1.320000	24.741782
1.330000	24.741782
1.340000	24.741782
1.350000	24.741782
1.360000	24.741782
1.370000	24.741782
1.380000	24.741782
1.390000	24.741782
1.400000	24.741782
1.410000	24.741782
1.420000	24.741782
1.430000	24.741782
1.440000	24.741782
1.450000	24.741782
1.460000	24.741782
1.470000	24.741782
1.480000	24.741782
1.490000	24.741782
1.500000	24.756775
1.510000	24.756775
1.520000	24.756775
1.530000	24.756775
1.540000	24.756775
1.550000	24.756775
1.560000	24.756775
1.570000	24.756775
1.580000	24.756775
1.590000	24.756775
1.600000	24.756775
1.610000	24.756775
1.620000	24.756775
1.630000	24.756775
1.640000	24.756775
1.650000	24.756775
1.660000	24.756775
1.670000	24.756775
1.680000	24.756775
1.690000	24.756775
1.700000	24.756775
1.710000	24.756775
1.720000	24.756775
1.730000	24.756775
1.740000	24.756775
1.750000	24.756775
1.760000	24.756775
1.770000	24.756775
1.780000	24.756775
1.790000	24.756775
1.800000	24.756775
1.810000	24.756775
1.820000	24.756775
1.830000	24.756775
1.840000	24.756775
1.850000	24.756775
1.860000	24.756775
1.870000	24.756775
1.880000	24.756775
1.890000	24.756775
1.900000	24.756775
1.910000	24.756775
1.920000	24.756775
1.930000	24.756775
1.940000	24.756775
1.950000	24.756775
1.960000	24.756775
1.970000	24.756775
1.980000	24.756775
1.990000	24.756775
2.000000	24.780318
2.010000	24.780318
2.020000	24.780318
2.030000	24.780318
2.040000	24.780318
2.050000	24.780318
2.060000	24.780318
2.070000	24.780318
2.080000	24.780318
2.090000	24.780318
2.100000	24.780318
2.110000	24.780318
2.120000	24.780318
2.130000	24.780318
2.140000	24.780318
2.150000	24.780318
2.160000	24.780318
2.170000	24.780318
2.180000	24.780318
2.190000	24.780318
2.200000	24.780318
2.210000	24.780318
2.220000	24.780318
2.230000	24.780318
2.240000	24.780318
2.250000	24.780318
2.260000	24.780318
2.270000	24.780318
2.280000	24.780318
2.290000	24.780318
2.300000	24.780318
2.310000	24.780318
2.320000	24.780318
2.330000	24.780318
2.340000	24.780318
2.350000	24.780318
2.360000	24.780318
2.370000	24.780318
2.380000	24.780318
2.390000	24.780318
2.400000	24.780318
2.410000	24.780318
2.420000	24.780318
2.430000	24.780318
2.440000	24.780318
2.450000	24.780318
2.460000	24.780318
2.470000	24.780318
2.480000	24.780318
2.490000	24.780318
2.500000	24.811497
2.510000	24.811497
2.520000	24.811497
2.530000	24.811497
2.540000	24.811497
2.550000	24.811497
2.560000	24.811497
2.570000	24.811497
2.580000	24.811497
2.590000	24.811497
2.600000	24.811497
2.610000	24.811497
2.620000	24.811497
2.630000	24.811497
2.640000	24.811497
2.650000	24.811497
2.660000	24.811497
2.670000	24.811497
2.680000	24.811497
2.690000	24.811497
2.700000	24.811497
2.710000	24.811497
2.720000	24.811497
2.730000	24.811497
2.740000	24.811497
2.750000	24.811497
2.760000	24.811497
2.770000	24.811497
2.780000	24.811497
2.790000	24.811497
2.800000	24.811497
2.810000	24.811497
2.820000	24.811497
2.830000	24.811497
2.840000	24.811497
2.850000	24.811497
2.860000	24.811497
2.870000	24.811497
2.880000	24.811497
2.890000	24.811497
2.900000	24.811497
2.910000	24.811497
2.920000	24.811497
2.930000	24.811497
2.940000	24.811497
2.950000	24.811497
2.960000	24.811497
2.970000	24.811497
2.980000	24.811497
2.990000	24.811497
3.000000	24.844750
3.010000	24.844750
3.020000	24.844750
3.030000	24.844750
3.040000	24.844750
3.050000	24.844750
3.060000	24.844750
3.070000	24.844750
3.080000	24.844750
3.090000	24.844750
3.100000	24.844750
3.110000	24.844750
3.120000	24.844750
3.130000	24.844750
3.140000	24.844750
3.150000	24.844750
3.160000	24.844750
3.170000	24.844750
3.180000	24.844750
3.190000	24.844750
3.200000	24.844750
3.210000	24.844750
3.220000	24.844750
3.230000	24.844750
3.240000	24.844750
3.250000	24.844750
3.260000	24.844750
3.270000	24.844750
3.280000	24.844750
3.290000	24.844750
3.300000	24.844750
3.310000	24.844750
3.320000	24.844750
3.330000	24.844750
3.340000	24.844750
3.350000	24.844750
3.360000	24.844750
3.370000	24.844750
3.380000	24.844750
3.390000	24.844750
3.400000	24.844750
3.410000	24.844750
3.420000	24.844750
3.430000	24.844750
3.440000	24.844750
3.450000	24.844750
3.460000	24.844750
3.470000	24.844750
3.480000	24.844750
3.490000	24.844750
3.500000	24.869598
3.510000	24.869598
3.520000	24.869598
3.530000	24.869598
3.540000	24.869598
3.550000	24.869598
3.560000	24.869598
3.570000	24.869598
3.580000	24.869598
3.590000	24.869598
3.600000	24.869598
3.610000	24.869598
3.620000	24.869598
3.630000	24.869598
3.640000	24.869598
3.650000	24.869598
3.660000	24.869598
3.670000	24.869598
3.680000	24.869598
3.690000	24.869598
3.700000	24.869598
3.710000	24.869598
3.720000	24.869598
3.730000	24.869598
3.740000	24.869598
3.750000	24.869598
3.760000	24.869598
3.770000	24.869598
3.780000	24.869598
3.790000	24.869598
3.800000	24.869598
3.810000	24.869598
3.820000	24.869598
3.830000	24.869598
3.840000	24.869598
3.850000	24.869598
3.860000	24.869598
3.870000	24.869598
3.880000	24.869598
3.890000	24.869598
3.900000	24.869598
3.910000	24.869598
3.920000	24.869598
3.930000	24.869598
3.940000	24.869598
3.950000	24.869598
3.960000	24.869598
3.970000	24.869598
3.980000	24.869598
3.990000	24.869598
4.000000	24.888348
4.010000	24.888348
4.020000	24.888348
4.030000	24.888348
4.040000	24.888348
4.050000	24.888348
4.060000	24.888348
4.070000	24.888348
4.080000	24.888348
4.090000	24.888348
4.100000	24.888348
4.110000	24.888348
4.120000	24.888348
4.130000	24.888348
4.140000	24.888348
4.150000	24.888348
4.160000	24.888348
4.170000	24.888348
4.180000	24.888348
4.190000	24.888348
4.200000	24.888348
4.210000	24.888348
4.220000	24.888348
4.230000	24.888348
4.240000	24.888348
4.250000	24.888348
4.260000	24.888348
4.270000	24.888348
4.280000	24.888348
4.290000	24.888348
4.300000	24.888348
4.310000	24.888348
4.320000	24.888348
4.330000	24.888348
4.340000	24.888348
4.350000	24.888348
4.360000	24.888348
4.370000	24.888348
4.380000	24.888348
4.390000	24.888348
4.400000	24.888348
4.410000	24.888348
4.420000	24.888348
4.430000	24.888348
4.440000	24.888348
4.450000	24.888348
4.460000	24.888348
4.470000	24.888348
4.480000	24.888348
4.490000	24.888348
4.500000	24.904012
4.510000	24.904012
4.520000	24.904012
4.530000	24.904012
4.540000	24.904012
4.550000	24.904012
4.560000	24.904012
4.570000	24.904012
4.580000	24.904012
4.590000	24.904012
4.600000	24.904012
4.610000	24.904012
4.620000	24.904012
4.630000	24.904012
4.640000	24.904012
4.650000	24.904012
4.660000	24.904012
4.670000	24.904012
4.680000	24.904012
4.690000	24.904012
4.700000	24.904012
4.710000	24.904012
4.720000	24.904012
4.730000	24.904012
4.740000	24.904012
4.750000	24.904012
4.760000	24.904012
4.770000	24.904012
4.780000	24.904012
4.790000	24.904012
4.800000	24.904012
4.810000	24.904012
4.820000	24.904012
4.830000	24.904012
4.840000	24.904012
4.850000	24.904012
4.860000	24.904012
4.870000	24.904012
4.880000	24.904012
4.890000	24.904012
4.900000	24.904012
4.910000	24.904012
4.920000	24.904012
4.930000	24.904012
4.940000	24.904012
4.950000	24.904012
4.960000	24.904012
4.970000	24.904012
4.980000	24.904012
4.990000	24.904012
5.000000	24.916060
5.010000	24.916060
5.020000	24.916060
5.030000	24.916060
5.040000	24.916060
5.050000	24.916060
5.060000	24.916060
5.070000	24.916060
5.080000	24.916060
5.090000	24.916060
5.100000	24.916060
5.110000	24.916060
5.120000	24.916060
5.130000	24.916060
5.140000	24.916060
5.150000	24.916060
5.160000	24.916060
5.170000	24.916060
5.180000	24.916060
5.190000	24.916060
5.200000	24.916060
5.210000	24.916060
5.220000	24.916060
5.230000	24.916060
5.240000	24.916060
5.250000	24.916060
5.260000	24.916060
5.270000	24.916060
5.280000	24.916060
5.290000	24.916060
5.300000	24.916060
5.310000	24.916060
5.320000	24.916060
5.330000	24.916060
5.340000	24.916060
5.350000	24.916060
5.360000	24.916060
5.370000	24.916060
5.380000	24.916060
5.390000	24.916060
5.400000	24.916060
5.410000	24.916060
5.420000	24.916060
5.430000	24.916060
5.440000	24.916060
5.450000	24.916060
5.460000	24.916060
5.470000	24.916060
5.480000	24.916060
5.490000	24.916060
5.500000	24.924761
5.510000	24.924761
5.520000	24.924761
5.530000	24.924761
5.540000	24.924761
5.550000	24.924761
5.560000	24.924761
5.570000	24.924761
5.580000	24.924761
5.590000	24.924761
5.600000	24.924761
5.610000	24.924761
5.620000	24.924761
5.630000	24.924761
5.640000	24.924761
5.650000	24.924761
5.660000	24.924761
5.670000	24.924761
5.680000	24.924761
5.690000	24.924761
5.700000	24.924761
5.710000	24.924761
5.720000	24.924761
5.730000	24.924761
5.740000	24.924761
5.750000	24.924761
5.760000	24.924761
5.770000	24.924761
5.780000	24.924761
5.790000	24.924761
5.800000	24.924761
5.810000	24.924761
5.820000	24.924761
5.830000	24.924761
5.840000	24.924761
5.850000	24.924761
5.860000	24.924761
5.870000	24.924761
5.880000	24.924761
5.890000	24.924761
5.900000	24.924761
5.910000	24.924761
5.920000	24.924761
5.930000	24.924761
5.940000	24.924761
5.950000	24.924761
5.960000	24.924761
5.970000	24.924761
5.980000	24.924761
5.990000	24.924761
6.000000	24.930697
6.010000	24.930697
6.020000	24.930697
6.030000	24.930697
6.040000	24.930697
6.050000	24.930697
6.060000	24.930697
6.070000	24.930697
6.080000	24.930697
6.090000	24.930697
6.100000	24.930697
6.110000	24.930697
6.120000	24.930697
6.130000	24.930697
6.140000	24.930697
6.150000	24.930697
6.160000	24.930697
6.170000	24.930697
6.180000	24.930697
6.190000	24.930697
6.200000	24.930697
6.210000	24.930697
6.220000	24.930697
6.230000	24.930697
6.240000	24.930697
6.250000	24.930697
6.260000	24.930697
6.270000	24.930697
6.280000	24.930697
6.290000	24.930697
6.300000	24.930697
6.310000	24.930697
6.320000	24.930697
6.330000	24.930697
6.340000	24.930697
6.350000	24.930697
6.360000	24.930697
6.370000	24.930697
6.380000	24.930697
6.390000	24.930697
6.400000	24.930697
6.410000	24.930697
6.420000	24.930697
6.430000	24.930697
6.440000	24.930697
6.450000	24.930697
6.460000	24.930697
6.470000	24.930697
6.480000	24.930697
6.490000	24.930697
6.500000	24.935214
6.510000	24.935214
6.520000	24.935214
6.530000	24.935214
6.540000	24.935214
6.550000	24.935214
6.560000	24.935214
6.570000	24.935214
6.580000	24.935214
6.590000	24.935214
6.600000	24.935214
6.610000	24.935214
6.620000	24.935214
6.630000	24.935214
6.640000	24.935214
6.650000	24.935214
6.660000	24.935214
6.670000	24.935214
6.680000	24.935214
6.690000	24.935214
6.700000	24.935214
6.710000	24.935214
6.720000	24.935214
6.730000	24.935214
6.740000	24.935214
6.750000	24.935214
6.760000	24.935214
6.770000	24.935214
6.780000	24.935214
6.790000	24.935214
6.800000	24.935214
6.810000	24.935214
6.820000	24.935214
6.830000	24.935214
6.840000	24.935214
6.850000	24.935214
6.860000	24.935214
6.870000	24.935214
6.880000	24.935214
6.890000	24.935214
6.900000	24.935214
6.910000	24.935214
6.920000	24.935214
6.930000	24.935214
6.940000	24.935214
6.950000	24.935214
6.960000	24.935214
6.970000	24.935214
6.980000	24.935214
6.990000	24.935214
7.000000	24.937573
7.010000	24.937573
7.020000	24.937573
7.030000	24.937573
7.040000	24.937573
7.050000	24.937573
7.060000	24.937573
7.070000	24.937573
7.080000	24.937573
7.090000	24.937573
7.100000	24.937573
7.110000	24.937573
7.120000	24.937573
7.130000	24.937573
7.140000	24.937573
7.150000	24.937573
7.160000	24.937573
7.170000	24.937573
7.180000	24.937573
7.190000	24.937573
7.200000	24.937573
7.210000	24.937573
7.220000	24.937573
7.230000	24.937573
7.240000	24.937573
7.250000	24.937573
7.260000	24.937573
7.270000	24.937573
7.280000	24.937573
7.290000	24.937573
7.300000	24.937573
7.310000	24.937573
7.320000	24.937573
7.330000	24.937573
7.340000	24.937573
7.350000	24.937573
7.360000	24.937573
7.370000	24.937573
7.380000	24.937573
7.390000	24.937573
7.400000	24.937573
7.410000	24.937573
7.420000	24.937573
7.430000	24.937573
7.440000	24.937573
7.450000	24.937573
7.460000	24.937573
7.470000	24.937573
7.480000	24.937573
7.490000	24.937573
7.500000	24.938842
7.510000	24.938842
7.520000	24.938842
7.530000	24.938842
7.540000	24.938842
7.550000	24.938842
7.560000	24.938842
7.570000	24.938842
7.580000	24.938842
7.590000	24.938842
7.600000	24.938842
7.610000	24.938842
7.620000	24.938842
7.630000	24.938842
7.640000	24.938842
7.650000	24.938842
7.660000	24.938842
7.670000	24.938842
7.680000	24.938842
7.690000	24.938842
7.700000	24.938842
7.710000	24.938842
7.720000	24.938842
7.730000	24.938842
7.740000	24.938842
7.750000	24.938842
7.760000	24.938842
7.770000	24.938842
7.780000	24.938842
7.790000	24.938842
7.800000	24.938842
7.810000	24.938842
7.820000	24.938842
7.830000	24.938842
7.840000	24.938842
7.850000	24.938842
7.860000	24.938842
7.870000	24.938842
7.880000	24.938842
7.890000	24.938842
7.900000	24.938842
7.910000	24.938842
7.920000	24.938842
7.930000	24.938842
7.940000	24.938842
7.950000	24.938842
7.960000	24.938842
7.970000	24.938842
7.980000	24.938842
7.990000	24.938842
8.000000	24.939024
8.010000	24.939024
8.020000	24.939024
8.030000	24.939024
8.040000	24.939024
8.050000	24.939024
8.060000	24.939024
8.070000	24.939024
8.080000	24.939024
8.090000	24.939024
8.100000	24.939024
8.110000	24.939024
8.120000	24.939024
8.130000	24.939024
8.140000	24.939024
8.150000	24.939024
8.160000	24.939024
8.170000	24.939024
8.180000	24.939024
8.190000	24.939024
8.200000	24.939024
8.210000	24.939024
8.220000	24.939024
8.230000	24.939024
8.240000	24.939024
8.250000	24.939024
8.260000	24.939024
8.270000	24.939024
8.280000	24.939024
8.290000	24.939024
8.300000	24.939024
8.310000	24.939024
8.320000	24.939024
8.330000	24.939024
8.340000	24.939024
8.350000	24.939024
8.360000	24.939024
8.370000	24.939024
8.380000	24.939024
8.390000	24.939024
8.400000	24.939024
8.410000	24.939024
8.420000	24.939024
8.430000	24.939024
8.440000	24.939024
8.450000	24.939024
8.460000	24.939024
8.470000	24.939024
8.480000	24.939024
8.490000	24.939024
8.500000	24.938143
8.510000	24.938143
8.520000	24.938143
8.530000	24.938143
8.540000	24.938143
8.550000	24.938143
8.560000	24.938143
8.570000	24.938143
8.580000	24.938143
8.590000	24.938143
8.600000	24.938143
8.610000	24.938143
8.620000	24.938143
8.630000	24.938143
8.640000	24.938143
8.650000	24.938143
8.660000	24.938143
8.670000	24.938143
8.680000	24.938143
8.690000	24.938143
8.700000	24.938143
8.710000	24.938143
8.720000	24.938143
8.730000	24.938143
8.740000	24.938143
8.750000	24.938143
8.760000	24.938143
8.770000	24.938143
8.780000	24.938143
8.790000	24.938143
8.800000	24.938143
8.810000	24.938143
8.820000	24.938143
8.830000	24.938143
8.840000	24.938143
8.850000	24.938143
8.860000	24.938143
8.870000	24.938143
8.880000	24.938143
8.890000	24.938143
8.900000	24.938143
8.910000	24.938143
8.920000	24.938143
8.930000	24.938143
8.940000	24.938143
8.950000	24.938143
8.960000	24.938143
8.970000	24.938143
8.980000	24.938143
8.990000	24.938143
9.000000	24.936216
9.010000	24.936216
9.020000	24.936216
9.030000	24.936216
9.040000	24.936216
9.050000	24.936216
9.060000	24.936216
9.070000	24.936216
9.080000	24.936216
9.090000	24.936216
9.100000	24.936216
9.110000	24.936216
9.120000	24.936216
9.130000	24.936216
9.140000	24.936216
9.150000	24.936216
9.160000	24.936216
9.170000	24.936216
9.180000	24.936216
9.190000	24.936216
9.200000	24.936216
9.210000	24.936216
9.220000	24.936216
9.230000	24.936216
9.240000	24.936216
9.250000	24.936216
9.260000	24.936216
9.270000	24.936216
9.280000	24.936216
9.290000	24.936216
9.300000	24.936216
9.310000	24.936216
9.320000	24.936216
9.330000	24.936216
9.340000	24.936216
9.350000	24.936216
9.360000	24.936216
9.370000	24.936216
9.380000	24.936216
9.390000	24.936216
9.400000	24.936216
9.410000	24.936216
9.420000	24.936216
9.430000	24.936216
9.440000	24.936216
9.450000	24.936216
9.460000	24.936216
9.470000	24.936216
9.480000	24.936216
9.490000	24.936216
9.500000	24.933703
9.510000	24.933703
9.520000	24.933703
9.530000	24.933703
9.540000	24.933703
9.550000	24.933703
9.560000	24.933703
9.570000	24.933703
9.580000	24.933703
9.590000	24.933703
9.600000	24.933703
9.610000	24.933703
9.620000	24.933703
9.630000	24.933703
9.640000	24.933703
9.650000	24.933703
9.660000	24.933703
9.670000	24.933703
9.680000	24.933703
9.690000	24.933703
9.700000	24.933703
9.710000	24.933703
9.720000	24.933703
9.730000	24.933703
9.740000	24.933703
9.750000	24.933703
9.760000	24.933703
9.770000	24.933703
9.780000	24.933703
9.790000	24.933703
9.800000	24.933703
9.810000	24.933703
9.820000	24.933703
9.830000	24.933703
9.840000	24.933703
9.850000	24.933703
9.860000	24.933703
9.870000	24.933703
9.880000	24.933703
9.890000	24.933703
9.900000	24.933703
9.910000	24.933703
9.920000	24.933703
9.930000	24.933703
9.940000	24.933703
9.950000	24.933703
9.960000	24.933703
9.970000	24.933703
9.980000	24.933703
9.990000	24.933703
10.000000	24.931871
10.010000	24.931871
10.020000	24.931871
10.030000	24.931871
10.040000	24.931871
10.050000	24.931871
10.060000	24.931871
10.070000	24.931871
10.080000	24.931871
10.090000	24.931871
10.100000	24.931871
10.110000	24.931871
10.120000	24.931871
10.130000	24.931871
10.140000	24.931871
10.150000	24.931871
10.160000	24.931871
10.170000	24.931871
10.180000	24.931871
10.190000	24.931871
10.200000	24.931871
10.210000	24.931871
10.220000	24.931871
10.230000	24.931871
10.240000	24.931871
10.250000	24.931871
10.260000	24.931871
10.270000	24.931871
10.280000	24.931871
10.290000	24.931871
10.300000	24.931871
10.310000	24.931871
10.320000	24.931871
10.330000	24.931871
10.340000	24.931871
10.350000	24.931871
10.360000	24.931871
10.370000	24.931871
10.380000	24.931871
10.390000	24.931871
10.400000	24.931871
10.410000	24.931871
10.420000	24.931871
10.430000	24.931871
10.440000	24.931871
10.450000	24.931871
10.460000	24.931871
10.470000	24.931871
10.480000	24.931871
10.490000	24.931871
10.500000	24.929729
10.510000	24.929729
10.520000	24.929729
10.530000	24.929729
10.540000	24.929729
10.550000	24.929729
10.560000	24.929729
10.570000	24.929729
10.580000	24.929729
10.590000	24.929729
10.600000	24.929729
10.610000	24.929729
10.620000	24.929729
10.630000	24.929729
10.640000	24.929729
10.650000	24.929729
10.660000	24.929729
10.670000	24.929729
10.680000	24.929729
10.690000	24.929729
10.700000	24.929729
10.710000	24.929729
10.720000	24.929729
10.730000	24.929729
10.740000	24.929729
10.750000	24.929729
10.760000	24.929729
10.770000	24.929729
10.780000	24.929729
10.790000	24.929729
10.800000	24.929729
10.810000	24.929729
10.820000	24.929729
10.830000	24.929729
10.840000	24.929729
10.850000	24.929729
10.860000	24.929729
10.870000	24.929729
10.880000	24.929729
10.890000	24.929729
10.900000	24.929729
10.910000	24.929729
10.920000	24.929729
10.930000	24.929729
10.940000	24.929729
10.950000	24.929729
10.960000	24.929729
10.970000	24.929729
10.980000	24.929729
10.990000	24.929729
11.000000	24.927854
11.010000	24.927854
11.020000	24.927854
11.030000	24.927854
11.040000	24.927854
11.050000	24.927854
11.060000	24.927854
11.070000	24.927854
11.080000	24.927854
11.090000	24.927854
11.100000	24.927854
11.110000	24.927854
11.120000	24.927854
11.130000	24.927854
11.140000	24.927854
11.150000	24.927854
11.160000	24.927854
11.170000	24.927854
11.180000	24.927854
11.190000	24.927854
11.200000	24.927854
11.210000	24.927854
11.220000	24.927854
11.230000	24.927854
11.240000	24.927854
11.250000	24.927854
11.260000	24.927854
11.270000	24.927854
11.280000	24.927854
11.290000	24.927854
11.300000	24.927854
11.310000	24.927854
11.320000	24.927854
11.330000	24.927854
11.340000	24.927854
11.350000	24.927854
11.360000	24.927854
11.370000	24.927854
11.380000	24.927854
11.390000	24.927854
11.400000	24.927854
11.410000	24.927854
11.420000	24.927854
11.430000	24.927854
11.440000	24.927854
11.450000	24.927854
11.460000	24.927854
11.470000	24.927854
11.480000	24.927854
11.490000	24.927854
11.500000	24.925202
11.510000	24.925202
11.520000	24.925202
11.530000	24.925202
11.540000	24.925202
11.550000	24.925202
11.560000	24.925202
11.570000	24.925202
11.580000	24.925202
11.590000	24.925202
11.600000	24.925202
11.610000	24.925202
11.620000	24.925202
11.630000	24.925202
11.640000	24.925202
11.650000	24.925202
11.660000	24.925202
11.670000	24.925202
11.680000	24.925202
11.690000	24.925202
11.700000	24.925202
11.710000	24.925202
11.720000	24.925202
11.730000	24.925202
11.740000	24.925202
11.750000	24.925202
11.760000	24.925202
11.770000	24.925202
11.780000	24.925202
11.790000	24.925202
11.800000	24.925202
11.810000	24.925202
11.820000	24.925202
11.830000	24.925202
11.840000	24.925202
11.850000	24.925202
11.860000	24.925202
11.870000	24.925202
11.880000	24.925202
11.890000	24.925202
11.900000	24.925202
11.910000	24.925202
11.920000	24.925202
11.930000	24.925202
11.940000	24.925202
11.950000	24.925202
11.960000	24.925202
11.970000	24.925202
11.980000	24.925202
11.990000	24.925202
12.000000	24.921806
12.010000	24.921806
12.020000	24.921806
12.030000	24.921806
12.040000	24.921806
12.050000	24.921806
12.060000	24.921806
12.070000	24.921806
12.080000	24.921806
12.090000	24.921806
12.100000	24.921806
12.110000	24.921806
12.120000	24.921806
12.130000	24.921806
12.140000	24.921806
12.150000	24.921806
12.160000	24.921806
12.170000	24.921806
12.180000	24.921806
12.190000	24.921806
12.200000	24.921806
12.210000	24.921806
12.220000	24.921806
12.230000	24.921806
12.240000	24.921806
12.250000	24.921806
12.260000	24.921806
12.270000	24.921806
12.280000	24.921806
12.290000	24.921806
12.300000	24.921806
12.310000	24.921806
12.320000	24.921806
12.330000	24.921806
12.340000	24.921806
12.350000	24.921806
12.360000	24.921806
12.370000	24.921806
12.380000	24.921806
12.390000	24.921806
12.400000	24.921806
12.410000	24.921806
12.420000	24.921806
12.430000	24.921806
12.440000	24.921806
12.450000	24.921806
12.460000	24.921806
12.470000	24.921806
12.480000	24.921806
12.490000	24.921806
12.500000	24.917918
12.510000	24.917918
12.520000	24.917918
12.530000	24.917918
12.540000	24.917918
12.550000	24.917918
12.560000	24.917918
12.570000	24.917918
12.580000	24.917918
12.590000	24.917918
12.600000	24.917918
12.610000	24.917918
12.620000	24.917918
12.630000	24.917918
12.640000	24.917918
12.650000	24.917918
12.660000	24.917918
12.670000	24.917918
12.680000	24.917918
12.690000	24.917918
12.700000	24.917918
12.710000	24.917918
12.720000	24.917918
12.730000	24.917918
12.740000	24.917918
12.750000	24.917918
12.760000	24.917918
12.770000	24.917918
12.780000	24.917918
12.790000	24.917918
12.800000	24.917918
12.810000	24.917918
12.820000	24.917918
12.830000	24.917918
12.840000	24.917918
12.850000	24.917918
12.860000	24.917918
12.870000	24.917918
12.880000	24.917918
12.890000	24.917918
12.900000	24.917918
12.910000	24.917918
12.920000	24.917918
12.930000	24.917918
12.940000	24.917918
12.950000	24.917918
12.960000	24.917918
12.970000	24.917918
12.980000	24.917918
12.990000	24.917918
13.000000	24.912871
13.010000	24.912871
13.020000	24.912871
13.030000	24.912871
13.040000	24.912871
13.050000	24.912871
13.060000	24.912871
13.070000	24.912871
13.080000	24.912871
13.090000	24.912871
13.100000	24.912871
13.110000	24.912871
13.120000	24.912871
13.130000	24.912871
13.140000	24.912871
13.150000	24.912871
13.160000	24.912871
13.170000	24.912871
13.180000	24.912871
13.190000	24.912871
13.200000	24.912871
13.210000	24.912871
13.220000	24.912871
13.230000	24.912871
13.240000	24.912871
13.250000	24.912871
13.260000	24.912871
13.270000	24.912871
13.280000	24.912871
13.290000	24.912871
13.300000	24.912871
13.310000	24.912871
13.320000	24.912871
13.330000	24.912871
13.340000	24.912871
13.350000	24.912871
13.360000	24.912871
13.370000	24.912871
13.380000	24.912871
13.390000	24.912871
13.400000	24.912871
13.410000	24.912871
13.420000	24.912871
13.430000	24.912871
13.440000	24.912871
13.450000	24.912871
13.460000	24.912871
13.470000	24.912871
13.480000	24.912871
13.490000	24.912871
13.500000	24.907971
13.510000	24.907971
13.520000	24.907971
13.530000	24.907971
13.540000	24.907971
13.550000	24.907971
13.560000	24.907971
13.570000	24.907971
13.580000	24.907971
13.590000	24.907971
13.600000	24.907971
13.610000	24.907971
13.620000	24.907971
13.630000	24.907971
13.640000	24.907971
13.650000	24.907971
13.660000	24.907971
13.670000	24.907971
13.680000	24.907971
13.690000	24.907971
13.700000	24.907971
13.710000	24.907971
13.720000	24.907971
13.730000	24.907971
13.740000	24.907971
13.750000	24.907971
13.760000	24.907971
13.770000	24.907971
13.780000	24.907971
13.790000	24.907971
13.800000	24.907971
13.810000	24.907971
13.820000	24.907971
13.830000	24.907971
13.840000	24.907971
13.850000	24.907971
13.860000	24.907971
13.870000	24.907971
13.880000	24.907971
13.890000	24.907971
13.900000	24.907971
13.910000	24.907971
13.920000	24.907971
13.930000	24.907971
13.940000	24.907971
13.950000	24.907971
13.960000	24.907971
13.970000	24.907971
13.980000	24.907971
13.990000	24.907971
14.000000	24.904194
14.010000	24.904194
14.020000	24.904194
14.030000	24.904194
14.040000	24.904194
14.050000	24.904194
14.060000	24.904194
14.070000	24.904194
14.080000	24.904194
14.090000	24.904194
14.100000	24.904194
14.110000	24.904194
14.120000	24.904194
14.130000	24.904194
14.140000	24.904194
14.150000	24.904194
14.160000	24.904194
14.170000	24.904194
14.180000	24.904194
14.190000	24.904194
14.200000	24.904194
14.210000	24.904194
14.220000	24.904194
14.230000	24.904194
14.240000	24.904194
14.250000	24.904194
14.260000	24.904194
14.270000	24.904194
14.280000	24.904194
14.290000	24.904194
14.300000	24.904194
14.310000	24.904194
14.320000	24.904194
14.330000	24.904194
14.340000	24.904194
14.350000	24.904194
14.360000	24.904194
14.370000	24.904194
14.380000	24.904194
14.390000	24.904194
14.400000	24.904194
14.410000	24.904194
14.420000	24.904194
14.430000	24.904194
14.440000	24.904194
14.450000	24.904194
14.460000	24.904194
14.470000	24.904194
14.480000	24.904194
14.490000	24.904194
14.500000	24.900252
14.510000	24.900252
14.520000	24.900252
14.530000	24.900252
14.540000	24.900252
14.550000	24.900252
14.560000	24.900252
14.570000	24.900252
14.580000	24.900252
14.590000	24.900252
14.600000	24.900252
14.610000	24.900252
14.620000	24.900252
14.630000	24.900252
14.640000	24.900252
14.650000	24.900252
14.660000	24.900252
14.670000	24.900252
14.680000	24.900252
14.690000	24.900252
14.700000	24.900252
14.710000	24.900252
14.720000	24.900252
14.730000	24.900252
14.740000	24.900252
14.750000	24.900252
14.760000	24.900252
14.770000	24.900252
14.780000	24.900252
14.790000	24.900252
14.800000	24.900252
14.810000	24.900252
14.820000	24.900252
14.830000	24.900252
14.840000	24.900252
14.850000	24.900252
14.860000	24.900252
14.870000	24.900252
14.880000	24.900252
14.890000	24.900252
14.900000	24.900252
14.910000	24.900252
14.920000	24.900252
14.930000	24.900252
14.940000	24.900252
14.950000	24.900252
14.960000	24.900252
14.970000	24.900252
14.980000	24.900252
14.990000	24.900252
15.000000	24.896051
15.010000	24.896051
15.020000	24.896051
15.030000	24.896051
15.040000	24.896051
15.050000	24.896051
15.060000	24.896051
15.070000	24.896051
15.080000	24.896051
15.090000	24.896051
15.100000	24.896051
15.110000	24.896051
15.120000	24.896051
15.130000	24.896051
15.140000	24.896051
15.150000	24.896051
15.160000	24.896051
15.170000	24.896051
15.180000	24.896051
15.190000	24.896051
15.200000	24.896051
15.210000	24.896051
15.220000	24.896051
15.230000	24.896051
15.240000	24.896051
15.250000	24.896051
15.260000	24.896051
15.270000	24.896051
15.280000	24.896051
15.290000	24.896051
15.300000	24.896051
15.310000	24.896051
15.320000	24.896051
15.330000	24.896051
15.340000	24.896051
15.350000	24.896051
15.360000	24.896051
15.370000	24.896051
15.380000	24.896051
15.390000	24.896051
15.400000	24.896051
15.410000	24.896051
15.420000	24.896051
15.430000	24.896051
15.440000	24.896051
15.450000	24.896051
15.460000	24.896051
15.470000	24.896051
15.480000	24.896051
15.490000	24.896051
15.500000	24.891867
15.510000	24.891867
15.520000	24.891867
15.530000	24.891867
15.540000	24.891867
15.550000	24.891867
15.560000	24.891867
15.570000	24.891867
15.580000	24.891867
15.590000	24.891867
15.600000	24.891867
15.610000	24.891867
15.620000	24.891867
15.630000	24.891867
15.640000	24.891867
15.650000	24.891867
15.660000	24.891867
15.670000	24.891867
15.680000	24.891867
15.690000	24.891867
15.700000	24.891867
15.710000	24.891867
15.720000	24.891867
15.730000	24.891867
15.740000	24.891867
15.750000	24.891867
15.760000	24.891867
15.770000	24.891867
15.780000	24.891867
15.790000	24.891867
15.800000	24.891867
15.810000	24.891867
15.820000	24.891867
15.830000	24.891867
15.840000	24.891867
15.850000	24.891867
15.860000	24.891867
15.870000	24.891867
15.880000	24.891867
15.890000	24.891867
15.900000	24.891867
15.910000	24.891867
15.920000	24.891867
15.930000	24.891867
15.940000	24.891867
15.950000	24.891867
15.960000	24.891867
15.970000	24.891867
15.980000	24.891867
15.990000	24.891867
16.000000	24.887517
16.010000	24.887517
16.020000	24.887517
16.030000	24.887517
16.040000	24.887517
16.050000	24.887517
16.060000	24.887517
16.070000	24.887517
16.080000	24.887517
16.090000	24.887517
16.100000	24.887517
16.110000	24.887517
16.120000	24.887517
16.130000	24.887517
16.140000	24.887517
16.150000	24.887517
16.160000	24.887517
16.170000	24.887517
16.180000	24.887517
16.190000	24.887517
16.200000	24.887517
16.210000	24.887517
16.220000	24.887517
16.230000	24.887517
16.240000	24.887517
16.250000	24.887517
16.260000	24.887517
16.270000	24.887517
16.280000	24.887517
16.290000	24.887517
16.300000	24.887517
16.310000	24.887517
16.320000	24.887517
16.330000	24.887517
16.340000	24.887517
16.350000	24.887517
16.360000	24.887517
16.370000	24.887517
16.380000	24.887517
16.390000	24.887517
16.400000	24.887517
16.410000	24.887517
16.420000	24.887517
16.430000	24.887517
16.440000	24.887517
16.450000	24.887517
16.460000	24.887517
16.470000	24.887517
16.480000	24.887517
16.490000	24.887517
16.500000	24.883306
16.510000	24.883306
16.520000	24.883306
16.530000	24.883306
16.540000	24.883306
16.550000	24.883306
16.560000	24.883306
16.570000	24.883306
16.580000	24.883306
16.590000	24.883306
16.600000	24.883306
16.610000	24.883306
16.620000	24.883306
16.630000	24.883306
16.640000	24.883306
16.650000	24.883306
16.660000	24.883306
16.670000	24.883306
16.680000	24.883306
16.690000	24.883306
16.700000	24.883306
16.710000	24.883306
16.720000	24.883306
16.730000	24.883306
16.740000	24.883306
16.750000	24.883306
16.760000	24.883306
16.770000	24.883306
16.780000	24.883306
16.790000	24.883306
16.800000	24.883306
16.810000	24.883306
16.820000	24.883306
16.830000	24.883306
16.840000	24.883306
16.850000	24.883306
16.860000	24.883306
16.870000	24.883306
16.880000	24.883306
16.890000	24.883306
16.900000	24.883306
16.910000	24.883306
16.920000	24.883306
16.930000	24.883306
16.940000	24.883306
16.950000	24.883306
16.960000	24.883306
16.970000	24.883306
16.980000	24.883306
16.990000	24.883306
17.000000	24.878905
17.010000	24.878905
17.020000	24.878905
17.030000	24.878905
17.040000	24.878905
17.050000	24.878905
17.060000	24.878905
17.070000	24.878905
17.080000	24.878905
17.090000	24.878905
17.100000	24.878905
17.110000	24.878905
17.120000	24.878905
17.130000	24.878905
17.140000	24.878905
17.150000	24.878905
17.160000	24.878905
17.170000	24.878905
17.180000	24.878905
17.190000	24.878905
17.200000	24.878905
17.210000	24.878905
17.220000	24.878905
17.230000	24.878905
17.240000	24.878905
17.250000	24.878905
17.260000	24.878905
17.270000	24.878905
17.280000	24.878905
17.290000	24.878905
17.300000	24.878905
17.310000	24.878905
17.320000	24.878905
17.330000	24.878905
17.340000	24.878905
17.350000	24.878905
17.360000	24.878905
17.370000	24.878905
17.380000	24.878905
17.390000	24.878905
17.400000	24.878905
17.410000	24.878905
17.420000	24.878905
17.430000	24.878905
17.440000	24.878905
17.450000	24.878905
17.460000	24.878905
17.470000	24.878905
17.480000	24.878905
17.490000	24.878905
