LabVIEW Measurement	
Writer_Version	2
Reader_Version	2
Separator	Tab
Decimal_Separator	.
Multi_Headings	No
X_Columns	One
Time_Pref	Absolute
Operator	biomech-dyno
Date	2023/05/01
Time	15:28:10.3296671999997826969
***End_of_Header***	
	
Channels	1	
Samples	10	
Date	2023/05/01	
Time	15:35:21.960709599999973741	
X_Dimension	Time	
X0	0.0000000000000000E+0	
Delta_X	0.010000	
***End_of_Header***		
X_Value	Untitled	Comment
0.000000	23.894222
0.010000	23.894222
0.020000	23.894222
0.030000	23.894222
0.040000	23.894222
0.050000	23.894222
0.060000	23.894222
0.070000	23.894222
0.080000	23.894222
0.090000	23.894222
0.100000	23.894222
0.110000	23.894222
0.120000	23.894222
0.130000	23.894222
0.140000	23.894222
0.150000	23.894222
0.160000	23.894222
0.170000	23.894222
0.180000	23.894222
0.190000	23.894222
0.200000	23.894222
0.210000	23.894222
0.220000	23.894222
0.230000	23.894222
0.240000	23.894222
0.250000	23.894222
0.260000	23.894222
0.270000	23.894222
0.280000	23.894222
0.290000	23.894222
0.300000	23.894222
0.310000	23.894222
0.320000	23.894222
0.330000	23.894222
0.340000	23.894222
0.350000	23.894222
0.360000	23.894222
0.370000	23.894222
0.380000	23.894222
0.390000	23.894222
0.400000	23.894222
0.410000	23.894222
0.420000	23.894222
0.430000	23.894222
0.440000	23.894222
0.450000	23.894222
0.460000	23.894222
0.470000	23.894222
0.480000	23.894222
0.490000	23.894222
0.500000	23.897171
0.510000	23.897171
0.520000	23.897171
0.530000	23.897171
0.540000	23.897171
0.550000	23.897171
0.560000	23.897171
0.570000	23.897171
0.580000	23.897171
0.590000	23.897171
0.600000	23.897171
0.610000	23.897171
0.620000	23.897171
0.630000	23.897171
0.640000	23.897171
0.650000	23.897171
0.660000	23.897171
0.670000	23.897171
0.680000	23.897171
0.690000	23.897171
0.700000	23.897171
0.710000	23.897171
0.720000	23.897171
0.730000	23.897171
0.740000	23.897171
0.750000	23.897171
0.760000	23.897171
0.770000	23.897171
0.780000	23.897171
0.790000	23.897171
0.800000	23.897171
0.810000	23.897171
0.820000	23.897171
0.830000	23.897171
0.840000	23.897171
0.850000	23.897171
0.860000	23.897171
0.870000	23.897171
0.880000	23.897171
0.890000	23.897171
0.900000	23.897171
0.910000	23.897171
0.920000	23.897171
0.930000	23.897171
0.940000	23.897171
0.950000	23.897171
0.960000	23.897171
0.970000	23.897171
0.980000	23.897171
0.990000	23.897171
1.000000	23.905153
1.010000	23.905153
1.020000	23.905153
1.030000	23.905153
1.040000	23.905153
1.050000	23.905153
1.060000	23.905153
1.070000	23.905153
1.080000	23.905153
1.090000	23.905153
1.100000	23.905153
1.110000	23.905153
1.120000	23.905153
1.130000	23.905153
1.140000	23.905153
1.150000	23.905153
1.160000	23.905153
1.170000	23.905153
1.180000	23.905153
1.190000	23.905153
1.200000	23.905153
1.210000	23.905153
1.220000	23.905153
1.230000	23.905153
1.240000	23.905153
1.250000	23.905153
1.260000	23.905153
1.270000	23.905153
1.280000	23.905153
1.290000	23.905153
1.300000	23.905153
1.310000	23.905153
1.320000	23.905153
1.330000	23.905153
1.340000	23.905153
1.350000	23.905153
1.360000	23.905153
1.370000	23.905153
1.380000	23.905153
1.390000	23.905153
1.400000	23.905153
1.410000	23.905153
1.420000	23.905153
1.430000	23.905153
1.440000	23.905153
1.450000	23.905153
1.460000	23.905153
1.470000	23.905153
1.480000	23.905153
1.490000	23.905153
1.500000	23.919515
1.510000	23.919515
1.520000	23.919515
1.530000	23.919515
1.540000	23.919515
1.550000	23.919515
1.560000	23.919515
1.570000	23.919515
1.580000	23.919515
1.590000	23.919515
1.600000	23.919515
1.610000	23.919515
1.620000	23.919515
1.630000	23.919515
1.640000	23.919515
1.650000	23.919515
1.660000	23.919515
1.670000	23.919515
1.680000	23.919515
1.690000	23.919515
1.700000	23.919515
1.710000	23.919515
1.720000	23.919515
1.730000	23.919515
1.740000	23.919515
1.750000	23.919515
1.760000	23.919515
1.770000	23.919515
1.780000	23.919515
1.790000	23.919515
1.800000	23.919515
1.810000	23.919515
1.820000	23.919515
1.830000	23.919515
1.840000	23.919515
1.850000	23.919515
1.860000	23.919515
1.870000	23.919515
1.880000	23.919515
1.890000	23.919515
1.900000	23.919515
1.910000	23.919515
1.920000	23.919515
1.930000	23.919515
1.940000	23.919515
1.950000	23.919515
1.960000	23.919515
1.970000	23.919515
1.980000	23.919515
1.990000	23.919515
2.000000	23.939528
2.010000	23.939528
2.020000	23.939528
2.030000	23.939528
2.040000	23.939528
2.050000	23.939528
2.060000	23.939528
2.070000	23.939528
2.080000	23.939528
2.090000	23.939528
2.100000	23.939528
2.110000	23.939528
2.120000	23.939528
2.130000	23.939528
2.140000	23.939528
2.150000	23.939528
2.160000	23.939528
2.170000	23.939528
2.180000	23.939528
2.190000	23.939528
2.200000	23.939528
2.210000	23.939528
2.220000	23.939528
2.230000	23.939528
2.240000	23.939528
2.250000	23.939528
2.260000	23.939528
2.270000	23.939528
2.280000	23.939528
2.290000	23.939528
2.300000	23.939528
2.310000	23.939528
2.320000	23.939528
2.330000	23.939528
2.340000	23.939528
2.350000	23.939528
2.360000	23.939528
2.370000	23.939528
2.380000	23.939528
2.390000	23.939528
2.400000	23.939528
2.410000	23.939528
2.420000	23.939528
2.430000	23.939528
2.440000	23.939528
2.450000	23.939528
2.460000	23.939528
2.470000	23.939528
2.480000	23.939528
2.490000	23.939528
2.500000	23.963332
2.510000	23.963332
2.520000	23.963332
2.530000	23.963332
2.540000	23.963332
2.550000	23.963332
2.560000	23.963332
2.570000	23.963332
2.580000	23.963332
2.590000	23.963332
2.600000	23.963332
2.610000	23.963332
2.620000	23.963332
2.630000	23.963332
2.640000	23.963332
2.650000	23.963332
2.660000	23.963332
2.670000	23.963332
2.680000	23.963332
2.690000	23.963332
2.700000	23.963332
2.710000	23.963332
2.720000	23.963332
2.730000	23.963332
2.740000	23.963332
2.750000	23.963332
2.760000	23.963332
2.770000	23.963332
2.780000	23.963332
2.790000	23.963332
2.800000	23.963332
2.810000	23.963332
2.820000	23.963332
2.830000	23.963332
2.840000	23.963332
2.850000	23.963332
2.860000	23.963332
2.870000	23.963332
2.880000	23.963332
2.890000	23.963332
2.900000	23.963332
2.910000	23.963332
2.920000	23.963332
2.930000	23.963332
2.940000	23.963332
2.950000	23.963332
2.960000	23.963332
2.970000	23.963332
2.980000	23.963332
2.990000	23.963332
3.000000	23.989857
3.010000	23.989857
3.020000	23.989857
3.030000	23.989857
3.040000	23.989857
3.050000	23.989857
3.060000	23.989857
3.070000	23.989857
3.080000	23.989857
3.090000	23.989857
3.100000	23.989857
3.110000	23.989857
3.120000	23.989857
3.130000	23.989857
3.140000	23.989857
3.150000	23.989857
3.160000	23.989857
3.170000	23.989857
3.180000	23.989857
3.190000	23.989857
3.200000	23.989857
3.210000	23.989857
3.220000	23.989857
3.230000	23.989857
3.240000	23.989857
3.250000	23.989857
3.260000	23.989857
3.270000	23.989857
3.280000	23.989857
3.290000	23.989857
3.300000	23.989857
3.310000	23.989857
3.320000	23.989857
3.330000	23.989857
3.340000	23.989857
3.350000	23.989857
3.360000	23.989857
3.370000	23.989857
3.380000	23.989857
3.390000	23.989857
3.400000	23.989857
3.410000	23.989857
3.420000	23.989857
3.430000	23.989857
3.440000	23.989857
3.450000	23.989857
3.460000	23.989857
3.470000	23.989857
3.480000	23.989857
3.490000	23.989857
3.500000	24.015160
3.510000	24.015160
3.520000	24.015160
3.530000	24.015160
3.540000	24.015160
3.550000	24.015160
3.560000	24.015160
3.570000	24.015160
3.580000	24.015160
3.590000	24.015160
3.600000	24.015160
3.610000	24.015160
3.620000	24.015160
3.630000	24.015160
3.640000	24.015160
3.650000	24.015160
3.660000	24.015160
3.670000	24.015160
3.680000	24.015160
3.690000	24.015160
3.700000	24.015160
3.710000	24.015160
3.720000	24.015160
3.730000	24.015160
3.740000	24.015160
3.750000	24.015160
3.760000	24.015160
3.770000	24.015160
3.780000	24.015160
3.790000	24.015160
3.800000	24.015160
3.810000	24.015160
3.820000	24.015160
3.830000	24.015160
3.840000	24.015160
3.850000	24.015160
3.860000	24.015160
3.870000	24.015160
3.880000	24.015160
3.890000	24.015160
3.900000	24.015160
3.910000	24.015160
3.920000	24.015160
3.930000	24.015160
3.940000	24.015160
3.950000	24.015160
3.960000	24.015160
3.970000	24.015160
3.980000	24.015160
3.990000	24.015160
4.000000	24.035440
4.010000	24.035440
4.020000	24.035440
4.030000	24.035440
4.040000	24.035440
4.050000	24.035440
4.060000	24.035440
4.070000	24.035440
4.080000	24.035440
4.090000	24.035440
4.100000	24.035440
4.110000	24.035440
4.120000	24.035440
4.130000	24.035440
4.140000	24.035440
4.150000	24.035440
4.160000	24.035440
4.170000	24.035440
4.180000	24.035440
4.190000	24.035440
4.200000	24.035440
4.210000	24.035440
4.220000	24.035440
4.230000	24.035440
4.240000	24.035440
4.250000	24.035440
4.260000	24.035440
4.270000	24.035440
4.280000	24.035440
4.290000	24.035440
4.300000	24.035440
4.310000	24.035440
4.320000	24.035440
4.330000	24.035440
4.340000	24.035440
4.350000	24.035440
4.360000	24.035440
4.370000	24.035440
4.380000	24.035440
4.390000	24.035440
4.400000	24.035440
4.410000	24.035440
4.420000	24.035440
4.430000	24.035440
4.440000	24.035440
4.450000	24.035440
4.460000	24.035440
4.470000	24.035440
4.480000	24.035440
4.490000	24.035440
4.500000	24.051654
4.510000	24.051654
4.520000	24.051654
4.530000	24.051654
4.540000	24.051654
4.550000	24.051654
4.560000	24.051654
4.570000	24.051654
4.580000	24.051654
4.590000	24.051654
4.600000	24.051654
4.610000	24.051654
4.620000	24.051654
4.630000	24.051654
4.640000	24.051654
4.650000	24.051654
4.660000	24.051654
4.670000	24.051654
4.680000	24.051654
4.690000	24.051654
4.700000	24.051654
4.710000	24.051654
4.720000	24.051654
4.730000	24.051654
4.740000	24.051654
4.750000	24.051654
4.760000	24.051654
4.770000	24.051654
4.780000	24.051654
4.790000	24.051654
4.800000	24.051654
4.810000	24.051654
4.820000	24.051654
4.830000	24.051654
4.840000	24.051654
4.850000	24.051654
4.860000	24.051654
4.870000	24.051654
4.880000	24.051654
4.890000	24.051654
4.900000	24.051654
4.910000	24.051654
4.920000	24.051654
4.930000	24.051654
4.940000	24.051654
4.950000	24.051654
4.960000	24.051654
4.970000	24.051654
4.980000	24.051654
4.990000	24.051654
5.000000	24.063815
5.010000	24.063815
5.020000	24.063815
5.030000	24.063815
5.040000	24.063815
5.050000	24.063815
5.060000	24.063815
5.070000	24.063815
5.080000	24.063815
5.090000	24.063815
5.100000	24.063815
5.110000	24.063815
5.120000	24.063815
5.130000	24.063815
5.140000	24.063815
5.150000	24.063815
5.160000	24.063815
5.170000	24.063815
5.180000	24.063815
5.190000	24.063815
5.200000	24.063815
5.210000	24.063815
5.220000	24.063815
5.230000	24.063815
5.240000	24.063815
5.250000	24.063815
5.260000	24.063815
5.270000	24.063815
5.280000	24.063815
5.290000	24.063815
5.300000	24.063815
5.310000	24.063815
5.320000	24.063815
5.330000	24.063815
5.340000	24.063815
5.350000	24.063815
5.360000	24.063815
5.370000	24.063815
5.380000	24.063815
5.390000	24.063815
5.400000	24.063815
5.410000	24.063815
5.420000	24.063815
5.430000	24.063815
5.440000	24.063815
5.450000	24.063815
5.460000	24.063815
5.470000	24.063815
5.480000	24.063815
5.490000	24.063815
5.500000	24.073096
5.510000	24.073096
5.520000	24.073096
5.530000	24.073096
5.540000	24.073096
5.550000	24.073096
5.560000	24.073096
5.570000	24.073096
5.580000	24.073096
5.590000	24.073096
5.600000	24.073096
5.610000	24.073096
5.620000	24.073096
5.630000	24.073096
5.640000	24.073096
5.650000	24.073096
5.660000	24.073096
5.670000	24.073096
5.680000	24.073096
5.690000	24.073096
5.700000	24.073096
5.710000	24.073096
5.720000	24.073096
5.730000	24.073096
5.740000	24.073096
5.750000	24.073096
5.760000	24.073096
5.770000	24.073096
5.780000	24.073096
5.790000	24.073096
5.800000	24.073096
5.810000	24.073096
5.820000	24.073096
5.830000	24.073096
5.840000	24.073096
5.850000	24.073096
5.860000	24.073096
5.870000	24.073096
5.880000	24.073096
5.890000	24.073096
5.900000	24.073096
5.910000	24.073096
5.920000	24.073096
5.930000	24.073096
5.940000	24.073096
5.950000	24.073096
5.960000	24.073096
5.970000	24.073096
5.980000	24.073096
5.990000	24.073096
6.000000	24.080133
6.010000	24.080133
6.020000	24.080133
6.030000	24.080133
6.040000	24.080133
6.050000	24.080133
6.060000	24.080133
6.070000	24.080133
6.080000	24.080133
6.090000	24.080133
6.100000	24.080133
6.110000	24.080133
6.120000	24.080133
6.130000	24.080133
6.140000	24.080133
6.150000	24.080133
6.160000	24.080133
6.170000	24.080133
6.180000	24.080133
6.190000	24.080133
6.200000	24.080133
6.210000	24.080133
6.220000	24.080133
6.230000	24.080133
6.240000	24.080133
6.250000	24.080133
6.260000	24.080133
6.270000	24.080133
6.280000	24.080133
6.290000	24.080133
6.300000	24.080133
6.310000	24.080133
6.320000	24.080133
6.330000	24.080133
6.340000	24.080133
6.350000	24.080133
6.360000	24.080133
6.370000	24.080133
6.380000	24.080133
6.390000	24.080133
6.400000	24.080133
6.410000	24.080133
6.420000	24.080133
6.430000	24.080133
6.440000	24.080133
6.450000	24.080133
6.460000	24.080133
6.470000	24.080133
6.480000	24.080133
6.490000	24.080133
6.500000	24.085129
6.510000	24.085129
6.520000	24.085129
6.530000	24.085129
6.540000	24.085129
6.550000	24.085129
6.560000	24.085129
6.570000	24.085129
6.580000	24.085129
6.590000	24.085129
6.600000	24.085129
6.610000	24.085129
6.620000	24.085129
6.630000	24.085129
6.640000	24.085129
6.650000	24.085129
6.660000	24.085129
6.670000	24.085129
6.680000	24.085129
6.690000	24.085129
6.700000	24.085129
6.710000	24.085129
6.720000	24.085129
6.730000	24.085129
6.740000	24.085129
6.750000	24.085129
6.760000	24.085129
6.770000	24.085129
6.780000	24.085129
6.790000	24.085129
6.800000	24.085129
6.810000	24.085129
6.820000	24.085129
6.830000	24.085129
6.840000	24.085129
6.850000	24.085129
6.860000	24.085129
6.870000	24.085129
6.880000	24.085129
6.890000	24.085129
6.900000	24.085129
6.910000	24.085129
6.920000	24.085129
6.930000	24.085129
6.940000	24.085129
6.950000	24.085129
6.960000	24.085129
6.970000	24.085129
6.980000	24.085129
6.990000	24.085129
7.000000	24.088937
7.010000	24.088937
7.020000	24.088937
7.030000	24.088937
7.040000	24.088937
7.050000	24.088937
7.060000	24.088937
7.070000	24.088937
7.080000	24.088937
7.090000	24.088937
7.100000	24.088937
7.110000	24.088937
7.120000	24.088937
7.130000	24.088937
7.140000	24.088937
7.150000	24.088937
7.160000	24.088937
7.170000	24.088937
7.180000	24.088937
7.190000	24.088937
7.200000	24.088937
7.210000	24.088937
7.220000	24.088937
7.230000	24.088937
7.240000	24.088937
7.250000	24.088937
7.260000	24.088937
7.270000	24.088937
7.280000	24.088937
7.290000	24.088937
7.300000	24.088937
7.310000	24.088937
7.320000	24.088937
7.330000	24.088937
7.340000	24.088937
7.350000	24.088937
7.360000	24.088937
7.370000	24.088937
7.380000	24.088937
7.390000	24.088937
7.400000	24.088937
7.410000	24.088937
7.420000	24.088937
7.430000	24.088937
7.440000	24.088937
7.450000	24.088937
7.460000	24.088937
7.470000	24.088937
7.480000	24.088937
7.490000	24.088937
7.500000	24.091452
7.510000	24.091452
7.520000	24.091452
7.530000	24.091452
7.540000	24.091452
7.550000	24.091452
7.560000	24.091452
7.570000	24.091452
7.580000	24.091452
7.590000	24.091452
7.600000	24.091452
7.610000	24.091452
7.620000	24.091452
7.630000	24.091452
7.640000	24.091452
7.650000	24.091452
7.660000	24.091452
7.670000	24.091452
7.680000	24.091452
7.690000	24.091452
7.700000	24.091452
7.710000	24.091452
7.720000	24.091452
7.730000	24.091452
7.740000	24.091452
7.750000	24.091452
7.760000	24.091452
7.770000	24.091452
7.780000	24.091452
7.790000	24.091452
7.800000	24.091452
7.810000	24.091452
7.820000	24.091452
7.830000	24.091452
7.840000	24.091452
7.850000	24.091452
7.860000	24.091452
7.870000	24.091452
7.880000	24.091452
7.890000	24.091452
7.900000	24.091452
7.910000	24.091452
7.920000	24.091452
7.930000	24.091452
7.940000	24.091452
7.950000	24.091452
7.960000	24.091452
7.970000	24.091452
7.980000	24.091452
7.990000	24.091452
8.000000	24.092630
8.010000	24.092630
8.020000	24.092630
8.030000	24.092630
8.040000	24.092630
8.050000	24.092630
8.060000	24.092630
8.070000	24.092630
8.080000	24.092630
8.090000	24.092630
8.100000	24.092630
8.110000	24.092630
8.120000	24.092630
8.130000	24.092630
8.140000	24.092630
8.150000	24.092630
8.160000	24.092630
8.170000	24.092630
8.180000	24.092630
8.190000	24.092630
8.200000	24.092630
8.210000	24.092630
8.220000	24.092630
8.230000	24.092630
8.240000	24.092630
8.250000	24.092630
8.260000	24.092630
8.270000	24.092630
8.280000	24.092630
8.290000	24.092630
8.300000	24.092630
8.310000	24.092630
8.320000	24.092630
8.330000	24.092630
8.340000	24.092630
8.350000	24.092630
8.360000	24.092630
8.370000	24.092630
8.380000	24.092630
8.390000	24.092630
8.400000	24.092630
8.410000	24.092630
8.420000	24.092630
8.430000	24.092630
8.440000	24.092630
8.450000	24.092630
8.460000	24.092630
8.470000	24.092630
8.480000	24.092630
8.490000	24.092630
8.500000	24.093193
8.510000	24.093193
8.520000	24.093193
8.530000	24.093193
8.540000	24.093193
8.550000	24.093193
8.560000	24.093193
8.570000	24.093193
8.580000	24.093193
8.590000	24.093193
8.600000	24.093193
8.610000	24.093193
8.620000	24.093193
8.630000	24.093193
8.640000	24.093193
8.650000	24.093193
8.660000	24.093193
8.670000	24.093193
8.680000	24.093193
8.690000	24.093193
8.700000	24.093193
8.710000	24.093193
8.720000	24.093193
8.730000	24.093193
8.740000	24.093193
8.750000	24.093193
8.760000	24.093193
8.770000	24.093193
8.780000	24.093193
8.790000	24.093193
8.800000	24.093193
8.810000	24.093193
8.820000	24.093193
8.830000	24.093193
8.840000	24.093193
8.850000	24.093193
8.860000	24.093193
8.870000	24.093193
8.880000	24.093193
8.890000	24.093193
8.900000	24.093193
8.910000	24.093193
8.920000	24.093193
8.930000	24.093193
8.940000	24.093193
8.950000	24.093193
8.960000	24.093193
8.970000	24.093193
8.980000	24.093193
8.990000	24.093193
9.000000	24.093114
9.010000	24.093114
9.020000	24.093114
9.030000	24.093114
9.040000	24.093114
9.050000	24.093114
9.060000	24.093114
9.070000	24.093114
9.080000	24.093114
9.090000	24.093114
9.100000	24.093114
9.110000	24.093114
9.120000	24.093114
9.130000	24.093114
9.140000	24.093114
9.150000	24.093114
9.160000	24.093114
9.170000	24.093114
9.180000	24.093114
9.190000	24.093114
9.200000	24.093114
9.210000	24.093114
9.220000	24.093114
9.230000	24.093114
9.240000	24.093114
9.250000	24.093114
9.260000	24.093114
9.270000	24.093114
9.280000	24.093114
9.290000	24.093114
9.300000	24.093114
9.310000	24.093114
9.320000	24.093114
9.330000	24.093114
9.340000	24.093114
9.350000	24.093114
9.360000	24.093114
9.370000	24.093114
9.380000	24.093114
9.390000	24.093114
9.400000	24.093114
9.410000	24.093114
9.420000	24.093114
9.430000	24.093114
9.440000	24.093114
9.450000	24.093114
9.460000	24.093114
9.470000	24.093114
9.480000	24.093114
9.490000	24.093114
9.500000	24.092410
9.510000	24.092410
9.520000	24.092410
9.530000	24.092410
9.540000	24.092410
9.550000	24.092410
9.560000	24.092410
9.570000	24.092410
9.580000	24.092410
9.590000	24.092410
9.600000	24.092410
9.610000	24.092410
9.620000	24.092410
9.630000	24.092410
9.640000	24.092410
9.650000	24.092410
9.660000	24.092410
9.670000	24.092410
9.680000	24.092410
9.690000	24.092410
9.700000	24.092410
9.710000	24.092410
9.720000	24.092410
9.730000	24.092410
9.740000	24.092410
9.750000	24.092410
9.760000	24.092410
9.770000	24.092410
9.780000	24.092410
9.790000	24.092410
9.800000	24.092410
9.810000	24.092410
9.820000	24.092410
9.830000	24.092410
9.840000	24.092410
9.850000	24.092410
9.860000	24.092410
9.870000	24.092410
9.880000	24.092410
9.890000	24.092410
9.900000	24.092410
9.910000	24.092410
9.920000	24.092410
9.930000	24.092410
9.940000	24.092410
9.950000	24.092410
9.960000	24.092410
9.970000	24.092410
9.980000	24.092410
9.990000	24.092410
10.000000	24.091030
10.010000	24.091030
10.020000	24.091030
10.030000	24.091030
10.040000	24.091030
10.050000	24.091030
10.060000	24.091030
10.070000	24.091030
10.080000	24.091030
10.090000	24.091030
10.100000	24.091030
10.110000	24.091030
10.120000	24.091030
10.130000	24.091030
10.140000	24.091030
10.150000	24.091030
10.160000	24.091030
10.170000	24.091030
10.180000	24.091030
10.190000	24.091030
10.200000	24.091030
10.210000	24.091030
10.220000	24.091030
10.230000	24.091030
10.240000	24.091030
10.250000	24.091030
10.260000	24.091030
10.270000	24.091030
10.280000	24.091030
10.290000	24.091030
10.300000	24.091030
10.310000	24.091030
10.320000	24.091030
10.330000	24.091030
10.340000	24.091030
10.350000	24.091030
10.360000	24.091030
10.370000	24.091030
10.380000	24.091030
10.390000	24.091030
10.400000	24.091030
10.410000	24.091030
10.420000	24.091030
10.430000	24.091030
10.440000	24.091030
10.450000	24.091030
10.460000	24.091030
10.470000	24.091030
10.480000	24.091030
10.490000	24.091030
10.500000	24.089948
10.510000	24.089948
10.520000	24.089948
10.530000	24.089948
10.540000	24.089948
10.550000	24.089948
10.560000	24.089948
10.570000	24.089948
10.580000	24.089948
10.590000	24.089948
10.600000	24.089948
10.610000	24.089948
10.620000	24.089948
10.630000	24.089948
10.640000	24.089948
10.650000	24.089948
10.660000	24.089948
10.670000	24.089948
10.680000	24.089948
10.690000	24.089948
10.700000	24.089948
10.710000	24.089948
10.720000	24.089948
10.730000	24.089948
10.740000	24.089948
10.750000	24.089948
10.760000	24.089948
10.770000	24.089948
10.780000	24.089948
10.790000	24.089948
10.800000	24.089948
10.810000	24.089948
10.820000	24.089948
10.830000	24.089948
10.840000	24.089948
10.850000	24.089948
10.860000	24.089948
10.870000	24.089948
10.880000	24.089948
10.890000	24.089948
10.900000	24.089948
10.910000	24.089948
10.920000	24.089948
10.930000	24.089948
10.940000	24.089948
10.950000	24.089948
10.960000	24.089948
10.970000	24.089948
10.980000	24.089948
10.990000	24.089948
11.000000	24.088365
11.010000	24.088365
11.020000	24.088365
11.030000	24.088365
11.040000	24.088365
11.050000	24.088365
11.060000	24.088365
11.070000	24.088365
11.080000	24.088365
11.090000	24.088365
11.100000	24.088365
11.110000	24.088365
11.120000	24.088365
11.130000	24.088365
11.140000	24.088365
11.150000	24.088365
11.160000	24.088365
11.170000	24.088365
11.180000	24.088365
11.190000	24.088365
11.200000	24.088365
11.210000	24.088365
11.220000	24.088365
11.230000	24.088365
11.240000	24.088365
11.250000	24.088365
11.260000	24.088365
11.270000	24.088365
11.280000	24.088365
11.290000	24.088365
11.300000	24.088365
11.310000	24.088365
11.320000	24.088365
11.330000	24.088365
11.340000	24.088365
11.350000	24.088365
11.360000	24.088365
11.370000	24.088365
11.380000	24.088365
11.390000	24.088365
11.400000	24.088365
11.410000	24.088365
11.420000	24.088365
11.430000	24.088365
11.440000	24.088365
11.450000	24.088365
11.460000	24.088365
11.470000	24.088365
11.480000	24.088365
11.490000	24.088365
11.500000	24.086940
11.510000	24.086940
11.520000	24.086940
11.530000	24.086940
11.540000	24.086940
11.550000	24.086940
11.560000	24.086940
11.570000	24.086940
11.580000	24.086940
11.590000	24.086940
11.600000	24.086940
11.610000	24.086940
11.620000	24.086940
11.630000	24.086940
11.640000	24.086940
11.650000	24.086940
11.660000	24.086940
11.670000	24.086940
11.680000	24.086940
11.690000	24.086940
11.700000	24.086940
11.710000	24.086940
11.720000	24.086940
11.730000	24.086940
11.740000	24.086940
11.750000	24.086940
11.760000	24.086940
11.770000	24.086940
11.780000	24.086940
11.790000	24.086940
11.800000	24.086940
11.810000	24.086940
11.820000	24.086940
11.830000	24.086940
11.840000	24.086940
11.850000	24.086940
11.860000	24.086940
11.870000	24.086940
11.880000	24.086940
11.890000	24.086940
11.900000	24.086940
11.910000	24.086940
11.920000	24.086940
11.930000	24.086940
11.940000	24.086940
11.950000	24.086940
11.960000	24.086940
11.970000	24.086940
11.980000	24.086940
11.990000	24.086940
12.000000	24.085041
12.010000	24.085041
12.020000	24.085041
12.030000	24.085041
12.040000	24.085041
12.050000	24.085041
12.060000	24.085041
12.070000	24.085041
12.080000	24.085041
12.090000	24.085041
12.100000	24.085041
12.110000	24.085041
12.120000	24.085041
12.130000	24.085041
12.140000	24.085041
12.150000	24.085041
12.160000	24.085041
12.170000	24.085041
12.180000	24.085041
12.190000	24.085041
12.200000	24.085041
12.210000	24.085041
12.220000	24.085041
12.230000	24.085041
12.240000	24.085041
12.250000	24.085041
12.260000	24.085041
12.270000	24.085041
12.280000	24.085041
12.290000	24.085041
12.300000	24.085041
12.310000	24.085041
12.320000	24.085041
12.330000	24.085041
12.340000	24.085041
12.350000	24.085041
12.360000	24.085041
12.370000	24.085041
12.380000	24.085041
12.390000	24.085041
12.400000	24.085041
12.410000	24.085041
12.420000	24.085041
12.430000	24.085041
12.440000	24.085041
12.450000	24.085041
12.460000	24.085041
12.470000	24.085041
12.480000	24.085041
12.490000	24.085041
12.500000	24.082807
12.510000	24.082807
12.520000	24.082807
12.530000	24.082807
12.540000	24.082807
12.550000	24.082807
12.560000	24.082807
12.570000	24.082807
12.580000	24.082807
12.590000	24.082807
12.600000	24.082807
12.610000	24.082807
12.620000	24.082807
12.630000	24.082807
12.640000	24.082807
12.650000	24.082807
12.660000	24.082807
12.670000	24.082807
12.680000	24.082807
12.690000	24.082807
12.700000	24.082807
12.710000	24.082807
12.720000	24.082807
12.730000	24.082807
12.740000	24.082807
12.750000	24.082807
12.760000	24.082807
12.770000	24.082807
12.780000	24.082807
12.790000	24.082807
12.800000	24.082807
12.810000	24.082807
12.820000	24.082807
12.830000	24.082807
12.840000	24.082807
12.850000	24.082807
12.860000	24.082807
12.870000	24.082807
12.880000	24.082807
12.890000	24.082807
12.900000	24.082807
12.910000	24.082807
12.920000	24.082807
12.930000	24.082807
12.940000	24.082807
12.950000	24.082807
12.960000	24.082807
12.970000	24.082807
12.980000	24.082807
12.990000	24.082807
13.000000	24.080784
13.010000	24.080784
13.020000	24.080784
13.030000	24.080784
13.040000	24.080784
13.050000	24.080784
13.060000	24.080784
13.070000	24.080784
13.080000	24.080784
13.090000	24.080784
13.100000	24.080784
13.110000	24.080784
13.120000	24.080784
13.130000	24.080784
13.140000	24.080784
13.150000	24.080784
13.160000	24.080784
13.170000	24.080784
13.180000	24.080784
13.190000	24.080784
13.200000	24.080784
13.210000	24.080784
13.220000	24.080784
13.230000	24.080784
13.240000	24.080784
13.250000	24.080784
13.260000	24.080784
13.270000	24.080784
13.280000	24.080784
13.290000	24.080784
13.300000	24.080784
13.310000	24.080784
13.320000	24.080784
13.330000	24.080784
13.340000	24.080784
13.350000	24.080784
13.360000	24.080784
13.370000	24.080784
13.380000	24.080784
13.390000	24.080784
13.400000	24.080784
13.410000	24.080784
13.420000	24.080784
13.430000	24.080784
13.440000	24.080784
13.450000	24.080784
13.460000	24.080784
13.470000	24.080784
13.480000	24.080784
13.490000	24.080784
13.500000	24.078761
13.510000	24.078761
13.520000	24.078761
13.530000	24.078761
13.540000	24.078761
13.550000	24.078761
13.560000	24.078761
13.570000	24.078761
13.580000	24.078761
13.590000	24.078761
13.600000	24.078761
13.610000	24.078761
13.620000	24.078761
13.630000	24.078761
13.640000	24.078761
13.650000	24.078761
13.660000	24.078761
13.670000	24.078761
13.680000	24.078761
13.690000	24.078761
13.700000	24.078761
13.710000	24.078761
13.720000	24.078761
13.730000	24.078761
13.740000	24.078761
13.750000	24.078761
13.760000	24.078761
13.770000	24.078761
13.780000	24.078761
13.790000	24.078761
13.800000	24.078761
13.810000	24.078761
13.820000	24.078761
13.830000	24.078761
13.840000	24.078761
13.850000	24.078761
13.860000	24.078761
13.870000	24.078761
13.880000	24.078761
13.890000	24.078761
13.900000	24.078761
13.910000	24.078761
13.920000	24.078761
13.930000	24.078761
13.940000	24.078761
13.950000	24.078761
13.960000	24.078761
13.970000	24.078761
13.980000	24.078761
13.990000	24.078761
14.000000	24.076914
14.010000	24.076914
14.020000	24.076914
14.030000	24.076914
14.040000	24.076914
14.050000	24.076914
14.060000	24.076914
14.070000	24.076914
14.080000	24.076914
14.090000	24.076914
14.100000	24.076914
14.110000	24.076914
14.120000	24.076914
14.130000	24.076914
14.140000	24.076914
14.150000	24.076914
14.160000	24.076914
14.170000	24.076914
14.180000	24.076914
14.190000	24.076914
14.200000	24.076914
14.210000	24.076914
14.220000	24.076914
14.230000	24.076914
14.240000	24.076914
14.250000	24.076914
14.260000	24.076914
14.270000	24.076914
14.280000	24.076914
14.290000	24.076914
14.300000	24.076914
14.310000	24.076914
14.320000	24.076914
14.330000	24.076914
14.340000	24.076914
14.350000	24.076914
14.360000	24.076914
14.370000	24.076914
14.380000	24.076914
14.390000	24.076914
14.400000	24.076914
14.410000	24.076914
14.420000	24.076914
14.430000	24.076914
14.440000	24.076914
14.450000	24.076914
14.460000	24.076914
14.470000	24.076914
14.480000	24.076914
14.490000	24.076914
14.500000	24.074891
14.510000	24.074891
14.520000	24.074891
14.530000	24.074891
14.540000	24.074891
14.550000	24.074891
14.560000	24.074891
14.570000	24.074891
14.580000	24.074891
14.590000	24.074891
14.600000	24.074891
14.610000	24.074891
14.620000	24.074891
14.630000	24.074891
14.640000	24.074891
14.650000	24.074891
14.660000	24.074891
14.670000	24.074891
14.680000	24.074891
14.690000	24.074891
14.700000	24.074891
14.710000	24.074891
14.720000	24.074891
14.730000	24.074891
14.740000	24.074891
14.750000	24.074891
14.760000	24.074891
14.770000	24.074891
14.780000	24.074891
14.790000	24.074891
14.800000	24.074891
14.810000	24.074891
14.820000	24.074891
14.830000	24.074891
14.840000	24.074891
14.850000	24.074891
14.860000	24.074891
14.870000	24.074891
14.880000	24.074891
14.890000	24.074891
14.900000	24.074891
14.910000	24.074891
14.920000	24.074891
14.930000	24.074891
14.940000	24.074891
14.950000	24.074891
14.960000	24.074891
14.970000	24.074891
14.980000	24.074891
14.990000	24.074891
15.000000	24.072525
15.010000	24.072525
15.020000	24.072525
15.030000	24.072525
15.040000	24.072525
15.050000	24.072525
15.060000	24.072525
15.070000	24.072525
15.080000	24.072525
15.090000	24.072525
15.100000	24.072525
15.110000	24.072525
15.120000	24.072525
15.130000	24.072525
15.140000	24.072525
15.150000	24.072525
15.160000	24.072525
15.170000	24.072525
15.180000	24.072525
15.190000	24.072525
15.200000	24.072525
15.210000	24.072525
15.220000	24.072525
15.230000	24.072525
15.240000	24.072525
15.250000	24.072525
15.260000	24.072525
15.270000	24.072525
15.280000	24.072525
15.290000	24.072525
15.300000	24.072525
15.310000	24.072525
15.320000	24.072525
15.330000	24.072525
15.340000	24.072525
15.350000	24.072525
15.360000	24.072525
15.370000	24.072525
15.380000	24.072525
15.390000	24.072525
15.400000	24.072525
15.410000	24.072525
15.420000	24.072525
15.430000	24.072525
15.440000	24.072525
15.450000	24.072525
15.460000	24.072525
15.470000	24.072525
15.480000	24.072525
15.490000	24.072525
15.500000	24.070422
15.510000	24.070422
15.520000	24.070422
15.530000	24.070422
15.540000	24.070422
15.550000	24.070422
15.560000	24.070422
15.570000	24.070422
15.580000	24.070422
15.590000	24.070422
15.600000	24.070422
15.610000	24.070422
15.620000	24.070422
15.630000	24.070422
15.640000	24.070422
15.650000	24.070422
15.660000	24.070422
15.670000	24.070422
15.680000	24.070422
15.690000	24.070422
15.700000	24.070422
15.710000	24.070422
15.720000	24.070422
15.730000	24.070422
15.740000	24.070422
15.750000	24.070422
15.760000	24.070422
15.770000	24.070422
15.780000	24.070422
15.790000	24.070422
15.800000	24.070422
15.810000	24.070422
15.820000	24.070422
15.830000	24.070422
15.840000	24.070422
15.850000	24.070422
15.860000	24.070422
15.870000	24.070422
15.880000	24.070422
15.890000	24.070422
15.900000	24.070422
15.910000	24.070422
15.920000	24.070422
15.930000	24.070422
15.940000	24.070422
15.950000	24.070422
15.960000	24.070422
15.970000	24.070422
15.980000	24.070422
15.990000	24.070422
16.000000	24.068082
16.010000	24.068082
16.020000	24.068082
16.030000	24.068082
16.040000	24.068082
16.050000	24.068082
16.060000	24.068082
16.070000	24.068082
16.080000	24.068082
16.090000	24.068082
16.100000	24.068082
16.110000	24.068082
16.120000	24.068082
16.130000	24.068082
16.140000	24.068082
16.150000	24.068082
16.160000	24.068082
16.170000	24.068082
16.180000	24.068082
16.190000	24.068082
16.200000	24.068082
16.210000	24.068082
16.220000	24.068082
16.230000	24.068082
16.240000	24.068082
16.250000	24.068082
16.260000	24.068082
16.270000	24.068082
16.280000	24.068082
16.290000	24.068082
16.300000	24.068082
16.310000	24.068082
16.320000	24.068082
16.330000	24.068082
16.340000	24.068082
16.350000	24.068082
16.360000	24.068082
16.370000	24.068082
16.380000	24.068082
16.390000	24.068082
16.400000	24.068082
16.410000	24.068082
16.420000	24.068082
16.430000	24.068082
16.440000	24.068082
16.450000	24.068082
16.460000	24.068082
16.470000	24.068082
16.480000	24.068082
16.490000	24.068082
16.500000	24.065486
16.510000	24.065486
16.520000	24.065486
16.530000	24.065486
16.540000	24.065486
16.550000	24.065486
16.560000	24.065486
16.570000	24.065486
16.580000	24.065486
16.590000	24.065486
16.600000	24.065486
16.610000	24.065486
16.620000	24.065486
16.630000	24.065486
16.640000	24.065486
16.650000	24.065486
16.660000	24.065486
16.670000	24.065486
16.680000	24.065486
16.690000	24.065486
16.700000	24.065486
16.710000	24.065486
16.720000	24.065486
16.730000	24.065486
16.740000	24.065486
16.750000	24.065486
16.760000	24.065486
16.770000	24.065486
16.780000	24.065486
16.790000	24.065486
16.800000	24.065486
16.810000	24.065486
16.820000	24.065486
16.830000	24.065486
16.840000	24.065486
16.850000	24.065486
16.860000	24.065486
16.870000	24.065486
16.880000	24.065486
16.890000	24.065486
16.900000	24.065486
16.910000	24.065486
16.920000	24.065486
16.930000	24.065486
16.940000	24.065486
16.950000	24.065486
16.960000	24.065486
16.970000	24.065486
16.980000	24.065486
16.990000	24.065486
17.000000	24.063410
17.010000	24.063410
17.020000	24.063410
17.030000	24.063410
17.040000	24.063410
17.050000	24.063410
17.060000	24.063410
17.070000	24.063410
17.080000	24.063410
17.090000	24.063410
17.100000	24.063410
17.110000	24.063410
17.120000	24.063410
17.130000	24.063410
17.140000	24.063410
17.150000	24.063410
17.160000	24.063410
17.170000	24.063410
17.180000	24.063410
17.190000	24.063410
17.200000	24.063410
17.210000	24.063410
17.220000	24.063410
17.230000	24.063410
17.240000	24.063410
17.250000	24.063410
17.260000	24.063410
17.270000	24.063410
17.280000	24.063410
17.290000	24.063410
17.300000	24.063410
17.310000	24.063410
17.320000	24.063410
17.330000	24.063410
17.340000	24.063410
17.350000	24.063410
17.360000	24.063410
17.370000	24.063410
17.380000	24.063410
17.390000	24.063410
17.400000	24.063410
17.410000	24.063410
17.420000	24.063410
17.430000	24.063410
17.440000	24.063410
17.450000	24.063410
17.460000	24.063410
17.470000	24.063410
17.480000	24.063410
17.490000	24.063410
17.500000	24.061149
17.510000	24.061149
17.520000	24.061149
17.530000	24.061149
17.540000	24.061149
17.550000	24.061149
17.560000	24.061149
17.570000	24.061149
17.580000	24.061149
17.590000	24.061149
17.600000	24.061149
17.610000	24.061149
17.620000	24.061149
17.630000	24.061149
17.640000	24.061149
17.650000	24.061149
17.660000	24.061149
17.670000	24.061149
17.680000	24.061149
17.690000	24.061149
