LabVIEW Measurement	
Writer_Version	2
Reader_Version	2
Separator	Tab
Decimal_Separator	.
Multi_Headings	No
X_Columns	One
Time_Pref	Absolute
Operator	biomech-dyno
Date	2023/04/27
Time	17:41:55.9338632999999876419
***End_of_Header***	
	
Channels	1	
Samples	10	
Date	2023/04/27	
Time	18:46:36.5250966999996815047	
X_Dimension	Time	
X0	0.0000000000000000E+0	
Delta_X	0.010000	
***End_of_Header***		
X_Value	Untitled	Comment
0.000000	25.077928
0.010000	25.077928
0.020000	25.077928
0.030000	25.077928
0.040000	25.077928
0.050000	25.077928
0.060000	25.077928
0.070000	25.077928
0.080000	25.077928
0.090000	25.077928
0.100000	25.077928
0.110000	25.077928
0.120000	25.077928
0.130000	25.077928
0.140000	25.077928
0.150000	25.077928
0.160000	25.077928
0.170000	25.077928
0.180000	25.077928
0.190000	25.077928
0.200000	25.077928
0.210000	25.077928
0.220000	25.077928
0.230000	25.077928
0.240000	25.077928
0.250000	25.077928
0.260000	25.077928
0.270000	25.077928
0.280000	25.077928
0.290000	25.077928
0.300000	25.077928
0.310000	25.077928
0.320000	25.077928
0.330000	25.077928
0.340000	25.077928
0.350000	25.077928
0.360000	25.077928
0.370000	25.077928
0.380000	25.077928
0.390000	25.077928
0.400000	25.077928
0.410000	25.077928
0.420000	25.077928
0.430000	25.077928
0.440000	25.077928
0.450000	25.077928
0.460000	25.077928
0.470000	25.077928
0.480000	25.077928
0.490000	25.077928
0.500000	25.104757
0.510000	25.104757
0.520000	25.104757
0.530000	25.104757
0.540000	25.104757
0.550000	25.104757
0.560000	25.104757
0.570000	25.104757
0.580000	25.104757
0.590000	25.104757
0.600000	25.104757
0.610000	25.104757
0.620000	25.104757
0.630000	25.104757
0.640000	25.104757
0.650000	25.104757
0.660000	25.104757
0.670000	25.104757
0.680000	25.104757
0.690000	25.104757
0.700000	25.104757
0.710000	25.104757
0.720000	25.104757
0.730000	25.104757
0.740000	25.104757
0.750000	25.104757
0.760000	25.104757
0.770000	25.104757
0.780000	25.104757
0.790000	25.104757
0.800000	25.104757
0.810000	25.104757
0.820000	25.104757
0.830000	25.104757
0.840000	25.104757
0.850000	25.104757
0.860000	25.104757
0.870000	25.104757
0.880000	25.104757
0.890000	25.104757
0.900000	25.104757
0.910000	25.104757
0.920000	25.104757
0.930000	25.104757
0.940000	25.104757
0.950000	25.104757
0.960000	25.104757
0.970000	25.104757
0.980000	25.104757
0.990000	25.104757
1.000000	25.446730
1.010000	25.446730
1.020000	25.446730
1.030000	25.446730
1.040000	25.446730
1.050000	25.446730
1.060000	25.446730
1.070000	25.446730
1.080000	25.446730
1.090000	25.446730
1.100000	25.446730
1.110000	25.446730
1.120000	25.446730
1.130000	25.446730
1.140000	25.446730
1.150000	25.446730
1.160000	25.446730
1.170000	25.446730
1.180000	25.446730
1.190000	25.446730
1.200000	25.446730
1.210000	25.446730
1.220000	25.446730
1.230000	25.446730
1.240000	25.446730
1.250000	25.446730
1.260000	25.446730
1.270000	25.446730
1.280000	25.446730
1.290000	25.446730
1.300000	25.446730
1.310000	25.446730
1.320000	25.446730
1.330000	25.446730
1.340000	25.446730
1.350000	25.446730
1.360000	25.446730
1.370000	25.446730
1.380000	25.446730
1.390000	25.446730
1.400000	25.446730
1.410000	25.446730
1.420000	25.446730
1.430000	25.446730
1.440000	25.446730
1.450000	25.446730
1.460000	25.446730
1.470000	25.446730
1.480000	25.446730
1.490000	25.446730
1.500000	26.262499
1.510000	26.262499
1.520000	26.262499
1.530000	26.262499
1.540000	26.262499
1.550000	26.262499
1.560000	26.262499
1.570000	26.262499
1.580000	26.262499
1.590000	26.262499
1.600000	26.262499
1.610000	26.262499
1.620000	26.262499
1.630000	26.262499
1.640000	26.262499
1.650000	26.262499
1.660000	26.262499
1.670000	26.262499
1.680000	26.262499
1.690000	26.262499
1.700000	26.262499
1.710000	26.262499
1.720000	26.262499
1.730000	26.262499
1.740000	26.262499
1.750000	26.262499
1.760000	26.262499
1.770000	26.262499
1.780000	26.262499
1.790000	26.262499
1.800000	26.262499
1.810000	26.262499
1.820000	26.262499
1.830000	26.262499
1.840000	26.262499
1.850000	26.262499
1.860000	26.262499
1.870000	26.262499
1.880000	26.262499
1.890000	26.262499
1.900000	26.262499
1.910000	26.262499
1.920000	26.262499
1.930000	26.262499
1.940000	26.262499
1.950000	26.262499
1.960000	26.262499
1.970000	26.262499
1.980000	26.262499
1.990000	26.262499
2.000000	27.464400
2.010000	27.464400
2.020000	27.464400
2.030000	27.464400
2.040000	27.464400
2.050000	27.464400
2.060000	27.464400
2.070000	27.464400
2.080000	27.464400
2.090000	27.464400
2.100000	27.464400
2.110000	27.464400
2.120000	27.464400
2.130000	27.464400
2.140000	27.464400
2.150000	27.464400
2.160000	27.464400
2.170000	27.464400
2.180000	27.464400
2.190000	27.464400
2.200000	27.464400
2.210000	27.464400
2.220000	27.464400
2.230000	27.464400
2.240000	27.464400
2.250000	27.464400
2.260000	27.464400
2.270000	27.464400
2.280000	27.464400
2.290000	27.464400
2.300000	27.464400
2.310000	27.464400
2.320000	27.464400
2.330000	27.464400
2.340000	27.464400
2.350000	27.464400
2.360000	27.464400
2.370000	27.464400
2.380000	27.464400
2.390000	27.464400
2.400000	27.464400
2.410000	27.464400
2.420000	27.464400
2.430000	27.464400
2.440000	27.464400
2.450000	27.464400
2.460000	27.464400
2.470000	27.464400
2.480000	27.464400
2.490000	27.464400
2.500000	28.962618
2.510000	28.962618
2.520000	28.962618
2.530000	28.962618
2.540000	28.962618
2.550000	28.962618
2.560000	28.962618
2.570000	28.962618
2.580000	28.962618
2.590000	28.962618
2.600000	28.962618
2.610000	28.962618
2.620000	28.962618
2.630000	28.962618
2.640000	28.962618
2.650000	28.962618
2.660000	28.962618
2.670000	28.962618
2.680000	28.962618
2.690000	28.962618
2.700000	28.962618
2.710000	28.962618
2.720000	28.962618
2.730000	28.962618
2.740000	28.962618
2.750000	28.962618
2.760000	28.962618
2.770000	28.962618
2.780000	28.962618
2.790000	28.962618
2.800000	28.962618
2.810000	28.962618
2.820000	28.962618
2.830000	28.962618
2.840000	28.962618
2.850000	28.962618
2.860000	28.962618
2.870000	28.962618
2.880000	28.962618
2.890000	28.962618
2.900000	28.962618
2.910000	28.962618
2.920000	28.962618
2.930000	28.962618
2.940000	28.962618
2.950000	28.962618
2.960000	28.962618
2.970000	28.962618
2.980000	28.962618
2.990000	28.962618
3.000000	30.602627
3.010000	30.602627
3.020000	30.602627
3.030000	30.602627
3.040000	30.602627
3.050000	30.602627
3.060000	30.602627
3.070000	30.602627
3.080000	30.602627
3.090000	30.602627
3.100000	30.602627
3.110000	30.602627
3.120000	30.602627
3.130000	30.602627
3.140000	30.602627
3.150000	30.602627
3.160000	30.602627
3.170000	30.602627
3.180000	30.602627
3.190000	30.602627
3.200000	30.602627
3.210000	30.602627
3.220000	30.602627
3.230000	30.602627
3.240000	30.602627
3.250000	30.602627
3.260000	30.602627
3.270000	30.602627
3.280000	30.602627
3.290000	30.602627
3.300000	30.602627
3.310000	30.602627
3.320000	30.602627
3.330000	30.602627
3.340000	30.602627
3.350000	30.602627
3.360000	30.602627
3.370000	30.602627
3.380000	30.602627
3.390000	30.602627
3.400000	30.602627
3.410000	30.602627
3.420000	30.602627
3.430000	30.602627
3.440000	30.602627
3.450000	30.602627
3.460000	30.602627
3.470000	30.602627
3.480000	30.602627
3.490000	30.602627
3.500000	31.974251
3.510000	31.974251
3.520000	31.974251
3.530000	31.974251
3.540000	31.974251
3.550000	31.974251
3.560000	31.974251
3.570000	31.974251
3.580000	31.974251
3.590000	31.974251
3.600000	31.974251
3.610000	31.974251
3.620000	31.974251
3.630000	31.974251
3.640000	31.974251
3.650000	31.974251
3.660000	31.974251
3.670000	31.974251
3.680000	31.974251
3.690000	31.974251
3.700000	31.974251
3.710000	31.974251
3.720000	31.974251
3.730000	31.974251
3.740000	31.974251
3.750000	31.974251
3.760000	31.974251
3.770000	31.974251
3.780000	31.974251
3.790000	31.974251
3.800000	31.974251
3.810000	31.974251
3.820000	31.974251
3.830000	31.974251
3.840000	31.974251
3.850000	31.974251
3.860000	31.974251
3.870000	31.974251
3.880000	31.974251
3.890000	31.974251
3.900000	31.974251
3.910000	31.974251
3.920000	31.974251
3.930000	31.974251
3.940000	31.974251
3.950000	31.974251
3.960000	31.974251
3.970000	31.974251
3.980000	31.974251
3.990000	31.974251
4.000000	32.996023
4.010000	32.996023
4.020000	32.996023
4.030000	32.996023
4.040000	32.996023
4.050000	32.996023
4.060000	32.996023
4.070000	32.996023
4.080000	32.996023
4.090000	32.996023
4.100000	32.996023
4.110000	32.996023
4.120000	32.996023
4.130000	32.996023
4.140000	32.996023
4.150000	32.996023
4.160000	32.996023
4.170000	32.996023
4.180000	32.996023
4.190000	32.996023
4.200000	32.996023
4.210000	32.996023
4.220000	32.996023
4.230000	32.996023
4.240000	32.996023
4.250000	32.996023
4.260000	32.996023
4.270000	32.996023
4.280000	32.996023
4.290000	32.996023
4.300000	32.996023
4.310000	32.996023
4.320000	32.996023
4.330000	32.996023
4.340000	32.996023
4.350000	32.996023
4.360000	32.996023
4.370000	32.996023
4.380000	32.996023
4.390000	32.996023
4.400000	32.996023
4.410000	32.996023
4.420000	32.996023
4.430000	32.996023
4.440000	32.996023
4.450000	32.996023
4.460000	32.996023
4.470000	32.996023
4.480000	32.996023
4.490000	32.996023
4.500000	33.735957
4.510000	33.735957
4.520000	33.735957
4.530000	33.735957
4.540000	33.735957
4.550000	33.735957
4.560000	33.735957
4.570000	33.735957
4.580000	33.735957
4.590000	33.735957
4.600000	33.735957
4.610000	33.735957
4.620000	33.735957
4.630000	33.735957
4.640000	33.735957
4.650000	33.735957
4.660000	33.735957
4.670000	33.735957
4.680000	33.735957
4.690000	33.735957
4.700000	33.735957
4.710000	33.735957
4.720000	33.735957
4.730000	33.735957
4.740000	33.735957
4.750000	33.735957
4.760000	33.735957
4.770000	33.735957
4.780000	33.735957
4.790000	33.735957
4.800000	33.735957
4.810000	33.735957
4.820000	33.735957
4.830000	33.735957
4.840000	33.735957
4.850000	33.735957
4.860000	33.735957
4.870000	33.735957
4.880000	33.735957
4.890000	33.735957
4.900000	33.735957
4.910000	33.735957
4.920000	33.735957
4.930000	33.735957
4.940000	33.735957
4.950000	33.735957
4.960000	33.735957
4.970000	33.735957
4.980000	33.735957
4.990000	33.735957
5.000000	34.249504
5.010000	34.249504
5.020000	34.249504
5.030000	34.249504
5.040000	34.249504
5.050000	34.249504
5.060000	34.249504
5.070000	34.249504
5.080000	34.249504
5.090000	34.249504
5.100000	34.249504
5.110000	34.249504
5.120000	34.249504
5.130000	34.249504
5.140000	34.249504
5.150000	34.249504
5.160000	34.249504
5.170000	34.249504
5.180000	34.249504
5.190000	34.249504
5.200000	34.249504
5.210000	34.249504
5.220000	34.249504
5.230000	34.249504
5.240000	34.249504
5.250000	34.249504
5.260000	34.249504
5.270000	34.249504
5.280000	34.249504
5.290000	34.249504
5.300000	34.249504
5.310000	34.249504
5.320000	34.249504
5.330000	34.249504
5.340000	34.249504
5.350000	34.249504
5.360000	34.249504
5.370000	34.249504
5.380000	34.249504
5.390000	34.249504
5.400000	34.249504
5.410000	34.249504
5.420000	34.249504
5.430000	34.249504
5.440000	34.249504
5.450000	34.249504
5.460000	34.249504
5.470000	34.249504
5.480000	34.249504
5.490000	34.249504
5.500000	34.585229
5.510000	34.585229
5.520000	34.585229
5.530000	34.585229
5.540000	34.585229
5.550000	34.585229
5.560000	34.585229
5.570000	34.585229
5.580000	34.585229
5.590000	34.585229
5.600000	34.585229
5.610000	34.585229
5.620000	34.585229
5.630000	34.585229
5.640000	34.585229
5.650000	34.585229
5.660000	34.585229
5.670000	34.585229
5.680000	34.585229
5.690000	34.585229
5.700000	34.585229
5.710000	34.585229
5.720000	34.585229
5.730000	34.585229
5.740000	34.585229
5.750000	34.585229
5.760000	34.585229
5.770000	34.585229
5.780000	34.585229
5.790000	34.585229
5.800000	34.585229
5.810000	34.585229
5.820000	34.585229
5.830000	34.585229
5.840000	34.585229
5.850000	34.585229
5.860000	34.585229
5.870000	34.585229
5.880000	34.585229
5.890000	34.585229
5.900000	34.585229
5.910000	34.585229
5.920000	34.585229
5.930000	34.585229
5.940000	34.585229
5.950000	34.585229
5.960000	34.585229
5.970000	34.585229
5.980000	34.585229
5.990000	34.585229
6.000000	34.787583
6.010000	34.787583
6.020000	34.787583
6.030000	34.787583
6.040000	34.787583
6.050000	34.787583
6.060000	34.787583
6.070000	34.787583
6.080000	34.787583
6.090000	34.787583
6.100000	34.787583
6.110000	34.787583
6.120000	34.787583
6.130000	34.787583
6.140000	34.787583
6.150000	34.787583
6.160000	34.787583
6.170000	34.787583
6.180000	34.787583
6.190000	34.787583
6.200000	34.787583
6.210000	34.787583
6.220000	34.787583
6.230000	34.787583
6.240000	34.787583
6.250000	34.787583
6.260000	34.787583
6.270000	34.787583
6.280000	34.787583
6.290000	34.787583
6.300000	34.787583
6.310000	34.787583
6.320000	34.787583
6.330000	34.787583
6.340000	34.787583
6.350000	34.787583
6.360000	34.787583
6.370000	34.787583
6.380000	34.787583
6.390000	34.787583
6.400000	34.787583
6.410000	34.787583
6.420000	34.787583
6.430000	34.787583
6.440000	34.787583
6.450000	34.787583
6.460000	34.787583
6.470000	34.787583
6.480000	34.787583
6.490000	34.787583
6.500000	34.889340
6.510000	34.889340
6.520000	34.889340
6.530000	34.889340
6.540000	34.889340
6.550000	34.889340
6.560000	34.889340
6.570000	34.889340
6.580000	34.889340
6.590000	34.889340
6.600000	34.889340
6.610000	34.889340
6.620000	34.889340
6.630000	34.889340
6.640000	34.889340
6.650000	34.889340
6.660000	34.889340
6.670000	34.889340
6.680000	34.889340
6.690000	34.889340
6.700000	34.889340
6.710000	34.889340
6.720000	34.889340
6.730000	34.889340
6.740000	34.889340
6.750000	34.889340
6.760000	34.889340
6.770000	34.889340
6.780000	34.889340
6.790000	34.889340
6.800000	34.889340
6.810000	34.889340
6.820000	34.889340
6.830000	34.889340
6.840000	34.889340
6.850000	34.889340
6.860000	34.889340
6.870000	34.889340
6.880000	34.889340
6.890000	34.889340
6.900000	34.889340
6.910000	34.889340
6.920000	34.889340
6.930000	34.889340
6.940000	34.889340
6.950000	34.889340
6.960000	34.889340
6.970000	34.889340
6.980000	34.889340
6.990000	34.889340
7.000000	34.910399
7.010000	34.910399
7.020000	34.910399
7.030000	34.910399
7.040000	34.910399
7.050000	34.910399
7.060000	34.910399
7.070000	34.910399
7.080000	34.910399
7.090000	34.910399
7.100000	34.910399
7.110000	34.910399
7.120000	34.910399
7.130000	34.910399
7.140000	34.910399
7.150000	34.910399
7.160000	34.910399
7.170000	34.910399
7.180000	34.910399
7.190000	34.910399
7.200000	34.910399
7.210000	34.910399
7.220000	34.910399
7.230000	34.910399
7.240000	34.910399
7.250000	34.910399
7.260000	34.910399
7.270000	34.910399
7.280000	34.910399
7.290000	34.910399
7.300000	34.910399
7.310000	34.910399
7.320000	34.910399
7.330000	34.910399
7.340000	34.910399
7.350000	34.910399
7.360000	34.910399
7.370000	34.910399
7.380000	34.910399
7.390000	34.910399
7.400000	34.910399
7.410000	34.910399
7.420000	34.910399
7.430000	34.910399
7.440000	34.910399
7.450000	34.910399
7.460000	34.910399
7.470000	34.910399
7.480000	34.910399
7.490000	34.910399
7.500000	34.871323
7.510000	34.871323
7.520000	34.871323
7.530000	34.871323
7.540000	34.871323
7.550000	34.871323
7.560000	34.871323
7.570000	34.871323
7.580000	34.871323
7.590000	34.871323
7.600000	34.871323
7.610000	34.871323
7.620000	34.871323
7.630000	34.871323
7.640000	34.871323
7.650000	34.871323
7.660000	34.871323
7.670000	34.871323
7.680000	34.871323
7.690000	34.871323
7.700000	34.871323
7.710000	34.871323
7.720000	34.871323
7.730000	34.871323
7.740000	34.871323
7.750000	34.871323
7.760000	34.871323
7.770000	34.871323
7.780000	34.871323
7.790000	34.871323
7.800000	34.871323
7.810000	34.871323
7.820000	34.871323
7.830000	34.871323
7.840000	34.871323
7.850000	34.871323
7.860000	34.871323
7.870000	34.871323
7.880000	34.871323
7.890000	34.871323
7.900000	34.871323
7.910000	34.871323
7.920000	34.871323
7.930000	34.871323
7.940000	34.871323
7.950000	34.871323
7.960000	34.871323
7.970000	34.871323
7.980000	34.871323
7.990000	34.871323
8.000000	34.791343
8.010000	34.791343
8.020000	34.791343
8.030000	34.791343
8.040000	34.791343
8.050000	34.791343
8.060000	34.791343
8.070000	34.791343
8.080000	34.791343
8.090000	34.791343
8.100000	34.791343
8.110000	34.791343
8.120000	34.791343
8.130000	34.791343
8.140000	34.791343
8.150000	34.791343
8.160000	34.791343
8.170000	34.791343
8.180000	34.791343
8.190000	34.791343
8.200000	34.791343
8.210000	34.791343
8.220000	34.791343
8.230000	34.791343
8.240000	34.791343
8.250000	34.791343
8.260000	34.791343
8.270000	34.791343
8.280000	34.791343
8.290000	34.791343
8.300000	34.791343
8.310000	34.791343
8.320000	34.791343
8.330000	34.791343
8.340000	34.791343
8.350000	34.791343
8.360000	34.791343
8.370000	34.791343
8.380000	34.791343
8.390000	34.791343
8.400000	34.791343
8.410000	34.791343
8.420000	34.791343
8.430000	34.791343
8.440000	34.791343
8.450000	34.791343
8.460000	34.791343
8.470000	34.791343
8.480000	34.791343
8.490000	34.791343
8.500000	34.681726
8.510000	34.681726
8.520000	34.681726
8.530000	34.681726
8.540000	34.681726
8.550000	34.681726
8.560000	34.681726
8.570000	34.681726
8.580000	34.681726
8.590000	34.681726
8.600000	34.681726
8.610000	34.681726
8.620000	34.681726
8.630000	34.681726
8.640000	34.681726
8.650000	34.681726
8.660000	34.681726
8.670000	34.681726
8.680000	34.681726
8.690000	34.681726
8.700000	34.681726
8.710000	34.681726
8.720000	34.681726
8.730000	34.681726
8.740000	34.681726
8.750000	34.681726
8.760000	34.681726
8.770000	34.681726
8.780000	34.681726
8.790000	34.681726
8.800000	34.681726
8.810000	34.681726
8.820000	34.681726
8.830000	34.681726
8.840000	34.681726
8.850000	34.681726
8.860000	34.681726
8.870000	34.681726
8.880000	34.681726
8.890000	34.681726
8.900000	34.681726
8.910000	34.681726
8.920000	34.681726
8.930000	34.681726
8.940000	34.681726
8.950000	34.681726
8.960000	34.681726
8.970000	34.681726
8.980000	34.681726
8.990000	34.681726
9.000000	34.550882
9.010000	34.550882
9.020000	34.550882
9.030000	34.550882
9.040000	34.550882
9.050000	34.550882
9.060000	34.550882
9.070000	34.550882
9.080000	34.550882
9.090000	34.550882
9.100000	34.550882
9.110000	34.550882
9.120000	34.550882
9.130000	34.550882
9.140000	34.550882
9.150000	34.550882
9.160000	34.550882
9.170000	34.550882
9.180000	34.550882
9.190000	34.550882
9.200000	34.550882
9.210000	34.550882
9.220000	34.550882
9.230000	34.550882
9.240000	34.550882
9.250000	34.550882
9.260000	34.550882
9.270000	34.550882
9.280000	34.550882
9.290000	34.550882
9.300000	34.550882
9.310000	34.550882
9.320000	34.550882
9.330000	34.550882
9.340000	34.550882
9.350000	34.550882
9.360000	34.550882
9.370000	34.550882
9.380000	34.550882
9.390000	34.550882
9.400000	34.550882
9.410000	34.550882
9.420000	34.550882
9.430000	34.550882
9.440000	34.550882
9.450000	34.550882
9.460000	34.550882
9.470000	34.550882
9.480000	34.550882
9.490000	34.550882
9.500000	34.403914
9.510000	34.403914
9.520000	34.403914
9.530000	34.403914
9.540000	34.403914
9.550000	34.403914
9.560000	34.403914
9.570000	34.403914
9.580000	34.403914
9.590000	34.403914
9.600000	34.403914
9.610000	34.403914
9.620000	34.403914
9.630000	34.403914
9.640000	34.403914
9.650000	34.403914
9.660000	34.403914
9.670000	34.403914
9.680000	34.403914
9.690000	34.403914
9.700000	34.403914
9.710000	34.403914
9.720000	34.403914
9.730000	34.403914
9.740000	34.403914
9.750000	34.403914
9.760000	34.403914
9.770000	34.403914
9.780000	34.403914
9.790000	34.403914
9.800000	34.403914
9.810000	34.403914
9.820000	34.403914
9.830000	34.403914
9.840000	34.403914
9.850000	34.403914
9.860000	34.403914
9.870000	34.403914
9.880000	34.403914
9.890000	34.403914
9.900000	34.403914
9.910000	34.403914
9.920000	34.403914
9.930000	34.403914
9.940000	34.403914
9.950000	34.403914
9.960000	34.403914
9.970000	34.403914
9.980000	34.403914
9.990000	34.403914
10.000000	34.246371
10.010000	34.246371
10.020000	34.246371
10.030000	34.246371
10.040000	34.246371
10.050000	34.246371
10.060000	34.246371
10.070000	34.246371
10.080000	34.246371
10.090000	34.246371
10.100000	34.246371
10.110000	34.246371
10.120000	34.246371
10.130000	34.246371
10.140000	34.246371
10.150000	34.246371
10.160000	34.246371
10.170000	34.246371
10.180000	34.246371
10.190000	34.246371
10.200000	34.246371
10.210000	34.246371
10.220000	34.246371
10.230000	34.246371
10.240000	34.246371
10.250000	34.246371
10.260000	34.246371
10.270000	34.246371
10.280000	34.246371
10.290000	34.246371
10.300000	34.246371
10.310000	34.246371
10.320000	34.246371
10.330000	34.246371
10.340000	34.246371
10.350000	34.246371
10.360000	34.246371
10.370000	34.246371
10.380000	34.246371
10.390000	34.246371
10.400000	34.246371
10.410000	34.246371
10.420000	34.246371
10.430000	34.246371
10.440000	34.246371
10.450000	34.246371
10.460000	34.246371
10.470000	34.246371
10.480000	34.246371
10.490000	34.246371
10.500000	34.083534
10.510000	34.083534
10.520000	34.083534
10.530000	34.083534
10.540000	34.083534
10.550000	34.083534
10.560000	34.083534
10.570000	34.083534
10.580000	34.083534
10.590000	34.083534
10.600000	34.083534
10.610000	34.083534
10.620000	34.083534
10.630000	34.083534
10.640000	34.083534
10.650000	34.083534
10.660000	34.083534
10.670000	34.083534
10.680000	34.083534
10.690000	34.083534
10.700000	34.083534
10.710000	34.083534
10.720000	34.083534
10.730000	34.083534
10.740000	34.083534
10.750000	34.083534
10.760000	34.083534
10.770000	34.083534
10.780000	34.083534
10.790000	34.083534
10.800000	34.083534
10.810000	34.083534
10.820000	34.083534
10.830000	34.083534
10.840000	34.083534
10.850000	34.083534
10.860000	34.083534
10.870000	34.083534
10.880000	34.083534
10.890000	34.083534
10.900000	34.083534
10.910000	34.083534
10.920000	34.083534
10.930000	34.083534
10.940000	34.083534
10.950000	34.083534
10.960000	34.083534
10.970000	34.083534
10.980000	34.083534
10.990000	34.083534
11.000000	33.916340
11.010000	33.916340
11.020000	33.916340
11.030000	33.916340
11.040000	33.916340
11.050000	33.916340
11.060000	33.916340
11.070000	33.916340
11.080000	33.916340
11.090000	33.916340
11.100000	33.916340
11.110000	33.916340
11.120000	33.916340
11.130000	33.916340
11.140000	33.916340
11.150000	33.916340
11.160000	33.916340
11.170000	33.916340
11.180000	33.916340
11.190000	33.916340
11.200000	33.916340
11.210000	33.916340
11.220000	33.916340
11.230000	33.916340
11.240000	33.916340
11.250000	33.916340
11.260000	33.916340
11.270000	33.916340
11.280000	33.916340
11.290000	33.916340
11.300000	33.916340
11.310000	33.916340
11.320000	33.916340
11.330000	33.916340
11.340000	33.916340
11.350000	33.916340
11.360000	33.916340
11.370000	33.916340
11.380000	33.916340
11.390000	33.916340
11.400000	33.916340
11.410000	33.916340
11.420000	33.916340
11.430000	33.916340
11.440000	33.916340
11.450000	33.916340
11.460000	33.916340
11.470000	33.916340
11.480000	33.916340
11.490000	33.916340
11.500000	33.745288
11.510000	33.745288
11.520000	33.745288
11.530000	33.745288
11.540000	33.745288
11.550000	33.745288
11.560000	33.745288
11.570000	33.745288
11.580000	33.745288
11.590000	33.745288
11.600000	33.745288
11.610000	33.745288
11.620000	33.745288
11.630000	33.745288
11.640000	33.745288
11.650000	33.745288
11.660000	33.745288
11.670000	33.745288
11.680000	33.745288
11.690000	33.745288
11.700000	33.745288
11.710000	33.745288
11.720000	33.745288
11.730000	33.745288
11.740000	33.745288
11.750000	33.745288
11.760000	33.745288
11.770000	33.745288
11.780000	33.745288
11.790000	33.745288
11.800000	33.745288
11.810000	33.745288
11.820000	33.745288
11.830000	33.745288
11.840000	33.745288
11.850000	33.745288
11.860000	33.745288
11.870000	33.745288
11.880000	33.745288
11.890000	33.745288
11.900000	33.745288
11.910000	33.745288
11.920000	33.745288
11.930000	33.745288
11.940000	33.745288
11.950000	33.745288
11.960000	33.745288
11.970000	33.745288
11.980000	33.745288
11.990000	33.745288
12.000000	33.572917
12.010000	33.572917
12.020000	33.572917
12.030000	33.572917
12.040000	33.572917
12.050000	33.572917
12.060000	33.572917
12.070000	33.572917
12.080000	33.572917
12.090000	33.572917
12.100000	33.572917
12.110000	33.572917
12.120000	33.572917
12.130000	33.572917
12.140000	33.572917
12.150000	33.572917
12.160000	33.572917
12.170000	33.572917
12.180000	33.572917
12.190000	33.572917
12.200000	33.572917
12.210000	33.572917
12.220000	33.572917
12.230000	33.572917
12.240000	33.572917
12.250000	33.572917
12.260000	33.572917
12.270000	33.572917
12.280000	33.572917
12.290000	33.572917
12.300000	33.572917
12.310000	33.572917
12.320000	33.572917
12.330000	33.572917
12.340000	33.572917
12.350000	33.572917
12.360000	33.572917
12.370000	33.572917
12.380000	33.572917
12.390000	33.572917
12.400000	33.572917
12.410000	33.572917
12.420000	33.572917
12.430000	33.572917
12.440000	33.572917
12.450000	33.572917
12.460000	33.572917
12.470000	33.572917
12.480000	33.572917
12.490000	33.572917
12.500000	33.401283
12.510000	33.401283
12.520000	33.401283
12.530000	33.401283
12.540000	33.401283
12.550000	33.401283
12.560000	33.401283
12.570000	33.401283
12.580000	33.401283
12.590000	33.401283
12.600000	33.401283
12.610000	33.401283
12.620000	33.401283
12.630000	33.401283
12.640000	33.401283
12.650000	33.401283
12.660000	33.401283
12.670000	33.401283
12.680000	33.401283
12.690000	33.401283
12.700000	33.401283
12.710000	33.401283
12.720000	33.401283
12.730000	33.401283
12.740000	33.401283
12.750000	33.401283
12.760000	33.401283
12.770000	33.401283
12.780000	33.401283
12.790000	33.401283
12.800000	33.401283
12.810000	33.401283
12.820000	33.401283
12.830000	33.401283
12.840000	33.401283
12.850000	33.401283
12.860000	33.401283
12.870000	33.401283
12.880000	33.401283
12.890000	33.401283
12.900000	33.401283
12.910000	33.401283
12.920000	33.401283
12.930000	33.401283
12.940000	33.401283
12.950000	33.401283
12.960000	33.401283
12.970000	33.401283
12.980000	33.401283
12.990000	33.401283
13.000000	33.231731
13.010000	33.231731
13.020000	33.231731
13.030000	33.231731
13.040000	33.231731
13.050000	33.231731
13.060000	33.231731
13.070000	33.231731
13.080000	33.231731
13.090000	33.231731
13.100000	33.231731
13.110000	33.231731
13.120000	33.231731
13.130000	33.231731
13.140000	33.231731
13.150000	33.231731
13.160000	33.231731
13.170000	33.231731
13.180000	33.231731
13.190000	33.231731
13.200000	33.231731
13.210000	33.231731
13.220000	33.231731
13.230000	33.231731
13.240000	33.231731
13.250000	33.231731
13.260000	33.231731
13.270000	33.231731
13.280000	33.231731
13.290000	33.231731
13.300000	33.231731
13.310000	33.231731
13.320000	33.231731
13.330000	33.231731
13.340000	33.231731
13.350000	33.231731
13.360000	33.231731
13.370000	33.231731
13.380000	33.231731
13.390000	33.231731
13.400000	33.231731
13.410000	33.231731
13.420000	33.231731
13.430000	33.231731
13.440000	33.231731
13.450000	33.231731
13.460000	33.231731
13.470000	33.231731
13.480000	33.231731
13.490000	33.231731
13.500000	33.062995
13.510000	33.062995
13.520000	33.062995
13.530000	33.062995
13.540000	33.062995
13.550000	33.062995
13.560000	33.062995
13.570000	33.062995
13.580000	33.062995
13.590000	33.062995
13.600000	33.062995
13.610000	33.062995
13.620000	33.062995
13.630000	33.062995
13.640000	33.062995
13.650000	33.062995
13.660000	33.062995
13.670000	33.062995
13.680000	33.062995
13.690000	33.062995
13.700000	33.062995
13.710000	33.062995
13.720000	33.062995
13.730000	33.062995
13.740000	33.062995
13.750000	33.062995
13.760000	33.062995
13.770000	33.062995
13.780000	33.062995
13.790000	33.062995
13.800000	33.062995
13.810000	33.062995
13.820000	33.062995
13.830000	33.062995
13.840000	33.062995
13.850000	33.062995
13.860000	33.062995
13.870000	33.062995
13.880000	33.062995
13.890000	33.062995
13.900000	33.062995
13.910000	33.062995
13.920000	33.062995
13.930000	33.062995
13.940000	33.062995
13.950000	33.062995
13.960000	33.062995
13.970000	33.062995
13.980000	33.062995
13.990000	33.062995
14.000000	32.892042
14.010000	32.892042
14.020000	32.892042
14.030000	32.892042
14.040000	32.892042
14.050000	32.892042
14.060000	32.892042
14.070000	32.892042
14.080000	32.892042
14.090000	32.892042
14.100000	32.892042
14.110000	32.892042
14.120000	32.892042
14.130000	32.892042
14.140000	32.892042
14.150000	32.892042
14.160000	32.892042
14.170000	32.892042
14.180000	32.892042
14.190000	32.892042
14.200000	32.892042
14.210000	32.892042
14.220000	32.892042
14.230000	32.892042
14.240000	32.892042
14.250000	32.892042
14.260000	32.892042
14.270000	32.892042
14.280000	32.892042
14.290000	32.892042
14.300000	32.892042
14.310000	32.892042
14.320000	32.892042
14.330000	32.892042
14.340000	32.892042
14.350000	32.892042
14.360000	32.892042
14.370000	32.892042
14.380000	32.892042
14.390000	32.892042
14.400000	32.892042
14.410000	32.892042
14.420000	32.892042
14.430000	32.892042
14.440000	32.892042
14.450000	32.892042
14.460000	32.892042
14.470000	32.892042
14.480000	32.892042
14.490000	32.892042
14.500000	32.721107
14.510000	32.721107
14.520000	32.721107
14.530000	32.721107
14.540000	32.721107
14.550000	32.721107
14.560000	32.721107
14.570000	32.721107
14.580000	32.721107
14.590000	32.721107
14.600000	32.721107
14.610000	32.721107
14.620000	32.721107
14.630000	32.721107
14.640000	32.721107
14.650000	32.721107
14.660000	32.721107
14.670000	32.721107
14.680000	32.721107
14.690000	32.721107
14.700000	32.721107
14.710000	32.721107
14.720000	32.721107
14.730000	32.721107
14.740000	32.721107
14.750000	32.721107
14.760000	32.721107
14.770000	32.721107
14.780000	32.721107
14.790000	32.721107
14.800000	32.721107
14.810000	32.721107
14.820000	32.721107
14.830000	32.721107
14.840000	32.721107
14.850000	32.721107
14.860000	32.721107
14.870000	32.721107
14.880000	32.721107
14.890000	32.721107
14.900000	32.721107
14.910000	32.721107
14.920000	32.721107
14.930000	32.721107
14.940000	32.721107
14.950000	32.721107
14.960000	32.721107
14.970000	32.721107
14.980000	32.721107
14.990000	32.721107
15.000000	32.558137
15.010000	32.558137
15.020000	32.558137
15.030000	32.558137
15.040000	32.558137
15.050000	32.558137
15.060000	32.558137
15.070000	32.558137
15.080000	32.558137
15.090000	32.558137
15.100000	32.558137
15.110000	32.558137
15.120000	32.558137
15.130000	32.558137
15.140000	32.558137
15.150000	32.558137
15.160000	32.558137
15.170000	32.558137
15.180000	32.558137
15.190000	32.558137
15.200000	32.558137
15.210000	32.558137
15.220000	32.558137
15.230000	32.558137
15.240000	32.558137
15.250000	32.558137
15.260000	32.558137
15.270000	32.558137
15.280000	32.558137
15.290000	32.558137
15.300000	32.558137
15.310000	32.558137
15.320000	32.558137
15.330000	32.558137
15.340000	32.558137
15.350000	32.558137
15.360000	32.558137
15.370000	32.558137
15.380000	32.558137
15.390000	32.558137
15.400000	32.558137
15.410000	32.558137
15.420000	32.558137
15.430000	32.558137
15.440000	32.558137
15.450000	32.558137
15.460000	32.558137
15.470000	32.558137
15.480000	32.558137
15.490000	32.558137
15.500000	32.399367
15.510000	32.399367
15.520000	32.399367
15.530000	32.399367
15.540000	32.399367
15.550000	32.399367
15.560000	32.399367
15.570000	32.399367
15.580000	32.399367
15.590000	32.399367
15.600000	32.399367
15.610000	32.399367
15.620000	32.399367
15.630000	32.399367
15.640000	32.399367
15.650000	32.399367
15.660000	32.399367
15.670000	32.399367
15.680000	32.399367
15.690000	32.399367
15.700000	32.399367
15.710000	32.399367
15.720000	32.399367
15.730000	32.399367
15.740000	32.399367
15.750000	32.399367
15.760000	32.399367
15.770000	32.399367
15.780000	32.399367
15.790000	32.399367
15.800000	32.399367
15.810000	32.399367
15.820000	32.399367
15.830000	32.399367
15.840000	32.399367
15.850000	32.399367
15.860000	32.399367
15.870000	32.399367
15.880000	32.399367
15.890000	32.399367
15.900000	32.399367
15.910000	32.399367
15.920000	32.399367
15.930000	32.399367
15.940000	32.399367
15.950000	32.399367
15.960000	32.399367
15.970000	32.399367
15.980000	32.399367
15.990000	32.399367
16.000000	32.244848
16.010000	32.244848
16.020000	32.244848
16.030000	32.244848
16.040000	32.244848
16.050000	32.244848
16.060000	32.244848
16.070000	32.244848
16.080000	32.244848
16.090000	32.244848
16.100000	32.244848
16.110000	32.244848
16.120000	32.244848
16.130000	32.244848
16.140000	32.244848
16.150000	32.244848
16.160000	32.244848
16.170000	32.244848
16.180000	32.244848
16.190000	32.244848
16.200000	32.244848
16.210000	32.244848
16.220000	32.244848
16.230000	32.244848
16.240000	32.244848
16.250000	32.244848
16.260000	32.244848
16.270000	32.244848
16.280000	32.244848
16.290000	32.244848
16.300000	32.244848
16.310000	32.244848
16.320000	32.244848
16.330000	32.244848
16.340000	32.244848
16.350000	32.244848
16.360000	32.244848
16.370000	32.244848
16.380000	32.244848
16.390000	32.244848
16.400000	32.244848
16.410000	32.244848
16.420000	32.244848
16.430000	32.244848
16.440000	32.244848
16.450000	32.244848
16.460000	32.244848
16.470000	32.244848
16.480000	32.244848
16.490000	32.244848
16.500000	32.095624
16.510000	32.095624
16.520000	32.095624
16.530000	32.095624
16.540000	32.095624
16.550000	32.095624
16.560000	32.095624
16.570000	32.095624
16.580000	32.095624
16.590000	32.095624
16.600000	32.095624
16.610000	32.095624
16.620000	32.095624
16.630000	32.095624
16.640000	32.095624
16.650000	32.095624
16.660000	32.095624
16.670000	32.095624
16.680000	32.095624
16.690000	32.095624
16.700000	32.095624
16.710000	32.095624
16.720000	32.095624
16.730000	32.095624
16.740000	32.095624
16.750000	32.095624
16.760000	32.095624
16.770000	32.095624
16.780000	32.095624
16.790000	32.095624
16.800000	32.095624
16.810000	32.095624
16.820000	32.095624
16.830000	32.095624
16.840000	32.095624
16.850000	32.095624
16.860000	32.095624
16.870000	32.095624
16.880000	32.095624
16.890000	32.095624
16.900000	32.095624
16.910000	32.095624
16.920000	32.095624
16.930000	32.095624
16.940000	32.095624
16.950000	32.095624
16.960000	32.095624
16.970000	32.095624
16.980000	32.095624
16.990000	32.095624
17.000000	31.952118
17.010000	31.952118
17.020000	31.952118
17.030000	31.952118
17.040000	31.952118
17.050000	31.952118
17.060000	31.952118
17.070000	31.952118
17.080000	31.952118
17.090000	31.952118
17.100000	31.952118
17.110000	31.952118
17.120000	31.952118
17.130000	31.952118
17.140000	31.952118
17.150000	31.952118
17.160000	31.952118
17.170000	31.952118
17.180000	31.952118
17.190000	31.952118
17.200000	31.952118
17.210000	31.952118
17.220000	31.952118
17.230000	31.952118
17.240000	31.952118
17.250000	31.952118
17.260000	31.952118
17.270000	31.952118
17.280000	31.952118
17.290000	31.952118
17.300000	31.952118
17.310000	31.952118
17.320000	31.952118
17.330000	31.952118
17.340000	31.952118
17.350000	31.952118
17.360000	31.952118
17.370000	31.952118
17.380000	31.952118
17.390000	31.952118
17.400000	31.952118
17.410000	31.952118
17.420000	31.952118
17.430000	31.952118
17.440000	31.952118
17.450000	31.952118
17.460000	31.952118
17.470000	31.952118
17.480000	31.952118
17.490000	31.952118
