LabVIEW Measurement	
Writer_Version	2
Reader_Version	2
Separator	Tab
Decimal_Separator	.
Multi_Headings	No
X_Columns	One
Time_Pref	Absolute
Operator	biomech-dyno
Date	2023/04/27
Time	17:41:55.9338632999999876419
***End_of_Header***	
	
Channels	1	
Samples	10	
Date	2023/04/27	
Time	18:53:07.5251601999996814718	
X_Dimension	Time	
X0	0.0000000000000000E+0	
Delta_X	0.010000	
***End_of_Header***		
X_Value	Untitled	Comment
0.000000	24.592816
0.010000	24.592816
0.020000	24.592816
0.030000	24.592816
0.040000	24.592816
0.050000	24.592816
0.060000	24.592816
0.070000	24.592816
0.080000	24.592816
0.090000	24.592816
0.100000	24.592816
0.110000	24.592816
0.120000	24.592816
0.130000	24.592816
0.140000	24.592816
0.150000	24.592816
0.160000	24.592816
0.170000	24.592816
0.180000	24.592816
0.190000	24.592816
0.200000	24.592816
0.210000	24.592816
0.220000	24.592816
0.230000	24.592816
0.240000	24.592816
0.250000	24.592816
0.260000	24.592816
0.270000	24.592816
0.280000	24.592816
0.290000	24.592816
0.300000	24.592816
0.310000	24.592816
0.320000	24.592816
0.330000	24.592816
0.340000	24.592816
0.350000	24.592816
0.360000	24.592816
0.370000	24.592816
0.380000	24.592816
0.390000	24.592816
0.400000	24.592816
0.410000	24.592816
0.420000	24.592816
0.430000	24.592816
0.440000	24.592816
0.450000	24.592816
0.460000	24.592816
0.470000	24.592816
0.480000	24.592816
0.490000	24.592816
0.500000	24.594478
0.510000	24.594478
0.520000	24.594478
0.530000	24.594478
0.540000	24.594478
0.550000	24.594478
0.560000	24.594478
0.570000	24.594478
0.580000	24.594478
0.590000	24.594478
0.600000	24.594478
0.610000	24.594478
0.620000	24.594478
0.630000	24.594478
0.640000	24.594478
0.650000	24.594478
0.660000	24.594478
0.670000	24.594478
0.680000	24.594478
0.690000	24.594478
0.700000	24.594478
0.710000	24.594478
0.720000	24.594478
0.730000	24.594478
0.740000	24.594478
0.750000	24.594478
0.760000	24.594478
0.770000	24.594478
0.780000	24.594478
0.790000	24.594478
0.800000	24.594478
0.810000	24.594478
0.820000	24.594478
0.830000	24.594478
0.840000	24.594478
0.850000	24.594478
0.860000	24.594478
0.870000	24.594478
0.880000	24.594478
0.890000	24.594478
0.900000	24.594478
0.910000	24.594478
0.920000	24.594478
0.930000	24.594478
0.940000	24.594478
0.950000	24.594478
0.960000	24.594478
0.970000	24.594478
0.980000	24.594478
0.990000	24.594478
1.000000	24.623831
1.010000	24.623831
1.020000	24.623831
1.030000	24.623831
1.040000	24.623831
1.050000	24.623831
1.060000	24.623831
1.070000	24.623831
1.080000	24.623831
1.090000	24.623831
1.100000	24.623831
1.110000	24.623831
1.120000	24.623831
1.130000	24.623831
1.140000	24.623831
1.150000	24.623831
1.160000	24.623831
1.170000	24.623831
1.180000	24.623831
1.190000	24.623831
1.200000	24.623831
1.210000	24.623831
1.220000	24.623831
1.230000	24.623831
1.240000	24.623831
1.250000	24.623831
1.260000	24.623831
1.270000	24.623831
1.280000	24.623831
1.290000	24.623831
1.300000	24.623831
1.310000	24.623831
1.320000	24.623831
1.330000	24.623831
1.340000	24.623831
1.350000	24.623831
1.360000	24.623831
1.370000	24.623831
1.380000	24.623831
1.390000	24.623831
1.400000	24.623831
1.410000	24.623831
1.420000	24.623831
1.430000	24.623831
1.440000	24.623831
1.450000	24.623831
1.460000	24.623831
1.470000	24.623831
1.480000	24.623831
1.490000	24.623831
1.500000	24.693736
1.510000	24.693736
1.520000	24.693736
1.530000	24.693736
1.540000	24.693736
1.550000	24.693736
1.560000	24.693736
1.570000	24.693736
1.580000	24.693736
1.590000	24.693736
1.600000	24.693736
1.610000	24.693736
1.620000	24.693736
1.630000	24.693736
1.640000	24.693736
1.650000	24.693736
1.660000	24.693736
1.670000	24.693736
1.680000	24.693736
1.690000	24.693736
1.700000	24.693736
1.710000	24.693736
1.720000	24.693736
1.730000	24.693736
1.740000	24.693736
1.750000	24.693736
1.760000	24.693736
1.770000	24.693736
1.780000	24.693736
1.790000	24.693736
1.800000	24.693736
1.810000	24.693736
1.820000	24.693736
1.830000	24.693736
1.840000	24.693736
1.850000	24.693736
1.860000	24.693736
1.870000	24.693736
1.880000	24.693736
1.890000	24.693736
1.900000	24.693736
1.910000	24.693736
1.920000	24.693736
1.930000	24.693736
1.940000	24.693736
1.950000	24.693736
1.960000	24.693736
1.970000	24.693736
1.980000	24.693736
1.990000	24.693736
2.000000	24.795074
2.010000	24.795074
2.020000	24.795074
2.030000	24.795074
2.040000	24.795074
2.050000	24.795074
2.060000	24.795074
2.070000	24.795074
2.080000	24.795074
2.090000	24.795074
2.100000	24.795074
2.110000	24.795074
2.120000	24.795074
2.130000	24.795074
2.140000	24.795074
2.150000	24.795074
2.160000	24.795074
2.170000	24.795074
2.180000	24.795074
2.190000	24.795074
2.200000	24.795074
2.210000	24.795074
2.220000	24.795074
2.230000	24.795074
2.240000	24.795074
2.250000	24.795074
2.260000	24.795074
2.270000	24.795074
2.280000	24.795074
2.290000	24.795074
2.300000	24.795074
2.310000	24.795074
2.320000	24.795074
2.330000	24.795074
2.340000	24.795074
2.350000	24.795074
2.360000	24.795074
2.370000	24.795074
2.380000	24.795074
2.390000	24.795074
2.400000	24.795074
2.410000	24.795074
2.420000	24.795074
2.430000	24.795074
2.440000	24.795074
2.450000	24.795074
2.460000	24.795074
2.470000	24.795074
2.480000	24.795074
2.490000	24.795074
2.500000	24.918618
2.510000	24.918618
2.520000	24.918618
2.530000	24.918618
2.540000	24.918618
2.550000	24.918618
2.560000	24.918618
2.570000	24.918618
2.580000	24.918618
2.590000	24.918618
2.600000	24.918618
2.610000	24.918618
2.620000	24.918618
2.630000	24.918618
2.640000	24.918618
2.650000	24.918618
2.660000	24.918618
2.670000	24.918618
2.680000	24.918618
2.690000	24.918618
2.700000	24.918618
2.710000	24.918618
2.720000	24.918618
2.730000	24.918618
2.740000	24.918618
2.750000	24.918618
2.760000	24.918618
2.770000	24.918618
2.780000	24.918618
2.790000	24.918618
2.800000	24.918618
2.810000	24.918618
2.820000	24.918618
2.830000	24.918618
2.840000	24.918618
2.850000	24.918618
2.860000	24.918618
2.870000	24.918618
2.880000	24.918618
2.890000	24.918618
2.900000	24.918618
2.910000	24.918618
2.920000	24.918618
2.930000	24.918618
2.940000	24.918618
2.950000	24.918618
2.960000	24.918618
2.970000	24.918618
2.980000	24.918618
2.990000	24.918618
3.000000	25.054746
3.010000	25.054746
3.020000	25.054746
3.030000	25.054746
3.040000	25.054746
3.050000	25.054746
3.060000	25.054746
3.070000	25.054746
3.080000	25.054746
3.090000	25.054746
3.100000	25.054746
3.110000	25.054746
3.120000	25.054746
3.130000	25.054746
3.140000	25.054746
3.150000	25.054746
3.160000	25.054746
3.170000	25.054746
3.180000	25.054746
3.190000	25.054746
3.200000	25.054746
3.210000	25.054746
3.220000	25.054746
3.230000	25.054746
3.240000	25.054746
3.250000	25.054746
3.260000	25.054746
3.270000	25.054746
3.280000	25.054746
3.290000	25.054746
3.300000	25.054746
3.310000	25.054746
3.320000	25.054746
3.330000	25.054746
3.340000	25.054746
3.350000	25.054746
3.360000	25.054746
3.370000	25.054746
3.380000	25.054746
3.390000	25.054746
3.400000	25.054746
3.410000	25.054746
3.420000	25.054746
3.430000	25.054746
3.440000	25.054746
3.450000	25.054746
3.460000	25.054746
3.470000	25.054746
3.480000	25.054746
3.490000	25.054746
3.500000	25.175185
3.510000	25.175185
3.520000	25.175185
3.530000	25.175185
3.540000	25.175185
3.550000	25.175185
3.560000	25.175185
3.570000	25.175185
3.580000	25.175185
3.590000	25.175185
3.600000	25.175185
3.610000	25.175185
3.620000	25.175185
3.630000	25.175185
3.640000	25.175185
3.650000	25.175185
3.660000	25.175185
3.670000	25.175185
3.680000	25.175185
3.690000	25.175185
3.700000	25.175185
3.710000	25.175185
3.720000	25.175185
3.730000	25.175185
3.740000	25.175185
3.750000	25.175185
3.760000	25.175185
3.770000	25.175185
3.780000	25.175185
3.790000	25.175185
3.800000	25.175185
3.810000	25.175185
3.820000	25.175185
3.830000	25.175185
3.840000	25.175185
3.850000	25.175185
3.860000	25.175185
3.870000	25.175185
3.880000	25.175185
3.890000	25.175185
3.900000	25.175185
3.910000	25.175185
3.920000	25.175185
3.930000	25.175185
3.940000	25.175185
3.950000	25.175185
3.960000	25.175185
3.970000	25.175185
3.980000	25.175185
3.990000	25.175185
4.000000	25.264124
4.010000	25.264124
4.020000	25.264124
4.030000	25.264124
4.040000	25.264124
4.050000	25.264124
4.060000	25.264124
4.070000	25.264124
4.080000	25.264124
4.090000	25.264124
4.100000	25.264124
4.110000	25.264124
4.120000	25.264124
4.130000	25.264124
4.140000	25.264124
4.150000	25.264124
4.160000	25.264124
4.170000	25.264124
4.180000	25.264124
4.190000	25.264124
4.200000	25.264124
4.210000	25.264124
4.220000	25.264124
4.230000	25.264124
4.240000	25.264124
4.250000	25.264124
4.260000	25.264124
4.270000	25.264124
4.280000	25.264124
4.290000	25.264124
4.300000	25.264124
4.310000	25.264124
4.320000	25.264124
4.330000	25.264124
4.340000	25.264124
4.350000	25.264124
4.360000	25.264124
4.370000	25.264124
4.380000	25.264124
4.390000	25.264124
4.400000	25.264124
4.410000	25.264124
4.420000	25.264124
4.430000	25.264124
4.440000	25.264124
4.450000	25.264124
4.460000	25.264124
4.470000	25.264124
4.480000	25.264124
4.490000	25.264124
4.500000	25.326602
4.510000	25.326602
4.520000	25.326602
4.530000	25.326602
4.540000	25.326602
4.550000	25.326602
4.560000	25.326602
4.570000	25.326602
4.580000	25.326602
4.590000	25.326602
4.600000	25.326602
4.610000	25.326602
4.620000	25.326602
4.630000	25.326602
4.640000	25.326602
4.650000	25.326602
4.660000	25.326602
4.670000	25.326602
4.680000	25.326602
4.690000	25.326602
4.700000	25.326602
4.710000	25.326602
4.720000	25.326602
4.730000	25.326602
4.740000	25.326602
4.750000	25.326602
4.760000	25.326602
4.770000	25.326602
4.780000	25.326602
4.790000	25.326602
4.800000	25.326602
4.810000	25.326602
4.820000	25.326602
4.830000	25.326602
4.840000	25.326602
4.850000	25.326602
4.860000	25.326602
4.870000	25.326602
4.880000	25.326602
4.890000	25.326602
4.900000	25.326602
4.910000	25.326602
4.920000	25.326602
4.930000	25.326602
4.940000	25.326602
4.950000	25.326602
4.960000	25.326602
4.970000	25.326602
4.980000	25.326602
4.990000	25.326602
5.000000	25.371172
5.010000	25.371172
5.020000	25.371172
5.030000	25.371172
5.040000	25.371172
5.050000	25.371172
5.060000	25.371172
5.070000	25.371172
5.080000	25.371172
5.090000	25.371172
5.100000	25.371172
5.110000	25.371172
5.120000	25.371172
5.130000	25.371172
5.140000	25.371172
5.150000	25.371172
5.160000	25.371172
5.170000	25.371172
5.180000	25.371172
5.190000	25.371172
5.200000	25.371172
5.210000	25.371172
5.220000	25.371172
5.230000	25.371172
5.240000	25.371172
5.250000	25.371172
5.260000	25.371172
5.270000	25.371172
5.280000	25.371172
5.290000	25.371172
5.300000	25.371172
5.310000	25.371172
5.320000	25.371172
5.330000	25.371172
5.340000	25.371172
5.350000	25.371172
5.360000	25.371172
5.370000	25.371172
5.380000	25.371172
5.390000	25.371172
5.400000	25.371172
5.410000	25.371172
5.420000	25.371172
5.430000	25.371172
5.440000	25.371172
5.450000	25.371172
5.460000	25.371172
5.470000	25.371172
5.480000	25.371172
5.490000	25.371172
5.500000	25.401887
5.510000	25.401887
5.520000	25.401887
5.530000	25.401887
5.540000	25.401887
5.550000	25.401887
5.560000	25.401887
5.570000	25.401887
5.580000	25.401887
5.590000	25.401887
5.600000	25.401887
5.610000	25.401887
5.620000	25.401887
5.630000	25.401887
5.640000	25.401887
5.650000	25.401887
5.660000	25.401887
5.670000	25.401887
5.680000	25.401887
5.690000	25.401887
5.700000	25.401887
5.710000	25.401887
5.720000	25.401887
5.730000	25.401887
5.740000	25.401887
5.750000	25.401887
5.760000	25.401887
5.770000	25.401887
5.780000	25.401887
5.790000	25.401887
5.800000	25.401887
5.810000	25.401887
5.820000	25.401887
5.830000	25.401887
5.840000	25.401887
5.850000	25.401887
5.860000	25.401887
5.870000	25.401887
5.880000	25.401887
5.890000	25.401887
5.900000	25.401887
5.910000	25.401887
5.920000	25.401887
5.930000	25.401887
5.940000	25.401887
5.950000	25.401887
5.960000	25.401887
5.970000	25.401887
5.980000	25.401887
5.990000	25.401887
6.000000	25.421030
6.010000	25.421030
6.020000	25.421030
6.030000	25.421030
6.040000	25.421030
6.050000	25.421030
6.060000	25.421030
6.070000	25.421030
6.080000	25.421030
6.090000	25.421030
6.100000	25.421030
6.110000	25.421030
6.120000	25.421030
6.130000	25.421030
6.140000	25.421030
6.150000	25.421030
6.160000	25.421030
6.170000	25.421030
6.180000	25.421030
6.190000	25.421030
6.200000	25.421030
6.210000	25.421030
6.220000	25.421030
6.230000	25.421030
6.240000	25.421030
6.250000	25.421030
6.260000	25.421030
6.270000	25.421030
6.280000	25.421030
6.290000	25.421030
6.300000	25.421030
6.310000	25.421030
6.320000	25.421030
6.330000	25.421030
6.340000	25.421030
6.350000	25.421030
6.360000	25.421030
6.370000	25.421030
6.380000	25.421030
6.390000	25.421030
6.400000	25.421030
6.410000	25.421030
6.420000	25.421030
6.430000	25.421030
6.440000	25.421030
6.450000	25.421030
6.460000	25.421030
6.470000	25.421030
6.480000	25.421030
6.490000	25.421030
6.500000	25.431864
6.510000	25.431864
6.520000	25.431864
6.530000	25.431864
6.540000	25.431864
6.550000	25.431864
6.560000	25.431864
6.570000	25.431864
6.580000	25.431864
6.590000	25.431864
6.600000	25.431864
6.610000	25.431864
6.620000	25.431864
6.630000	25.431864
6.640000	25.431864
6.650000	25.431864
6.660000	25.431864
6.670000	25.431864
6.680000	25.431864
6.690000	25.431864
6.700000	25.431864
6.710000	25.431864
6.720000	25.431864
6.730000	25.431864
6.740000	25.431864
6.750000	25.431864
6.760000	25.431864
6.770000	25.431864
6.780000	25.431864
6.790000	25.431864
6.800000	25.431864
6.810000	25.431864
6.820000	25.431864
6.830000	25.431864
6.840000	25.431864
6.850000	25.431864
6.860000	25.431864
6.870000	25.431864
6.880000	25.431864
6.890000	25.431864
6.900000	25.431864
6.910000	25.431864
6.920000	25.431864
6.930000	25.431864
6.940000	25.431864
6.950000	25.431864
6.960000	25.431864
6.970000	25.431864
6.980000	25.431864
6.990000	25.431864
7.000000	25.436720
7.010000	25.436720
7.020000	25.436720
7.030000	25.436720
7.040000	25.436720
7.050000	25.436720
7.060000	25.436720
7.070000	25.436720
7.080000	25.436720
7.090000	25.436720
7.100000	25.436720
7.110000	25.436720
7.120000	25.436720
7.130000	25.436720
7.140000	25.436720
7.150000	25.436720
7.160000	25.436720
7.170000	25.436720
7.180000	25.436720
7.190000	25.436720
7.200000	25.436720
7.210000	25.436720
7.220000	25.436720
7.230000	25.436720
7.240000	25.436720
7.250000	25.436720
7.260000	25.436720
7.270000	25.436720
7.280000	25.436720
7.290000	25.436720
7.300000	25.436720
7.310000	25.436720
7.320000	25.436720
7.330000	25.436720
7.340000	25.436720
7.350000	25.436720
7.360000	25.436720
7.370000	25.436720
7.380000	25.436720
7.390000	25.436720
7.400000	25.436720
7.410000	25.436720
7.420000	25.436720
7.430000	25.436720
7.440000	25.436720
7.450000	25.436720
7.460000	25.436720
7.470000	25.436720
7.480000	25.436720
7.490000	25.436720
7.500000	25.437122
7.510000	25.437122
7.520000	25.437122
7.530000	25.437122
7.540000	25.437122
7.550000	25.437122
7.560000	25.437122
7.570000	25.437122
7.580000	25.437122
7.590000	25.437122
7.600000	25.437122
7.610000	25.437122
7.620000	25.437122
7.630000	25.437122
7.640000	25.437122
7.650000	25.437122
7.660000	25.437122
7.670000	25.437122
7.680000	25.437122
7.690000	25.437122
7.700000	25.437122
7.710000	25.437122
7.720000	25.437122
7.730000	25.437122
7.740000	25.437122
7.750000	25.437122
7.760000	25.437122
7.770000	25.437122
7.780000	25.437122
7.790000	25.437122
7.800000	25.437122
7.810000	25.437122
7.820000	25.437122
7.830000	25.437122
7.840000	25.437122
7.850000	25.437122
7.860000	25.437122
7.870000	25.437122
7.880000	25.437122
7.890000	25.437122
7.900000	25.437122
7.910000	25.437122
7.920000	25.437122
7.930000	25.437122
7.940000	25.437122
7.950000	25.437122
7.960000	25.437122
7.970000	25.437122
7.980000	25.437122
7.990000	25.437122
8.000000	25.432856
8.010000	25.432856
8.020000	25.432856
8.030000	25.432856
8.040000	25.432856
8.050000	25.432856
8.060000	25.432856
8.070000	25.432856
8.080000	25.432856
8.090000	25.432856
8.100000	25.432856
8.110000	25.432856
8.120000	25.432856
8.130000	25.432856
8.140000	25.432856
8.150000	25.432856
8.160000	25.432856
8.170000	25.432856
8.180000	25.432856
8.190000	25.432856
8.200000	25.432856
8.210000	25.432856
8.220000	25.432856
8.230000	25.432856
8.240000	25.432856
8.250000	25.432856
8.260000	25.432856
8.270000	25.432856
8.280000	25.432856
8.290000	25.432856
8.300000	25.432856
8.310000	25.432856
8.320000	25.432856
8.330000	25.432856
8.340000	25.432856
8.350000	25.432856
8.360000	25.432856
8.370000	25.432856
8.380000	25.432856
8.390000	25.432856
8.400000	25.432856
8.410000	25.432856
8.420000	25.432856
8.430000	25.432856
8.440000	25.432856
8.450000	25.432856
8.460000	25.432856
8.470000	25.432856
8.480000	25.432856
8.490000	25.432856
8.500000	25.425305
8.510000	25.425305
8.520000	25.425305
8.530000	25.425305
8.540000	25.425305
8.550000	25.425305
8.560000	25.425305
8.570000	25.425305
8.580000	25.425305
8.590000	25.425305
8.600000	25.425305
8.610000	25.425305
8.620000	25.425305
8.630000	25.425305
8.640000	25.425305
8.650000	25.425305
8.660000	25.425305
8.670000	25.425305
8.680000	25.425305
8.690000	25.425305
8.700000	25.425305
8.710000	25.425305
8.720000	25.425305
8.730000	25.425305
8.740000	25.425305
8.750000	25.425305
8.760000	25.425305
8.770000	25.425305
8.780000	25.425305
8.790000	25.425305
8.800000	25.425305
8.810000	25.425305
8.820000	25.425305
8.830000	25.425305
8.840000	25.425305
8.850000	25.425305
8.860000	25.425305
8.870000	25.425305
8.880000	25.425305
8.890000	25.425305
8.900000	25.425305
8.910000	25.425305
8.920000	25.425305
8.930000	25.425305
8.940000	25.425305
8.950000	25.425305
8.960000	25.425305
8.970000	25.425305
8.980000	25.425305
8.990000	25.425305
9.000000	25.415890
9.010000	25.415890
9.020000	25.415890
9.030000	25.415890
9.040000	25.415890
9.050000	25.415890
9.060000	25.415890
9.070000	25.415890
9.080000	25.415890
9.090000	25.415890
9.100000	25.415890
9.110000	25.415890
9.120000	25.415890
9.130000	25.415890
9.140000	25.415890
9.150000	25.415890
9.160000	25.415890
9.170000	25.415890
9.180000	25.415890
9.190000	25.415890
9.200000	25.415890
9.210000	25.415890
9.220000	25.415890
9.230000	25.415890
9.240000	25.415890
9.250000	25.415890
9.260000	25.415890
9.270000	25.415890
9.280000	25.415890
9.290000	25.415890
9.300000	25.415890
9.310000	25.415890
9.320000	25.415890
9.330000	25.415890
9.340000	25.415890
9.350000	25.415890
9.360000	25.415890
9.370000	25.415890
9.380000	25.415890
9.390000	25.415890
9.400000	25.415890
9.410000	25.415890
9.420000	25.415890
9.430000	25.415890
9.440000	25.415890
9.450000	25.415890
9.460000	25.415890
9.470000	25.415890
9.480000	25.415890
9.490000	25.415890
9.500000	25.405309
9.510000	25.405309
9.520000	25.405309
9.530000	25.405309
9.540000	25.405309
9.550000	25.405309
9.560000	25.405309
9.570000	25.405309
9.580000	25.405309
9.590000	25.405309
9.600000	25.405309
9.610000	25.405309
9.620000	25.405309
9.630000	25.405309
9.640000	25.405309
9.650000	25.405309
9.660000	25.405309
9.670000	25.405309
9.680000	25.405309
9.690000	25.405309
9.700000	25.405309
9.710000	25.405309
9.720000	25.405309
9.730000	25.405309
9.740000	25.405309
9.750000	25.405309
9.760000	25.405309
9.770000	25.405309
9.780000	25.405309
9.790000	25.405309
9.800000	25.405309
9.810000	25.405309
9.820000	25.405309
9.830000	25.405309
9.840000	25.405309
9.850000	25.405309
9.860000	25.405309
9.870000	25.405309
9.880000	25.405309
9.890000	25.405309
9.900000	25.405309
9.910000	25.405309
9.920000	25.405309
9.930000	25.405309
9.940000	25.405309
9.950000	25.405309
9.960000	25.405309
9.970000	25.405309
9.980000	25.405309
9.990000	25.405309
10.000000	25.393545
10.010000	25.393545
10.020000	25.393545
10.030000	25.393545
10.040000	25.393545
10.050000	25.393545
10.060000	25.393545
10.070000	25.393545
10.080000	25.393545
10.090000	25.393545
10.100000	25.393545
10.110000	25.393545
10.120000	25.393545
10.130000	25.393545
10.140000	25.393545
10.150000	25.393545
10.160000	25.393545
10.170000	25.393545
10.180000	25.393545
10.190000	25.393545
10.200000	25.393545
10.210000	25.393545
10.220000	25.393545
10.230000	25.393545
10.240000	25.393545
10.250000	25.393545
10.260000	25.393545
10.270000	25.393545
10.280000	25.393545
10.290000	25.393545
10.300000	25.393545
10.310000	25.393545
10.320000	25.393545
10.330000	25.393545
10.340000	25.393545
10.350000	25.393545
10.360000	25.393545
10.370000	25.393545
10.380000	25.393545
10.390000	25.393545
10.400000	25.393545
10.410000	25.393545
10.420000	25.393545
10.430000	25.393545
10.440000	25.393545
10.450000	25.393545
10.460000	25.393545
10.470000	25.393545
10.480000	25.393545
10.490000	25.393545
10.500000	25.380845
10.510000	25.380845
10.520000	25.380845
10.530000	25.380845
10.540000	25.380845
10.550000	25.380845
10.560000	25.380845
10.570000	25.380845
10.580000	25.380845
10.590000	25.380845
10.600000	25.380845
10.610000	25.380845
10.620000	25.380845
10.630000	25.380845
10.640000	25.380845
10.650000	25.380845
10.660000	25.380845
10.670000	25.380845
10.680000	25.380845
10.690000	25.380845
10.700000	25.380845
10.710000	25.380845
10.720000	25.380845
10.730000	25.380845
10.740000	25.380845
10.750000	25.380845
10.760000	25.380845
10.770000	25.380845
10.780000	25.380845
10.790000	25.380845
10.800000	25.380845
10.810000	25.380845
10.820000	25.380845
10.830000	25.380845
10.840000	25.380845
10.850000	25.380845
10.860000	25.380845
10.870000	25.380845
10.880000	25.380845
10.890000	25.380845
10.900000	25.380845
10.910000	25.380845
10.920000	25.380845
10.930000	25.380845
10.940000	25.380845
10.950000	25.380845
10.960000	25.380845
10.970000	25.380845
10.980000	25.380845
10.990000	25.380845
11.000000	25.367269
11.010000	25.367269
11.020000	25.367269
11.030000	25.367269
11.040000	25.367269
11.050000	25.367269
11.060000	25.367269
11.070000	25.367269
11.080000	25.367269
11.090000	25.367269
11.100000	25.367269
11.110000	25.367269
11.120000	25.367269
11.130000	25.367269
11.140000	25.367269
11.150000	25.367269
11.160000	25.367269
11.170000	25.367269
11.180000	25.367269
11.190000	25.367269
11.200000	25.367269
11.210000	25.367269
11.220000	25.367269
11.230000	25.367269
11.240000	25.367269
11.250000	25.367269
11.260000	25.367269
11.270000	25.367269
11.280000	25.367269
11.290000	25.367269
11.300000	25.367269
11.310000	25.367269
11.320000	25.367269
11.330000	25.367269
11.340000	25.367269
11.350000	25.367269
11.360000	25.367269
11.370000	25.367269
11.380000	25.367269
11.390000	25.367269
11.400000	25.367269
11.410000	25.367269
11.420000	25.367269
11.430000	25.367269
11.440000	25.367269
11.450000	25.367269
11.460000	25.367269
11.470000	25.367269
11.480000	25.367269
11.490000	25.367269
11.500000	25.352866
11.510000	25.352866
11.520000	25.352866
11.530000	25.352866
11.540000	25.352866
11.550000	25.352866
11.560000	25.352866
11.570000	25.352866
11.580000	25.352866
11.590000	25.352866
11.600000	25.352866
11.610000	25.352866
11.620000	25.352866
11.630000	25.352866
11.640000	25.352866
11.650000	25.352866
11.660000	25.352866
11.670000	25.352866
11.680000	25.352866
11.690000	25.352866
11.700000	25.352866
11.710000	25.352866
11.720000	25.352866
11.730000	25.352866
11.740000	25.352866
11.750000	25.352866
11.760000	25.352866
11.770000	25.352866
11.780000	25.352866
11.790000	25.352866
11.800000	25.352866
11.810000	25.352866
11.820000	25.352866
11.830000	25.352866
11.840000	25.352866
11.850000	25.352866
11.860000	25.352866
11.870000	25.352866
11.880000	25.352866
11.890000	25.352866
11.900000	25.352866
11.910000	25.352866
11.920000	25.352866
11.930000	25.352866
11.940000	25.352866
11.950000	25.352866
11.960000	25.352866
11.970000	25.352866
11.980000	25.352866
11.990000	25.352866
12.000000	25.338091
12.010000	25.338091
12.020000	25.338091
12.030000	25.338091
12.040000	25.338091
12.050000	25.338091
12.060000	25.338091
12.070000	25.338091
12.080000	25.338091
12.090000	25.338091
12.100000	25.338091
12.110000	25.338091
12.120000	25.338091
12.130000	25.338091
12.140000	25.338091
12.150000	25.338091
12.160000	25.338091
12.170000	25.338091
12.180000	25.338091
12.190000	25.338091
12.200000	25.338091
12.210000	25.338091
12.220000	25.338091
12.230000	25.338091
12.240000	25.338091
12.250000	25.338091
12.260000	25.338091
12.270000	25.338091
12.280000	25.338091
12.290000	25.338091
12.300000	25.338091
12.310000	25.338091
12.320000	25.338091
12.330000	25.338091
12.340000	25.338091
12.350000	25.338091
12.360000	25.338091
12.370000	25.338091
12.380000	25.338091
12.390000	25.338091
12.400000	25.338091
12.410000	25.338091
12.420000	25.338091
12.430000	25.338091
12.440000	25.338091
12.450000	25.338091
12.460000	25.338091
12.470000	25.338091
12.480000	25.338091
12.490000	25.338091
12.500000	25.323415
12.510000	25.323415
12.520000	25.323415
12.530000	25.323415
12.540000	25.323415
12.550000	25.323415
12.560000	25.323415
12.570000	25.323415
12.580000	25.323415
12.590000	25.323415
12.600000	25.323415
12.610000	25.323415
12.620000	25.323415
12.630000	25.323415
12.640000	25.323415
12.650000	25.323415
12.660000	25.323415
12.670000	25.323415
12.680000	25.323415
12.690000	25.323415
12.700000	25.323415
12.710000	25.323415
12.720000	25.323415
12.730000	25.323415
12.740000	25.323415
12.750000	25.323415
12.760000	25.323415
12.770000	25.323415
12.780000	25.323415
12.790000	25.323415
12.800000	25.323415
12.810000	25.323415
12.820000	25.323415
12.830000	25.323415
12.840000	25.323415
12.850000	25.323415
12.860000	25.323415
12.870000	25.323415
12.880000	25.323415
12.890000	25.323415
12.900000	25.323415
12.910000	25.323415
12.920000	25.323415
12.930000	25.323415
12.940000	25.323415
12.950000	25.323415
12.960000	25.323415
12.970000	25.323415
12.980000	25.323415
12.990000	25.323415
13.000000	25.308280
13.010000	25.308280
13.020000	25.308280
13.030000	25.308280
13.040000	25.308280
13.050000	25.308280
13.060000	25.308280
13.070000	25.308280
13.080000	25.308280
13.090000	25.308280
13.100000	25.308280
13.110000	25.308280
13.120000	25.308280
13.130000	25.308280
13.140000	25.308280
13.150000	25.308280
13.160000	25.308280
13.170000	25.308280
13.180000	25.308280
13.190000	25.308280
13.200000	25.308280
13.210000	25.308280
13.220000	25.308280
13.230000	25.308280
13.240000	25.308280
13.250000	25.308280
13.260000	25.308280
13.270000	25.308280
13.280000	25.308280
13.290000	25.308280
13.300000	25.308280
13.310000	25.308280
13.320000	25.308280
13.330000	25.308280
13.340000	25.308280
13.350000	25.308280
13.360000	25.308280
13.370000	25.308280
13.380000	25.308280
13.390000	25.308280
13.400000	25.308280
13.410000	25.308280
13.420000	25.308280
13.430000	25.308280
13.440000	25.308280
13.450000	25.308280
13.460000	25.308280
13.470000	25.308280
13.480000	25.308280
13.490000	25.308280
13.500000	25.292951
13.510000	25.292951
13.520000	25.292951
13.530000	25.292951
13.540000	25.292951
13.550000	25.292951
13.560000	25.292951
13.570000	25.292951
13.580000	25.292951
13.590000	25.292951
13.600000	25.292951
13.610000	25.292951
13.620000	25.292951
13.630000	25.292951
13.640000	25.292951
13.650000	25.292951
13.660000	25.292951
13.670000	25.292951
13.680000	25.292951
13.690000	25.292951
13.700000	25.292951
13.710000	25.292951
13.720000	25.292951
13.730000	25.292951
13.740000	25.292951
13.750000	25.292951
13.760000	25.292951
13.770000	25.292951
13.780000	25.292951
13.790000	25.292951
13.800000	25.292951
13.810000	25.292951
13.820000	25.292951
13.830000	25.292951
13.840000	25.292951
13.850000	25.292951
13.860000	25.292951
13.870000	25.292951
13.880000	25.292951
13.890000	25.292951
13.900000	25.292951
13.910000	25.292951
13.920000	25.292951
13.930000	25.292951
13.940000	25.292951
13.950000	25.292951
13.960000	25.292951
13.970000	25.292951
13.980000	25.292951
13.990000	25.292951
14.000000	25.277635
14.010000	25.277635
14.020000	25.277635
14.030000	25.277635
14.040000	25.277635
14.050000	25.277635
14.060000	25.277635
14.070000	25.277635
14.080000	25.277635
14.090000	25.277635
14.100000	25.277635
14.110000	25.277635
14.120000	25.277635
14.130000	25.277635
14.140000	25.277635
14.150000	25.277635
14.160000	25.277635
14.170000	25.277635
14.180000	25.277635
14.190000	25.277635
14.200000	25.277635
14.210000	25.277635
14.220000	25.277635
14.230000	25.277635
14.240000	25.277635
14.250000	25.277635
14.260000	25.277635
14.270000	25.277635
14.280000	25.277635
14.290000	25.277635
14.300000	25.277635
14.310000	25.277635
14.320000	25.277635
14.330000	25.277635
14.340000	25.277635
14.350000	25.277635
14.360000	25.277635
14.370000	25.277635
14.380000	25.277635
14.390000	25.277635
14.400000	25.277635
14.410000	25.277635
14.420000	25.277635
14.430000	25.277635
14.440000	25.277635
14.450000	25.277635
14.460000	25.277635
14.470000	25.277635
14.480000	25.277635
14.490000	25.277635
14.500000	25.262279
14.510000	25.262279
14.520000	25.262279
14.530000	25.262279
14.540000	25.262279
14.550000	25.262279
14.560000	25.262279
14.570000	25.262279
14.580000	25.262279
14.590000	25.262279
14.600000	25.262279
14.610000	25.262279
14.620000	25.262279
14.630000	25.262279
14.640000	25.262279
14.650000	25.262279
14.660000	25.262279
14.670000	25.262279
14.680000	25.262279
14.690000	25.262279
14.700000	25.262279
14.710000	25.262279
14.720000	25.262279
14.730000	25.262279
14.740000	25.262279
14.750000	25.262279
14.760000	25.262279
14.770000	25.262279
14.780000	25.262279
14.790000	25.262279
14.800000	25.262279
14.810000	25.262279
14.820000	25.262279
14.830000	25.262279
14.840000	25.262279
14.850000	25.262279
14.860000	25.262279
14.870000	25.262279
14.880000	25.262279
14.890000	25.262279
14.900000	25.262279
14.910000	25.262279
14.920000	25.262279
14.930000	25.262279
14.940000	25.262279
14.950000	25.262279
14.960000	25.262279
14.970000	25.262279
14.980000	25.262279
14.990000	25.262279
15.000000	25.246902
15.010000	25.246902
15.020000	25.246902
15.030000	25.246902
15.040000	25.246902
15.050000	25.246902
15.060000	25.246902
15.070000	25.246902
15.080000	25.246902
15.090000	25.246902
15.100000	25.246902
15.110000	25.246902
15.120000	25.246902
15.130000	25.246902
15.140000	25.246902
15.150000	25.246902
15.160000	25.246902
15.170000	25.246902
15.180000	25.246902
15.190000	25.246902
15.200000	25.246902
15.210000	25.246902
15.220000	25.246902
15.230000	25.246902
15.240000	25.246902
15.250000	25.246902
15.260000	25.246902
15.270000	25.246902
15.280000	25.246902
15.290000	25.246902
15.300000	25.246902
15.310000	25.246902
15.320000	25.246902
15.330000	25.246902
15.340000	25.246902
15.350000	25.246902
15.360000	25.246902
15.370000	25.246902
15.380000	25.246902
15.390000	25.246902
15.400000	25.246902
15.410000	25.246902
15.420000	25.246902
15.430000	25.246902
15.440000	25.246902
15.450000	25.246902
15.460000	25.246902
15.470000	25.246902
15.480000	25.246902
15.490000	25.246902
15.500000	25.231623
15.510000	25.231623
15.520000	25.231623
15.530000	25.231623
15.540000	25.231623
15.550000	25.231623
15.560000	25.231623
15.570000	25.231623
15.580000	25.231623
15.590000	25.231623
15.600000	25.231623
15.610000	25.231623
15.620000	25.231623
15.630000	25.231623
15.640000	25.231623
15.650000	25.231623
15.660000	25.231623
15.670000	25.231623
15.680000	25.231623
15.690000	25.231623
15.700000	25.231623
15.710000	25.231623
15.720000	25.231623
15.730000	25.231623
15.740000	25.231623
15.750000	25.231623
15.760000	25.231623
15.770000	25.231623
15.780000	25.231623
15.790000	25.231623
15.800000	25.231623
15.810000	25.231623
15.820000	25.231623
15.830000	25.231623
15.840000	25.231623
15.850000	25.231623
15.860000	25.231623
15.870000	25.231623
15.880000	25.231623
15.890000	25.231623
15.900000	25.231623
15.910000	25.231623
15.920000	25.231623
15.930000	25.231623
15.940000	25.231623
15.950000	25.231623
15.960000	25.231623
15.970000	25.231623
15.980000	25.231623
15.990000	25.231623
16.000000	25.216553
16.010000	25.216553
16.020000	25.216553
16.030000	25.216553
16.040000	25.216553
16.050000	25.216553
16.060000	25.216553
16.070000	25.216553
16.080000	25.216553
16.090000	25.216553
16.100000	25.216553
16.110000	25.216553
16.120000	25.216553
16.130000	25.216553
16.140000	25.216553
16.150000	25.216553
16.160000	25.216553
16.170000	25.216553
16.180000	25.216553
16.190000	25.216553
16.200000	25.216553
16.210000	25.216553
16.220000	25.216553
16.230000	25.216553
16.240000	25.216553
16.250000	25.216553
16.260000	25.216553
16.270000	25.216553
16.280000	25.216553
16.290000	25.216553
16.300000	25.216553
16.310000	25.216553
16.320000	25.216553
16.330000	25.216553
16.340000	25.216553
16.350000	25.216553
16.360000	25.216553
16.370000	25.216553
16.380000	25.216553
16.390000	25.216553
16.400000	25.216553
16.410000	25.216553
16.420000	25.216553
16.430000	25.216553
16.440000	25.216553
16.450000	25.216553
16.460000	25.216553
16.470000	25.216553
16.480000	25.216553
16.490000	25.216553
16.500000	25.200766
16.510000	25.200766
16.520000	25.200766
16.530000	25.200766
16.540000	25.200766
16.550000	25.200766
16.560000	25.200766
16.570000	25.200766
16.580000	25.200766
16.590000	25.200766
16.600000	25.200766
16.610000	25.200766
16.620000	25.200766
16.630000	25.200766
16.640000	25.200766
16.650000	25.200766
16.660000	25.200766
16.670000	25.200766
16.680000	25.200766
16.690000	25.200766
16.700000	25.200766
16.710000	25.200766
16.720000	25.200766
16.730000	25.200766
16.740000	25.200766
16.750000	25.200766
16.760000	25.200766
16.770000	25.200766
16.780000	25.200766
16.790000	25.200766
16.800000	25.200766
16.810000	25.200766
16.820000	25.200766
16.830000	25.200766
16.840000	25.200766
16.850000	25.200766
16.860000	25.200766
16.870000	25.200766
16.880000	25.200766
16.890000	25.200766
16.900000	25.200766
16.910000	25.200766
16.920000	25.200766
16.930000	25.200766
16.940000	25.200766
16.950000	25.200766
16.960000	25.200766
16.970000	25.200766
16.980000	25.200766
16.990000	25.200766
17.000000	25.185833
17.010000	25.185833
17.020000	25.185833
17.030000	25.185833
17.040000	25.185833
17.050000	25.185833
17.060000	25.185833
17.070000	25.185833
17.080000	25.185833
17.090000	25.185833
17.100000	25.185833
17.110000	25.185833
17.120000	25.185833
17.130000	25.185833
17.140000	25.185833
17.150000	25.185833
17.160000	25.185833
17.170000	25.185833
17.180000	25.185833
17.190000	25.185833
17.200000	25.185833
17.210000	25.185833
17.220000	25.185833
17.230000	25.185833
17.240000	25.185833
17.250000	25.185833
17.260000	25.185833
17.270000	25.185833
17.280000	25.185833
17.290000	25.185833
17.300000	25.185833
17.310000	25.185833
17.320000	25.185833
17.330000	25.185833
17.340000	25.185833
17.350000	25.185833
17.360000	25.185833
17.370000	25.185833
17.380000	25.185833
17.390000	25.185833
17.400000	25.185833
17.410000	25.185833
17.420000	25.185833
17.430000	25.185833
17.440000	25.185833
17.450000	25.185833
17.460000	25.185833
17.470000	25.185833
17.480000	25.185833
17.490000	25.185833
