LabVIEW Measurement	
Writer_Version	2
Reader_Version	2
Separator	Tab
Decimal_Separator	.
Multi_Headings	No
X_Columns	One
Time_Pref	Absolute
Operator	biomech-dyno
Date	2023/04/27
Time	17:41:55.9338632999999876419
***End_of_Header***	
	
Channels	1	
Samples	10	
Date	2023/04/27	
Time	18:52:35.1515444999998749278	
X_Dimension	Time	
X0	0.0000000000000000E+0	
Delta_X	0.010000	
***End_of_Header***		
X_Value	Untitled	Comment
0.000000	24.744028
0.010000	24.744028
0.020000	24.744028
0.030000	24.744028
0.040000	24.744028
0.050000	24.744028
0.060000	24.744028
0.070000	24.744028
0.080000	24.744028
0.090000	24.744028
0.100000	24.744028
0.110000	24.744028
0.120000	24.744028
0.130000	24.744028
0.140000	24.744028
0.150000	24.744028
0.160000	24.744028
0.170000	24.744028
0.180000	24.744028
0.190000	24.744028
0.200000	24.744028
0.210000	24.744028
0.220000	24.744028
0.230000	24.744028
0.240000	24.744028
0.250000	24.744028
0.260000	24.744028
0.270000	24.744028
0.280000	24.744028
0.290000	24.744028
0.300000	24.744028
0.310000	24.744028
0.320000	24.744028
0.330000	24.744028
0.340000	24.744028
0.350000	24.744028
0.360000	24.744028
0.370000	24.744028
0.380000	24.744028
0.390000	24.744028
0.400000	24.744028
0.410000	24.744028
0.420000	24.744028
0.430000	24.744028
0.440000	24.744028
0.450000	24.744028
0.460000	24.744028
0.470000	24.744028
0.480000	24.744028
0.490000	24.744028
0.500000	24.748035
0.510000	24.748035
0.520000	24.748035
0.530000	24.748035
0.540000	24.748035
0.550000	24.748035
0.560000	24.748035
0.570000	24.748035
0.580000	24.748035
0.590000	24.748035
0.600000	24.748035
0.610000	24.748035
0.620000	24.748035
0.630000	24.748035
0.640000	24.748035
0.650000	24.748035
0.660000	24.748035
0.670000	24.748035
0.680000	24.748035
0.690000	24.748035
0.700000	24.748035
0.710000	24.748035
0.720000	24.748035
0.730000	24.748035
0.740000	24.748035
0.750000	24.748035
0.760000	24.748035
0.770000	24.748035
0.780000	24.748035
0.790000	24.748035
0.800000	24.748035
0.810000	24.748035
0.820000	24.748035
0.830000	24.748035
0.840000	24.748035
0.850000	24.748035
0.860000	24.748035
0.870000	24.748035
0.880000	24.748035
0.890000	24.748035
0.900000	24.748035
0.910000	24.748035
0.920000	24.748035
0.930000	24.748035
0.940000	24.748035
0.950000	24.748035
0.960000	24.748035
0.970000	24.748035
0.980000	24.748035
0.990000	24.748035
1.000000	24.757244
1.010000	24.757244
1.020000	24.757244
1.030000	24.757244
1.040000	24.757244
1.050000	24.757244
1.060000	24.757244
1.070000	24.757244
1.080000	24.757244
1.090000	24.757244
1.100000	24.757244
1.110000	24.757244
1.120000	24.757244
1.130000	24.757244
1.140000	24.757244
1.150000	24.757244
1.160000	24.757244
1.170000	24.757244
1.180000	24.757244
1.190000	24.757244
1.200000	24.757244
1.210000	24.757244
1.220000	24.757244
1.230000	24.757244
1.240000	24.757244
1.250000	24.757244
1.260000	24.757244
1.270000	24.757244
1.280000	24.757244
1.290000	24.757244
1.300000	24.757244
1.310000	24.757244
1.320000	24.757244
1.330000	24.757244
1.340000	24.757244
1.350000	24.757244
1.360000	24.757244
1.370000	24.757244
1.380000	24.757244
1.390000	24.757244
1.400000	24.757244
1.410000	24.757244
1.420000	24.757244
1.430000	24.757244
1.440000	24.757244
1.450000	24.757244
1.460000	24.757244
1.470000	24.757244
1.480000	24.757244
1.490000	24.757244
1.500000	24.775170
1.510000	24.775170
1.520000	24.775170
1.530000	24.775170
1.540000	24.775170
1.550000	24.775170
1.560000	24.775170
1.570000	24.775170
1.580000	24.775170
1.590000	24.775170
1.600000	24.775170
1.610000	24.775170
1.620000	24.775170
1.630000	24.775170
1.640000	24.775170
1.650000	24.775170
1.660000	24.775170
1.670000	24.775170
1.680000	24.775170
1.690000	24.775170
1.700000	24.775170
1.710000	24.775170
1.720000	24.775170
1.730000	24.775170
1.740000	24.775170
1.750000	24.775170
1.760000	24.775170
1.770000	24.775170
1.780000	24.775170
1.790000	24.775170
1.800000	24.775170
1.810000	24.775170
1.820000	24.775170
1.830000	24.775170
1.840000	24.775170
1.850000	24.775170
1.860000	24.775170
1.870000	24.775170
1.880000	24.775170
1.890000	24.775170
1.900000	24.775170
1.910000	24.775170
1.920000	24.775170
1.930000	24.775170
1.940000	24.775170
1.950000	24.775170
1.960000	24.775170
1.970000	24.775170
1.980000	24.775170
1.990000	24.775170
2.000000	24.801450
2.010000	24.801450
2.020000	24.801450
2.030000	24.801450
2.040000	24.801450
2.050000	24.801450
2.060000	24.801450
2.070000	24.801450
2.080000	24.801450
2.090000	24.801450
2.100000	24.801450
2.110000	24.801450
2.120000	24.801450
2.130000	24.801450
2.140000	24.801450
2.150000	24.801450
2.160000	24.801450
2.170000	24.801450
2.180000	24.801450
2.190000	24.801450
2.200000	24.801450
2.210000	24.801450
2.220000	24.801450
2.230000	24.801450
2.240000	24.801450
2.250000	24.801450
2.260000	24.801450
2.270000	24.801450
2.280000	24.801450
2.290000	24.801450
2.300000	24.801450
2.310000	24.801450
2.320000	24.801450
2.330000	24.801450
2.340000	24.801450
2.350000	24.801450
2.360000	24.801450
2.370000	24.801450
2.380000	24.801450
2.390000	24.801450
2.400000	24.801450
2.410000	24.801450
2.420000	24.801450
2.430000	24.801450
2.440000	24.801450
2.450000	24.801450
2.460000	24.801450
2.470000	24.801450
2.480000	24.801450
2.490000	24.801450
2.500000	24.833281
2.510000	24.833281
2.520000	24.833281
2.530000	24.833281
2.540000	24.833281
2.550000	24.833281
2.560000	24.833281
2.570000	24.833281
2.580000	24.833281
2.590000	24.833281
2.600000	24.833281
2.610000	24.833281
2.620000	24.833281
2.630000	24.833281
2.640000	24.833281
2.650000	24.833281
2.660000	24.833281
2.670000	24.833281
2.680000	24.833281
2.690000	24.833281
2.700000	24.833281
2.710000	24.833281
2.720000	24.833281
2.730000	24.833281
2.740000	24.833281
2.750000	24.833281
2.760000	24.833281
2.770000	24.833281
2.780000	24.833281
2.790000	24.833281
2.800000	24.833281
2.810000	24.833281
2.820000	24.833281
2.830000	24.833281
2.840000	24.833281
2.850000	24.833281
2.860000	24.833281
2.870000	24.833281
2.880000	24.833281
2.890000	24.833281
2.900000	24.833281
2.910000	24.833281
2.920000	24.833281
2.930000	24.833281
2.940000	24.833281
2.950000	24.833281
2.960000	24.833281
2.970000	24.833281
2.980000	24.833281
2.990000	24.833281
3.000000	24.870005
3.010000	24.870005
3.020000	24.870005
3.030000	24.870005
3.040000	24.870005
3.050000	24.870005
3.060000	24.870005
3.070000	24.870005
3.080000	24.870005
3.090000	24.870005
3.100000	24.870005
3.110000	24.870005
3.120000	24.870005
3.130000	24.870005
3.140000	24.870005
3.150000	24.870005
3.160000	24.870005
3.170000	24.870005
3.180000	24.870005
3.190000	24.870005
3.200000	24.870005
3.210000	24.870005
3.220000	24.870005
3.230000	24.870005
3.240000	24.870005
3.250000	24.870005
3.260000	24.870005
3.270000	24.870005
3.280000	24.870005
3.290000	24.870005
3.300000	24.870005
3.310000	24.870005
3.320000	24.870005
3.330000	24.870005
3.340000	24.870005
3.350000	24.870005
3.360000	24.870005
3.370000	24.870005
3.380000	24.870005
3.390000	24.870005
3.400000	24.870005
3.410000	24.870005
3.420000	24.870005
3.430000	24.870005
3.440000	24.870005
3.450000	24.870005
3.460000	24.870005
3.470000	24.870005
3.480000	24.870005
3.490000	24.870005
3.500000	24.899059
3.510000	24.899059
3.520000	24.899059
3.530000	24.899059
3.540000	24.899059
3.550000	24.899059
3.560000	24.899059
3.570000	24.899059
3.580000	24.899059
3.590000	24.899059
3.600000	24.899059
3.610000	24.899059
3.620000	24.899059
3.630000	24.899059
3.640000	24.899059
3.650000	24.899059
3.660000	24.899059
3.670000	24.899059
3.680000	24.899059
3.690000	24.899059
3.700000	24.899059
3.710000	24.899059
3.720000	24.899059
3.730000	24.899059
3.740000	24.899059
3.750000	24.899059
3.760000	24.899059
3.770000	24.899059
3.780000	24.899059
3.790000	24.899059
3.800000	24.899059
3.810000	24.899059
3.820000	24.899059
3.830000	24.899059
3.840000	24.899059
3.850000	24.899059
3.860000	24.899059
3.870000	24.899059
3.880000	24.899059
3.890000	24.899059
3.900000	24.899059
3.910000	24.899059
3.920000	24.899059
3.930000	24.899059
3.940000	24.899059
3.950000	24.899059
3.960000	24.899059
3.970000	24.899059
3.980000	24.899059
3.990000	24.899059
4.000000	24.917097
4.010000	24.917097
4.020000	24.917097
4.030000	24.917097
4.040000	24.917097
4.050000	24.917097
4.060000	24.917097
4.070000	24.917097
4.080000	24.917097
4.090000	24.917097
4.100000	24.917097
4.110000	24.917097
4.120000	24.917097
4.130000	24.917097
4.140000	24.917097
4.150000	24.917097
4.160000	24.917097
4.170000	24.917097
4.180000	24.917097
4.190000	24.917097
4.200000	24.917097
4.210000	24.917097
4.220000	24.917097
4.230000	24.917097
4.240000	24.917097
4.250000	24.917097
4.260000	24.917097
4.270000	24.917097
4.280000	24.917097
4.290000	24.917097
4.300000	24.917097
4.310000	24.917097
4.320000	24.917097
4.330000	24.917097
4.340000	24.917097
4.350000	24.917097
4.360000	24.917097
4.370000	24.917097
4.380000	24.917097
4.390000	24.917097
4.400000	24.917097
4.410000	24.917097
4.420000	24.917097
4.430000	24.917097
4.440000	24.917097
4.450000	24.917097
4.460000	24.917097
4.470000	24.917097
4.480000	24.917097
4.490000	24.917097
4.500000	24.930403
4.510000	24.930403
4.520000	24.930403
4.530000	24.930403
4.540000	24.930403
4.550000	24.930403
4.560000	24.930403
4.570000	24.930403
4.580000	24.930403
4.590000	24.930403
4.600000	24.930403
4.610000	24.930403
4.620000	24.930403
4.630000	24.930403
4.640000	24.930403
4.650000	24.930403
4.660000	24.930403
4.670000	24.930403
4.680000	24.930403
4.690000	24.930403
4.700000	24.930403
4.710000	24.930403
4.720000	24.930403
4.730000	24.930403
4.740000	24.930403
4.750000	24.930403
4.760000	24.930403
4.770000	24.930403
4.780000	24.930403
4.790000	24.930403
4.800000	24.930403
4.810000	24.930403
4.820000	24.930403
4.830000	24.930403
4.840000	24.930403
4.850000	24.930403
4.860000	24.930403
4.870000	24.930403
4.880000	24.930403
4.890000	24.930403
4.900000	24.930403
4.910000	24.930403
4.920000	24.930403
4.930000	24.930403
4.940000	24.930403
4.950000	24.930403
4.960000	24.930403
4.970000	24.930403
4.980000	24.930403
4.990000	24.930403
5.000000	24.939818
5.010000	24.939818
5.020000	24.939818
5.030000	24.939818
5.040000	24.939818
5.050000	24.939818
5.060000	24.939818
5.070000	24.939818
5.080000	24.939818
5.090000	24.939818
5.100000	24.939818
5.110000	24.939818
5.120000	24.939818
5.130000	24.939818
5.140000	24.939818
5.150000	24.939818
5.160000	24.939818
5.170000	24.939818
5.180000	24.939818
5.190000	24.939818
5.200000	24.939818
5.210000	24.939818
5.220000	24.939818
5.230000	24.939818
5.240000	24.939818
5.250000	24.939818
5.260000	24.939818
5.270000	24.939818
5.280000	24.939818
5.290000	24.939818
5.300000	24.939818
5.310000	24.939818
5.320000	24.939818
5.330000	24.939818
5.340000	24.939818
5.350000	24.939818
5.360000	24.939818
5.370000	24.939818
5.380000	24.939818
5.390000	24.939818
5.400000	24.939818
5.410000	24.939818
5.420000	24.939818
5.430000	24.939818
5.440000	24.939818
5.450000	24.939818
5.460000	24.939818
5.470000	24.939818
5.480000	24.939818
5.490000	24.939818
5.500000	24.948308
5.510000	24.948308
5.520000	24.948308
5.530000	24.948308
5.540000	24.948308
5.550000	24.948308
5.560000	24.948308
5.570000	24.948308
5.580000	24.948308
5.590000	24.948308
5.600000	24.948308
5.610000	24.948308
5.620000	24.948308
5.630000	24.948308
5.640000	24.948308
5.650000	24.948308
5.660000	24.948308
5.670000	24.948308
5.680000	24.948308
5.690000	24.948308
5.700000	24.948308
5.710000	24.948308
5.720000	24.948308
5.730000	24.948308
5.740000	24.948308
5.750000	24.948308
5.760000	24.948308
5.770000	24.948308
5.780000	24.948308
5.790000	24.948308
5.800000	24.948308
5.810000	24.948308
5.820000	24.948308
5.830000	24.948308
5.840000	24.948308
5.850000	24.948308
5.860000	24.948308
5.870000	24.948308
5.880000	24.948308
5.890000	24.948308
5.900000	24.948308
5.910000	24.948308
5.920000	24.948308
5.930000	24.948308
5.940000	24.948308
5.950000	24.948308
5.960000	24.948308
5.970000	24.948308
5.980000	24.948308
5.990000	24.948308
6.000000	24.955717
6.010000	24.955717
6.020000	24.955717
6.030000	24.955717
6.040000	24.955717
6.050000	24.955717
6.060000	24.955717
6.070000	24.955717
6.080000	24.955717
6.090000	24.955717
6.100000	24.955717
6.110000	24.955717
6.120000	24.955717
6.130000	24.955717
6.140000	24.955717
6.150000	24.955717
6.160000	24.955717
6.170000	24.955717
6.180000	24.955717
6.190000	24.955717
6.200000	24.955717
6.210000	24.955717
6.220000	24.955717
6.230000	24.955717
6.240000	24.955717
6.250000	24.955717
6.260000	24.955717
6.270000	24.955717
6.280000	24.955717
6.290000	24.955717
6.300000	24.955717
6.310000	24.955717
6.320000	24.955717
6.330000	24.955717
6.340000	24.955717
6.350000	24.955717
6.360000	24.955717
6.370000	24.955717
6.380000	24.955717
6.390000	24.955717
6.400000	24.955717
6.410000	24.955717
6.420000	24.955717
6.430000	24.955717
6.440000	24.955717
6.450000	24.955717
6.460000	24.955717
6.470000	24.955717
6.480000	24.955717
6.490000	24.955717
6.500000	24.960595
6.510000	24.960595
6.520000	24.960595
6.530000	24.960595
6.540000	24.960595
6.550000	24.960595
6.560000	24.960595
6.570000	24.960595
6.580000	24.960595
6.590000	24.960595
6.600000	24.960595
6.610000	24.960595
6.620000	24.960595
6.630000	24.960595
6.640000	24.960595
6.650000	24.960595
6.660000	24.960595
6.670000	24.960595
6.680000	24.960595
6.690000	24.960595
6.700000	24.960595
6.710000	24.960595
6.720000	24.960595
6.730000	24.960595
6.740000	24.960595
6.750000	24.960595
6.760000	24.960595
6.770000	24.960595
6.780000	24.960595
6.790000	24.960595
6.800000	24.960595
6.810000	24.960595
6.820000	24.960595
6.830000	24.960595
6.840000	24.960595
6.850000	24.960595
6.860000	24.960595
6.870000	24.960595
6.880000	24.960595
6.890000	24.960595
6.900000	24.960595
6.910000	24.960595
6.920000	24.960595
6.930000	24.960595
6.940000	24.960595
6.950000	24.960595
6.960000	24.960595
6.970000	24.960595
6.980000	24.960595
6.990000	24.960595
7.000000	24.964566
7.010000	24.964566
7.020000	24.964566
7.030000	24.964566
7.040000	24.964566
7.050000	24.964566
7.060000	24.964566
7.070000	24.964566
7.080000	24.964566
7.090000	24.964566
7.100000	24.964566
7.110000	24.964566
7.120000	24.964566
7.130000	24.964566
7.140000	24.964566
7.150000	24.964566
7.160000	24.964566
7.170000	24.964566
7.180000	24.964566
7.190000	24.964566
7.200000	24.964566
7.210000	24.964566
7.220000	24.964566
7.230000	24.964566
7.240000	24.964566
7.250000	24.964566
7.260000	24.964566
7.270000	24.964566
7.280000	24.964566
7.290000	24.964566
7.300000	24.964566
7.310000	24.964566
7.320000	24.964566
7.330000	24.964566
7.340000	24.964566
7.350000	24.964566
7.360000	24.964566
7.370000	24.964566
7.380000	24.964566
7.390000	24.964566
7.400000	24.964566
7.410000	24.964566
7.420000	24.964566
7.430000	24.964566
7.440000	24.964566
7.450000	24.964566
7.460000	24.964566
7.470000	24.964566
7.480000	24.964566
7.490000	24.964566
7.500000	24.967596
7.510000	24.967596
7.520000	24.967596
7.530000	24.967596
7.540000	24.967596
7.550000	24.967596
7.560000	24.967596
7.570000	24.967596
7.580000	24.967596
7.590000	24.967596
7.600000	24.967596
7.610000	24.967596
7.620000	24.967596
7.630000	24.967596
7.640000	24.967596
7.650000	24.967596
7.660000	24.967596
7.670000	24.967596
7.680000	24.967596
7.690000	24.967596
7.700000	24.967596
7.710000	24.967596
7.720000	24.967596
7.730000	24.967596
7.740000	24.967596
7.750000	24.967596
7.760000	24.967596
7.770000	24.967596
7.780000	24.967596
7.790000	24.967596
7.800000	24.967596
7.810000	24.967596
7.820000	24.967596
7.830000	24.967596
7.840000	24.967596
7.850000	24.967596
7.860000	24.967596
7.870000	24.967596
7.880000	24.967596
7.890000	24.967596
7.900000	24.967596
7.910000	24.967596
7.920000	24.967596
7.930000	24.967596
7.940000	24.967596
7.950000	24.967596
7.960000	24.967596
7.970000	24.967596
7.980000	24.967596
7.990000	24.967596
8.000000	24.968995
8.010000	24.968995
8.020000	24.968995
8.030000	24.968995
8.040000	24.968995
8.050000	24.968995
8.060000	24.968995
8.070000	24.968995
8.080000	24.968995
8.090000	24.968995
8.100000	24.968995
8.110000	24.968995
8.120000	24.968995
8.130000	24.968995
8.140000	24.968995
8.150000	24.968995
8.160000	24.968995
8.170000	24.968995
8.180000	24.968995
8.190000	24.968995
8.200000	24.968995
8.210000	24.968995
8.220000	24.968995
8.230000	24.968995
8.240000	24.968995
8.250000	24.968995
8.260000	24.968995
8.270000	24.968995
8.280000	24.968995
8.290000	24.968995
8.300000	24.968995
8.310000	24.968995
8.320000	24.968995
8.330000	24.968995
8.340000	24.968995
8.350000	24.968995
8.360000	24.968995
8.370000	24.968995
8.380000	24.968995
8.390000	24.968995
8.400000	24.968995
8.410000	24.968995
8.420000	24.968995
8.430000	24.968995
8.440000	24.968995
8.450000	24.968995
8.460000	24.968995
8.470000	24.968995
8.480000	24.968995
8.490000	24.968995
8.500000	24.969590
8.510000	24.969590
8.520000	24.969590
8.530000	24.969590
8.540000	24.969590
8.550000	24.969590
8.560000	24.969590
8.570000	24.969590
8.580000	24.969590
8.590000	24.969590
8.600000	24.969590
8.610000	24.969590
8.620000	24.969590
8.630000	24.969590
8.640000	24.969590
8.650000	24.969590
8.660000	24.969590
8.670000	24.969590
8.680000	24.969590
8.690000	24.969590
8.700000	24.969590
8.710000	24.969590
8.720000	24.969590
8.730000	24.969590
8.740000	24.969590
8.750000	24.969590
8.760000	24.969590
8.770000	24.969590
8.780000	24.969590
8.790000	24.969590
8.800000	24.969590
8.810000	24.969590
8.820000	24.969590
8.830000	24.969590
8.840000	24.969590
8.850000	24.969590
8.860000	24.969590
8.870000	24.969590
8.880000	24.969590
8.890000	24.969590
8.900000	24.969590
8.910000	24.969590
8.920000	24.969590
8.930000	24.969590
8.940000	24.969590
8.950000	24.969590
8.960000	24.969590
8.970000	24.969590
8.980000	24.969590
8.990000	24.969590
9.000000	24.968882
9.010000	24.968882
9.020000	24.968882
9.030000	24.968882
9.040000	24.968882
9.050000	24.968882
9.060000	24.968882
9.070000	24.968882
9.080000	24.968882
9.090000	24.968882
9.100000	24.968882
9.110000	24.968882
9.120000	24.968882
9.130000	24.968882
9.140000	24.968882
9.150000	24.968882
9.160000	24.968882
9.170000	24.968882
9.180000	24.968882
9.190000	24.968882
9.200000	24.968882
9.210000	24.968882
9.220000	24.968882
9.230000	24.968882
9.240000	24.968882
9.250000	24.968882
9.260000	24.968882
9.270000	24.968882
9.280000	24.968882
9.290000	24.968882
9.300000	24.968882
9.310000	24.968882
9.320000	24.968882
9.330000	24.968882
9.340000	24.968882
9.350000	24.968882
9.360000	24.968882
9.370000	24.968882
9.380000	24.968882
9.390000	24.968882
9.400000	24.968882
9.410000	24.968882
9.420000	24.968882
9.430000	24.968882
9.440000	24.968882
9.450000	24.968882
9.460000	24.968882
9.470000	24.968882
9.480000	24.968882
9.490000	24.968882
9.500000	24.967588
9.510000	24.967588
9.520000	24.967588
9.530000	24.967588
9.540000	24.967588
9.550000	24.967588
9.560000	24.967588
9.570000	24.967588
9.580000	24.967588
9.590000	24.967588
9.600000	24.967588
9.610000	24.967588
9.620000	24.967588
9.630000	24.967588
9.640000	24.967588
9.650000	24.967588
9.660000	24.967588
9.670000	24.967588
9.680000	24.967588
9.690000	24.967588
9.700000	24.967588
9.710000	24.967588
9.720000	24.967588
9.730000	24.967588
9.740000	24.967588
9.750000	24.967588
9.760000	24.967588
9.770000	24.967588
9.780000	24.967588
9.790000	24.967588
9.800000	24.967588
9.810000	24.967588
9.820000	24.967588
9.830000	24.967588
9.840000	24.967588
9.850000	24.967588
9.860000	24.967588
9.870000	24.967588
9.880000	24.967588
9.890000	24.967588
9.900000	24.967588
9.910000	24.967588
9.920000	24.967588
9.930000	24.967588
9.940000	24.967588
9.950000	24.967588
9.960000	24.967588
9.970000	24.967588
9.980000	24.967588
9.990000	24.967588
10.000000	24.965904
10.010000	24.965904
10.020000	24.965904
10.030000	24.965904
10.040000	24.965904
10.050000	24.965904
10.060000	24.965904
10.070000	24.965904
10.080000	24.965904
10.090000	24.965904
10.100000	24.965904
10.110000	24.965904
10.120000	24.965904
10.130000	24.965904
10.140000	24.965904
10.150000	24.965904
10.160000	24.965904
10.170000	24.965904
10.180000	24.965904
10.190000	24.965904
10.200000	24.965904
10.210000	24.965904
10.220000	24.965904
10.230000	24.965904
10.240000	24.965904
10.250000	24.965904
10.260000	24.965904
10.270000	24.965904
10.280000	24.965904
10.290000	24.965904
10.300000	24.965904
10.310000	24.965904
10.320000	24.965904
10.330000	24.965904
10.340000	24.965904
10.350000	24.965904
10.360000	24.965904
10.370000	24.965904
10.380000	24.965904
10.390000	24.965904
10.400000	24.965904
10.410000	24.965904
10.420000	24.965904
10.430000	24.965904
10.440000	24.965904
10.450000	24.965904
10.460000	24.965904
10.470000	24.965904
10.480000	24.965904
10.490000	24.965904
10.500000	24.963124
10.510000	24.963124
10.520000	24.963124
10.530000	24.963124
10.540000	24.963124
10.550000	24.963124
10.560000	24.963124
10.570000	24.963124
10.580000	24.963124
10.590000	24.963124
10.600000	24.963124
10.610000	24.963124
10.620000	24.963124
10.630000	24.963124
10.640000	24.963124
10.650000	24.963124
10.660000	24.963124
10.670000	24.963124
10.680000	24.963124
10.690000	24.963124
10.700000	24.963124
10.710000	24.963124
10.720000	24.963124
10.730000	24.963124
10.740000	24.963124
10.750000	24.963124
10.760000	24.963124
10.770000	24.963124
10.780000	24.963124
10.790000	24.963124
10.800000	24.963124
10.810000	24.963124
10.820000	24.963124
10.830000	24.963124
10.840000	24.963124
10.850000	24.963124
10.860000	24.963124
10.870000	24.963124
10.880000	24.963124
10.890000	24.963124
10.900000	24.963124
10.910000	24.963124
10.920000	24.963124
10.930000	24.963124
10.940000	24.963124
10.950000	24.963124
10.960000	24.963124
10.970000	24.963124
10.980000	24.963124
10.990000	24.963124
11.000000	24.959904
11.010000	24.959904
11.020000	24.959904
11.030000	24.959904
11.040000	24.959904
11.050000	24.959904
11.060000	24.959904
11.070000	24.959904
11.080000	24.959904
11.090000	24.959904
11.100000	24.959904
11.110000	24.959904
11.120000	24.959904
11.130000	24.959904
11.140000	24.959904
11.150000	24.959904
11.160000	24.959904
11.170000	24.959904
11.180000	24.959904
11.190000	24.959904
11.200000	24.959904
11.210000	24.959904
11.220000	24.959904
11.230000	24.959904
11.240000	24.959904
11.250000	24.959904
11.260000	24.959904
11.270000	24.959904
11.280000	24.959904
11.290000	24.959904
11.300000	24.959904
11.310000	24.959904
11.320000	24.959904
11.330000	24.959904
11.340000	24.959904
11.350000	24.959904
11.360000	24.959904
11.370000	24.959904
11.380000	24.959904
11.390000	24.959904
11.400000	24.959904
11.410000	24.959904
11.420000	24.959904
11.430000	24.959904
11.440000	24.959904
11.450000	24.959904
11.460000	24.959904
11.470000	24.959904
11.480000	24.959904
11.490000	24.959904
11.500000	24.956330
11.510000	24.956330
11.520000	24.956330
11.530000	24.956330
11.540000	24.956330
11.550000	24.956330
11.560000	24.956330
11.570000	24.956330
11.580000	24.956330
11.590000	24.956330
11.600000	24.956330
11.610000	24.956330
11.620000	24.956330
11.630000	24.956330
11.640000	24.956330
11.650000	24.956330
11.660000	24.956330
11.670000	24.956330
11.680000	24.956330
11.690000	24.956330
11.700000	24.956330
11.710000	24.956330
11.720000	24.956330
11.730000	24.956330
11.740000	24.956330
11.750000	24.956330
11.760000	24.956330
11.770000	24.956330
11.780000	24.956330
11.790000	24.956330
11.800000	24.956330
11.810000	24.956330
11.820000	24.956330
11.830000	24.956330
11.840000	24.956330
11.850000	24.956330
11.860000	24.956330
11.870000	24.956330
11.880000	24.956330
11.890000	24.956330
11.900000	24.956330
11.910000	24.956330
11.920000	24.956330
11.930000	24.956330
11.940000	24.956330
11.950000	24.956330
11.960000	24.956330
11.970000	24.956330
11.980000	24.956330
11.990000	24.956330
12.000000	24.952082
12.010000	24.952082
12.020000	24.952082
12.030000	24.952082
12.040000	24.952082
12.050000	24.952082
12.060000	24.952082
12.070000	24.952082
12.080000	24.952082
12.090000	24.952082
12.100000	24.952082
12.110000	24.952082
12.120000	24.952082
12.130000	24.952082
12.140000	24.952082
12.150000	24.952082
12.160000	24.952082
12.170000	24.952082
12.180000	24.952082
12.190000	24.952082
12.200000	24.952082
12.210000	24.952082
12.220000	24.952082
12.230000	24.952082
12.240000	24.952082
12.250000	24.952082
12.260000	24.952082
12.270000	24.952082
12.280000	24.952082
12.290000	24.952082
12.300000	24.952082
12.310000	24.952082
12.320000	24.952082
12.330000	24.952082
12.340000	24.952082
12.350000	24.952082
12.360000	24.952082
12.370000	24.952082
12.380000	24.952082
12.390000	24.952082
12.400000	24.952082
12.410000	24.952082
12.420000	24.952082
12.430000	24.952082
12.440000	24.952082
12.450000	24.952082
12.460000	24.952082
12.470000	24.952082
12.480000	24.952082
12.490000	24.952082
12.500000	24.948092
12.510000	24.948092
12.520000	24.948092
12.530000	24.948092
12.540000	24.948092
12.550000	24.948092
12.560000	24.948092
12.570000	24.948092
12.580000	24.948092
12.590000	24.948092
12.600000	24.948092
12.610000	24.948092
12.620000	24.948092
12.630000	24.948092
12.640000	24.948092
12.650000	24.948092
12.660000	24.948092
12.670000	24.948092
12.680000	24.948092
12.690000	24.948092
12.700000	24.948092
12.710000	24.948092
12.720000	24.948092
12.730000	24.948092
12.740000	24.948092
12.750000	24.948092
12.760000	24.948092
12.770000	24.948092
12.780000	24.948092
12.790000	24.948092
12.800000	24.948092
12.810000	24.948092
12.820000	24.948092
12.830000	24.948092
12.840000	24.948092
12.850000	24.948092
12.860000	24.948092
12.870000	24.948092
12.880000	24.948092
12.890000	24.948092
12.900000	24.948092
12.910000	24.948092
12.920000	24.948092
12.930000	24.948092
12.940000	24.948092
12.950000	24.948092
12.960000	24.948092
12.970000	24.948092
12.980000	24.948092
12.990000	24.948092
13.000000	24.943662
13.010000	24.943662
13.020000	24.943662
13.030000	24.943662
13.040000	24.943662
13.050000	24.943662
13.060000	24.943662
13.070000	24.943662
13.080000	24.943662
13.090000	24.943662
13.100000	24.943662
13.110000	24.943662
13.120000	24.943662
13.130000	24.943662
13.140000	24.943662
13.150000	24.943662
13.160000	24.943662
13.170000	24.943662
13.180000	24.943662
13.190000	24.943662
13.200000	24.943662
13.210000	24.943662
13.220000	24.943662
13.230000	24.943662
13.240000	24.943662
13.250000	24.943662
13.260000	24.943662
13.270000	24.943662
13.280000	24.943662
13.290000	24.943662
13.300000	24.943662
13.310000	24.943662
13.320000	24.943662
13.330000	24.943662
13.340000	24.943662
13.350000	24.943662
13.360000	24.943662
13.370000	24.943662
13.380000	24.943662
13.390000	24.943662
13.400000	24.943662
13.410000	24.943662
13.420000	24.943662
13.430000	24.943662
13.440000	24.943662
13.450000	24.943662
13.460000	24.943662
13.470000	24.943662
13.480000	24.943662
13.490000	24.943662
13.500000	24.939473
13.510000	24.939473
13.520000	24.939473
13.530000	24.939473
13.540000	24.939473
13.550000	24.939473
13.560000	24.939473
13.570000	24.939473
13.580000	24.939473
13.590000	24.939473
13.600000	24.939473
13.610000	24.939473
13.620000	24.939473
13.630000	24.939473
13.640000	24.939473
13.650000	24.939473
13.660000	24.939473
13.670000	24.939473
13.680000	24.939473
13.690000	24.939473
13.700000	24.939473
13.710000	24.939473
13.720000	24.939473
13.730000	24.939473
13.740000	24.939473
13.750000	24.939473
13.760000	24.939473
13.770000	24.939473
13.780000	24.939473
13.790000	24.939473
13.800000	24.939473
13.810000	24.939473
13.820000	24.939473
13.830000	24.939473
13.840000	24.939473
13.850000	24.939473
13.860000	24.939473
13.870000	24.939473
13.880000	24.939473
13.890000	24.939473
13.900000	24.939473
13.910000	24.939473
13.920000	24.939473
13.930000	24.939473
13.940000	24.939473
13.950000	24.939473
13.960000	24.939473
13.970000	24.939473
13.980000	24.939473
13.990000	24.939473
14.000000	24.935024
14.010000	24.935024
14.020000	24.935024
14.030000	24.935024
14.040000	24.935024
14.050000	24.935024
14.060000	24.935024
14.070000	24.935024
14.080000	24.935024
14.090000	24.935024
14.100000	24.935024
14.110000	24.935024
14.120000	24.935024
14.130000	24.935024
14.140000	24.935024
14.150000	24.935024
14.160000	24.935024
14.170000	24.935024
14.180000	24.935024
14.190000	24.935024
14.200000	24.935024
14.210000	24.935024
14.220000	24.935024
14.230000	24.935024
14.240000	24.935024
14.250000	24.935024
14.260000	24.935024
14.270000	24.935024
14.280000	24.935024
14.290000	24.935024
14.300000	24.935024
14.310000	24.935024
14.320000	24.935024
14.330000	24.935024
14.340000	24.935024
14.350000	24.935024
14.360000	24.935024
14.370000	24.935024
14.380000	24.935024
14.390000	24.935024
14.400000	24.935024
14.410000	24.935024
14.420000	24.935024
14.430000	24.935024
14.440000	24.935024
14.450000	24.935024
14.460000	24.935024
14.470000	24.935024
14.480000	24.935024
14.490000	24.935024
14.500000	24.930204
14.510000	24.930204
14.520000	24.930204
14.530000	24.930204
14.540000	24.930204
14.550000	24.930204
14.560000	24.930204
14.570000	24.930204
14.580000	24.930204
14.590000	24.930204
14.600000	24.930204
14.610000	24.930204
14.620000	24.930204
14.630000	24.930204
14.640000	24.930204
14.650000	24.930204
14.660000	24.930204
14.670000	24.930204
14.680000	24.930204
14.690000	24.930204
14.700000	24.930204
14.710000	24.930204
14.720000	24.930204
14.730000	24.930204
14.740000	24.930204
14.750000	24.930204
14.760000	24.930204
14.770000	24.930204
14.780000	24.930204
14.790000	24.930204
14.800000	24.930204
14.810000	24.930204
14.820000	24.930204
14.830000	24.930204
14.840000	24.930204
14.850000	24.930204
14.860000	24.930204
14.870000	24.930204
14.880000	24.930204
14.890000	24.930204
14.900000	24.930204
14.910000	24.930204
14.920000	24.930204
14.930000	24.930204
14.940000	24.930204
14.950000	24.930204
14.960000	24.930204
14.970000	24.930204
14.980000	24.930204
14.990000	24.930204
15.000000	24.924796
15.010000	24.924796
15.020000	24.924796
15.030000	24.924796
15.040000	24.924796
15.050000	24.924796
15.060000	24.924796
15.070000	24.924796
15.080000	24.924796
15.090000	24.924796
15.100000	24.924796
15.110000	24.924796
15.120000	24.924796
15.130000	24.924796
15.140000	24.924796
15.150000	24.924796
15.160000	24.924796
15.170000	24.924796
15.180000	24.924796
15.190000	24.924796
15.200000	24.924796
15.210000	24.924796
15.220000	24.924796
15.230000	24.924796
15.240000	24.924796
15.250000	24.924796
15.260000	24.924796
15.270000	24.924796
15.280000	24.924796
15.290000	24.924796
15.300000	24.924796
15.310000	24.924796
15.320000	24.924796
15.330000	24.924796
15.340000	24.924796
15.350000	24.924796
15.360000	24.924796
15.370000	24.924796
15.380000	24.924796
15.390000	24.924796
15.400000	24.924796
15.410000	24.924796
15.420000	24.924796
15.430000	24.924796
15.440000	24.924796
15.450000	24.924796
15.460000	24.924796
15.470000	24.924796
15.480000	24.924796
15.490000	24.924796
15.500000	24.919992
15.510000	24.919992
15.520000	24.919992
15.530000	24.919992
15.540000	24.919992
15.550000	24.919992
15.560000	24.919992
15.570000	24.919992
15.580000	24.919992
15.590000	24.919992
15.600000	24.919992
15.610000	24.919992
15.620000	24.919992
15.630000	24.919992
15.640000	24.919992
15.650000	24.919992
15.660000	24.919992
15.670000	24.919992
15.680000	24.919992
15.690000	24.919992
15.700000	24.919992
15.710000	24.919992
15.720000	24.919992
15.730000	24.919992
15.740000	24.919992
15.750000	24.919992
15.760000	24.919992
15.770000	24.919992
15.780000	24.919992
15.790000	24.919992
15.800000	24.919992
15.810000	24.919992
15.820000	24.919992
15.830000	24.919992
15.840000	24.919992
15.850000	24.919992
15.860000	24.919992
15.870000	24.919992
15.880000	24.919992
15.890000	24.919992
15.900000	24.919992
15.910000	24.919992
15.920000	24.919992
15.930000	24.919992
15.940000	24.919992
15.950000	24.919992
15.960000	24.919992
15.970000	24.919992
15.980000	24.919992
15.990000	24.919992
16.000000	24.915040
16.010000	24.915040
16.020000	24.915040
16.030000	24.915040
16.040000	24.915040
16.050000	24.915040
16.060000	24.915040
16.070000	24.915040
16.080000	24.915040
16.090000	24.915040
16.100000	24.915040
16.110000	24.915040
16.120000	24.915040
16.130000	24.915040
16.140000	24.915040
16.150000	24.915040
16.160000	24.915040
16.170000	24.915040
16.180000	24.915040
16.190000	24.915040
16.200000	24.915040
16.210000	24.915040
16.220000	24.915040
16.230000	24.915040
16.240000	24.915040
16.250000	24.915040
16.260000	24.915040
16.270000	24.915040
16.280000	24.915040
16.290000	24.915040
16.300000	24.915040
16.310000	24.915040
16.320000	24.915040
16.330000	24.915040
16.340000	24.915040
16.350000	24.915040
16.360000	24.915040
16.370000	24.915040
16.380000	24.915040
16.390000	24.915040
16.400000	24.915040
16.410000	24.915040
16.420000	24.915040
16.430000	24.915040
16.440000	24.915040
16.450000	24.915040
16.460000	24.915040
16.470000	24.915040
16.480000	24.915040
16.490000	24.915040
16.500000	24.909267
16.510000	24.909267
16.520000	24.909267
16.530000	24.909267
16.540000	24.909267
16.550000	24.909267
16.560000	24.909267
16.570000	24.909267
16.580000	24.909267
16.590000	24.909267
16.600000	24.909267
16.610000	24.909267
16.620000	24.909267
16.630000	24.909267
16.640000	24.909267
16.650000	24.909267
16.660000	24.909267
16.670000	24.909267
16.680000	24.909267
16.690000	24.909267
16.700000	24.909267
16.710000	24.909267
16.720000	24.909267
16.730000	24.909267
16.740000	24.909267
16.750000	24.909267
16.760000	24.909267
16.770000	24.909267
16.780000	24.909267
16.790000	24.909267
16.800000	24.909267
16.810000	24.909267
16.820000	24.909267
16.830000	24.909267
16.840000	24.909267
16.850000	24.909267
16.860000	24.909267
16.870000	24.909267
16.880000	24.909267
16.890000	24.909267
16.900000	24.909267
16.910000	24.909267
16.920000	24.909267
16.930000	24.909267
16.940000	24.909267
16.950000	24.909267
16.960000	24.909267
16.970000	24.909267
16.980000	24.909267
16.990000	24.909267
17.000000	24.903407
17.010000	24.903407
17.020000	24.903407
17.030000	24.903407
17.040000	24.903407
17.050000	24.903407
17.060000	24.903407
17.070000	24.903407
17.080000	24.903407
17.090000	24.903407
17.100000	24.903407
17.110000	24.903407
17.120000	24.903407
17.130000	24.903407
17.140000	24.903407
17.150000	24.903407
17.160000	24.903407
17.170000	24.903407
17.180000	24.903407
17.190000	24.903407
17.200000	24.903407
17.210000	24.903407
17.220000	24.903407
17.230000	24.903407
17.240000	24.903407
17.250000	24.903407
17.260000	24.903407
17.270000	24.903407
17.280000	24.903407
17.290000	24.903407
17.300000	24.903407
17.310000	24.903407
17.320000	24.903407
17.330000	24.903407
17.340000	24.903407
17.350000	24.903407
17.360000	24.903407
17.370000	24.903407
17.380000	24.903407
17.390000	24.903407
17.400000	24.903407
17.410000	24.903407
17.420000	24.903407
17.430000	24.903407
17.440000	24.903407
17.450000	24.903407
17.460000	24.903407
17.470000	24.903407
17.480000	24.903407
17.490000	24.903407
