LabVIEW Measurement	
Writer_Version	2
Reader_Version	2
Separator	Tab
Decimal_Separator	.
Multi_Headings	No
X_Columns	One
Time_Pref	Absolute
Operator	biomech-dyno
Date	2023/05/01
Time	15:28:10.3296671999997826969
***End_of_Header***	
	
Channels	1	
Samples	10	
Date	2023/05/01	
Time	15:37:01.5156228999996864101	
X_Dimension	Time	
X0	0.0000000000000000E+0	
Delta_X	0.010000	
***End_of_Header***		
X_Value	Untitled	Comment
0.000000	24.035554
0.010000	24.035554
0.020000	24.035554
0.030000	24.035554
0.040000	24.035554
0.050000	24.035554
0.060000	24.035554
0.070000	24.035554
0.080000	24.035554
0.090000	24.035554
0.100000	24.035554
0.110000	24.035554
0.120000	24.035554
0.130000	24.035554
0.140000	24.035554
0.150000	24.035554
0.160000	24.035554
0.170000	24.035554
0.180000	24.035554
0.190000	24.035554
0.200000	24.035554
0.210000	24.035554
0.220000	24.035554
0.230000	24.035554
0.240000	24.035554
0.250000	24.035554
0.260000	24.035554
0.270000	24.035554
0.280000	24.035554
0.290000	24.035554
0.300000	24.035554
0.310000	24.035554
0.320000	24.035554
0.330000	24.035554
0.340000	24.035554
0.350000	24.035554
0.360000	24.035554
0.370000	24.035554
0.380000	24.035554
0.390000	24.035554
0.400000	24.035554
0.410000	24.035554
0.420000	24.035554
0.430000	24.035554
0.440000	24.035554
0.450000	24.035554
0.460000	24.035554
0.470000	24.035554
0.480000	24.035554
0.490000	24.035554
0.500000	24.037517
0.510000	24.037517
0.520000	24.037517
0.530000	24.037517
0.540000	24.037517
0.550000	24.037517
0.560000	24.037517
0.570000	24.037517
0.580000	24.037517
0.590000	24.037517
0.600000	24.037517
0.610000	24.037517
0.620000	24.037517
0.630000	24.037517
0.640000	24.037517
0.650000	24.037517
0.660000	24.037517
0.670000	24.037517
0.680000	24.037517
0.690000	24.037517
0.700000	24.037517
0.710000	24.037517
0.720000	24.037517
0.730000	24.037517
0.740000	24.037517
0.750000	24.037517
0.760000	24.037517
0.770000	24.037517
0.780000	24.037517
0.790000	24.037517
0.800000	24.037517
0.810000	24.037517
0.820000	24.037517
0.830000	24.037517
0.840000	24.037517
0.850000	24.037517
0.860000	24.037517
0.870000	24.037517
0.880000	24.037517
0.890000	24.037517
0.900000	24.037517
0.910000	24.037517
0.920000	24.037517
0.930000	24.037517
0.940000	24.037517
0.950000	24.037517
0.960000	24.037517
0.970000	24.037517
0.980000	24.037517
0.990000	24.037517
1.000000	24.041980
1.010000	24.041980
1.020000	24.041980
1.030000	24.041980
1.040000	24.041980
1.050000	24.041980
1.060000	24.041980
1.070000	24.041980
1.080000	24.041980
1.090000	24.041980
1.100000	24.041980
1.110000	24.041980
1.120000	24.041980
1.130000	24.041980
1.140000	24.041980
1.150000	24.041980
1.160000	24.041980
1.170000	24.041980
1.180000	24.041980
1.190000	24.041980
1.200000	24.041980
1.210000	24.041980
1.220000	24.041980
1.230000	24.041980
1.240000	24.041980
1.250000	24.041980
1.260000	24.041980
1.270000	24.041980
1.280000	24.041980
1.290000	24.041980
1.300000	24.041980
1.310000	24.041980
1.320000	24.041980
1.330000	24.041980
1.340000	24.041980
1.350000	24.041980
1.360000	24.041980
1.370000	24.041980
1.380000	24.041980
1.390000	24.041980
1.400000	24.041980
1.410000	24.041980
1.420000	24.041980
1.430000	24.041980
1.440000	24.041980
1.450000	24.041980
1.460000	24.041980
1.470000	24.041980
1.480000	24.041980
1.490000	24.041980
1.500000	24.048371
1.510000	24.048371
1.520000	24.048371
1.530000	24.048371
1.540000	24.048371
1.550000	24.048371
1.560000	24.048371
1.570000	24.048371
1.580000	24.048371
1.590000	24.048371
1.600000	24.048371
1.610000	24.048371
1.620000	24.048371
1.630000	24.048371
1.640000	24.048371
1.650000	24.048371
1.660000	24.048371
1.670000	24.048371
1.680000	24.048371
1.690000	24.048371
1.700000	24.048371
1.710000	24.048371
1.720000	24.048371
1.730000	24.048371
1.740000	24.048371
1.750000	24.048371
1.760000	24.048371
1.770000	24.048371
1.780000	24.048371
1.790000	24.048371
1.800000	24.048371
1.810000	24.048371
1.820000	24.048371
1.830000	24.048371
1.840000	24.048371
1.850000	24.048371
1.860000	24.048371
1.870000	24.048371
1.880000	24.048371
1.890000	24.048371
1.900000	24.048371
1.910000	24.048371
1.920000	24.048371
1.930000	24.048371
1.940000	24.048371
1.950000	24.048371
1.960000	24.048371
1.970000	24.048371
1.980000	24.048371
1.990000	24.048371
2.000000	24.056960
2.010000	24.056960
2.020000	24.056960
2.030000	24.056960
2.040000	24.056960
2.050000	24.056960
2.060000	24.056960
2.070000	24.056960
2.080000	24.056960
2.090000	24.056960
2.100000	24.056960
2.110000	24.056960
2.120000	24.056960
2.130000	24.056960
2.140000	24.056960
2.150000	24.056960
2.160000	24.056960
2.170000	24.056960
2.180000	24.056960
2.190000	24.056960
2.200000	24.056960
2.210000	24.056960
2.220000	24.056960
2.230000	24.056960
2.240000	24.056960
2.250000	24.056960
2.260000	24.056960
2.270000	24.056960
2.280000	24.056960
2.290000	24.056960
2.300000	24.056960
2.310000	24.056960
2.320000	24.056960
2.330000	24.056960
2.340000	24.056960
2.350000	24.056960
2.360000	24.056960
2.370000	24.056960
2.380000	24.056960
2.390000	24.056960
2.400000	24.056960
2.410000	24.056960
2.420000	24.056960
2.430000	24.056960
2.440000	24.056960
2.450000	24.056960
2.460000	24.056960
2.470000	24.056960
2.480000	24.056960
2.490000	24.056960
2.500000	24.066560
2.510000	24.066560
2.520000	24.066560
2.530000	24.066560
2.540000	24.066560
2.550000	24.066560
2.560000	24.066560
2.570000	24.066560
2.580000	24.066560
2.590000	24.066560
2.600000	24.066560
2.610000	24.066560
2.620000	24.066560
2.630000	24.066560
2.640000	24.066560
2.650000	24.066560
2.660000	24.066560
2.670000	24.066560
2.680000	24.066560
2.690000	24.066560
2.700000	24.066560
2.710000	24.066560
2.720000	24.066560
2.730000	24.066560
2.740000	24.066560
2.750000	24.066560
2.760000	24.066560
2.770000	24.066560
2.780000	24.066560
2.790000	24.066560
2.800000	24.066560
2.810000	24.066560
2.820000	24.066560
2.830000	24.066560
2.840000	24.066560
2.850000	24.066560
2.860000	24.066560
2.870000	24.066560
2.880000	24.066560
2.890000	24.066560
2.900000	24.066560
2.910000	24.066560
2.920000	24.066560
2.930000	24.066560
2.940000	24.066560
2.950000	24.066560
2.960000	24.066560
2.970000	24.066560
2.980000	24.066560
2.990000	24.066560
3.000000	24.078163
3.010000	24.078163
3.020000	24.078163
3.030000	24.078163
3.040000	24.078163
3.050000	24.078163
3.060000	24.078163
3.070000	24.078163
3.080000	24.078163
3.090000	24.078163
3.100000	24.078163
3.110000	24.078163
3.120000	24.078163
3.130000	24.078163
3.140000	24.078163
3.150000	24.078163
3.160000	24.078163
3.170000	24.078163
3.180000	24.078163
3.190000	24.078163
3.200000	24.078163
3.210000	24.078163
3.220000	24.078163
3.230000	24.078163
3.240000	24.078163
3.250000	24.078163
3.260000	24.078163
3.270000	24.078163
3.280000	24.078163
3.290000	24.078163
3.300000	24.078163
3.310000	24.078163
3.320000	24.078163
3.330000	24.078163
3.340000	24.078163
3.350000	24.078163
3.360000	24.078163
3.370000	24.078163
3.380000	24.078163
3.390000	24.078163
3.400000	24.078163
3.410000	24.078163
3.420000	24.078163
3.430000	24.078163
3.440000	24.078163
3.450000	24.078163
3.460000	24.078163
3.470000	24.078163
3.480000	24.078163
3.490000	24.078163
3.500000	24.088778
3.510000	24.088778
3.520000	24.088778
3.530000	24.088778
3.540000	24.088778
3.550000	24.088778
3.560000	24.088778
3.570000	24.088778
3.580000	24.088778
3.590000	24.088778
3.600000	24.088778
3.610000	24.088778
3.620000	24.088778
3.630000	24.088778
3.640000	24.088778
3.650000	24.088778
3.660000	24.088778
3.670000	24.088778
3.680000	24.088778
3.690000	24.088778
3.700000	24.088778
3.710000	24.088778
3.720000	24.088778
3.730000	24.088778
3.740000	24.088778
3.750000	24.088778
3.760000	24.088778
3.770000	24.088778
3.780000	24.088778
3.790000	24.088778
3.800000	24.088778
3.810000	24.088778
3.820000	24.088778
3.830000	24.088778
3.840000	24.088778
3.850000	24.088778
3.860000	24.088778
3.870000	24.088778
3.880000	24.088778
3.890000	24.088778
3.900000	24.088778
3.910000	24.088778
3.920000	24.088778
3.930000	24.088778
3.940000	24.088778
3.950000	24.088778
3.960000	24.088778
3.970000	24.088778
3.980000	24.088778
3.990000	24.088778
4.000000	24.099180
4.010000	24.099180
4.020000	24.099180
4.030000	24.099180
4.040000	24.099180
4.050000	24.099180
4.060000	24.099180
4.070000	24.099180
4.080000	24.099180
4.090000	24.099180
4.100000	24.099180
4.110000	24.099180
4.120000	24.099180
4.130000	24.099180
4.140000	24.099180
4.150000	24.099180
4.160000	24.099180
4.170000	24.099180
4.180000	24.099180
4.190000	24.099180
4.200000	24.099180
4.210000	24.099180
4.220000	24.099180
4.230000	24.099180
4.240000	24.099180
4.250000	24.099180
4.260000	24.099180
4.270000	24.099180
4.280000	24.099180
4.290000	24.099180
4.300000	24.099180
4.310000	24.099180
4.320000	24.099180
4.330000	24.099180
4.340000	24.099180
4.350000	24.099180
4.360000	24.099180
4.370000	24.099180
4.380000	24.099180
4.390000	24.099180
4.400000	24.099180
4.410000	24.099180
4.420000	24.099180
4.430000	24.099180
4.440000	24.099180
4.450000	24.099180
4.460000	24.099180
4.470000	24.099180
4.480000	24.099180
4.490000	24.099180
4.500000	24.107954
4.510000	24.107954
4.520000	24.107954
4.530000	24.107954
4.540000	24.107954
4.550000	24.107954
4.560000	24.107954
4.570000	24.107954
4.580000	24.107954
4.590000	24.107954
4.600000	24.107954
4.610000	24.107954
4.620000	24.107954
4.630000	24.107954
4.640000	24.107954
4.650000	24.107954
4.660000	24.107954
4.670000	24.107954
4.680000	24.107954
4.690000	24.107954
4.700000	24.107954
4.710000	24.107954
4.720000	24.107954
4.730000	24.107954
4.740000	24.107954
4.750000	24.107954
4.760000	24.107954
4.770000	24.107954
4.780000	24.107954
4.790000	24.107954
4.800000	24.107954
4.810000	24.107954
4.820000	24.107954
4.830000	24.107954
4.840000	24.107954
4.850000	24.107954
4.860000	24.107954
4.870000	24.107954
4.880000	24.107954
4.890000	24.107954
4.900000	24.107954
4.910000	24.107954
4.920000	24.107954
4.930000	24.107954
4.940000	24.107954
4.950000	24.107954
4.960000	24.107954
4.970000	24.107954
4.980000	24.107954
4.990000	24.107954
5.000000	24.115363
5.010000	24.115363
5.020000	24.115363
5.030000	24.115363
5.040000	24.115363
5.050000	24.115363
5.060000	24.115363
5.070000	24.115363
5.080000	24.115363
5.090000	24.115363
5.100000	24.115363
5.110000	24.115363
5.120000	24.115363
5.130000	24.115363
5.140000	24.115363
5.150000	24.115363
5.160000	24.115363
5.170000	24.115363
5.180000	24.115363
5.190000	24.115363
5.200000	24.115363
5.210000	24.115363
5.220000	24.115363
5.230000	24.115363
5.240000	24.115363
5.250000	24.115363
5.260000	24.115363
5.270000	24.115363
5.280000	24.115363
5.290000	24.115363
5.300000	24.115363
5.310000	24.115363
5.320000	24.115363
5.330000	24.115363
5.340000	24.115363
5.350000	24.115363
5.360000	24.115363
5.370000	24.115363
5.380000	24.115363
5.390000	24.115363
5.400000	24.115363
5.410000	24.115363
5.420000	24.115363
5.430000	24.115363
5.440000	24.115363
5.450000	24.115363
5.460000	24.115363
5.470000	24.115363
5.480000	24.115363
5.490000	24.115363
5.500000	24.121085
5.510000	24.121085
5.520000	24.121085
5.530000	24.121085
5.540000	24.121085
5.550000	24.121085
5.560000	24.121085
5.570000	24.121085
5.580000	24.121085
5.590000	24.121085
5.600000	24.121085
5.610000	24.121085
5.620000	24.121085
5.630000	24.121085
5.640000	24.121085
5.650000	24.121085
5.660000	24.121085
5.670000	24.121085
5.680000	24.121085
5.690000	24.121085
5.700000	24.121085
5.710000	24.121085
5.720000	24.121085
5.730000	24.121085
5.740000	24.121085
5.750000	24.121085
5.760000	24.121085
5.770000	24.121085
5.780000	24.121085
5.790000	24.121085
5.800000	24.121085
5.810000	24.121085
5.820000	24.121085
5.830000	24.121085
5.840000	24.121085
5.850000	24.121085
5.860000	24.121085
5.870000	24.121085
5.880000	24.121085
5.890000	24.121085
5.900000	24.121085
5.910000	24.121085
5.920000	24.121085
5.930000	24.121085
5.940000	24.121085
5.950000	24.121085
5.960000	24.121085
5.970000	24.121085
5.980000	24.121085
5.990000	24.121085
6.000000	24.125812
6.010000	24.125812
6.020000	24.125812
6.030000	24.125812
6.040000	24.125812
6.050000	24.125812
6.060000	24.125812
6.070000	24.125812
6.080000	24.125812
6.090000	24.125812
6.100000	24.125812
6.110000	24.125812
6.120000	24.125812
6.130000	24.125812
6.140000	24.125812
6.150000	24.125812
6.160000	24.125812
6.170000	24.125812
6.180000	24.125812
6.190000	24.125812
6.200000	24.125812
6.210000	24.125812
6.220000	24.125812
6.230000	24.125812
6.240000	24.125812
6.250000	24.125812
6.260000	24.125812
6.270000	24.125812
6.280000	24.125812
6.290000	24.125812
6.300000	24.125812
6.310000	24.125812
6.320000	24.125812
6.330000	24.125812
6.340000	24.125812
6.350000	24.125812
6.360000	24.125812
6.370000	24.125812
6.380000	24.125812
6.390000	24.125812
6.400000	24.125812
6.410000	24.125812
6.420000	24.125812
6.430000	24.125812
6.440000	24.125812
6.450000	24.125812
6.460000	24.125812
6.470000	24.125812
6.480000	24.125812
6.490000	24.125812
6.500000	24.130109
6.510000	24.130109
6.520000	24.130109
6.530000	24.130109
6.540000	24.130109
6.550000	24.130109
6.560000	24.130109
6.570000	24.130109
6.580000	24.130109
6.590000	24.130109
6.600000	24.130109
6.610000	24.130109
6.620000	24.130109
6.630000	24.130109
6.640000	24.130109
6.650000	24.130109
6.660000	24.130109
6.670000	24.130109
6.680000	24.130109
6.690000	24.130109
6.700000	24.130109
6.710000	24.130109
6.720000	24.130109
6.730000	24.130109
6.740000	24.130109
6.750000	24.130109
6.760000	24.130109
6.770000	24.130109
6.780000	24.130109
6.790000	24.130109
6.800000	24.130109
6.810000	24.130109
6.820000	24.130109
6.830000	24.130109
6.840000	24.130109
6.850000	24.130109
6.860000	24.130109
6.870000	24.130109
6.880000	24.130109
6.890000	24.130109
6.900000	24.130109
6.910000	24.130109
6.920000	24.130109
6.930000	24.130109
6.940000	24.130109
6.950000	24.130109
6.960000	24.130109
6.970000	24.130109
6.980000	24.130109
6.990000	24.130109
7.000000	24.133500
7.010000	24.133500
7.020000	24.133500
7.030000	24.133500
7.040000	24.133500
7.050000	24.133500
7.060000	24.133500
7.070000	24.133500
7.080000	24.133500
7.090000	24.133500
7.100000	24.133500
7.110000	24.133500
7.120000	24.133500
7.130000	24.133500
7.140000	24.133500
7.150000	24.133500
7.160000	24.133500
7.170000	24.133500
7.180000	24.133500
7.190000	24.133500
7.200000	24.133500
7.210000	24.133500
7.220000	24.133500
7.230000	24.133500
7.240000	24.133500
7.250000	24.133500
7.260000	24.133500
7.270000	24.133500
7.280000	24.133500
7.290000	24.133500
7.300000	24.133500
7.310000	24.133500
7.320000	24.133500
7.330000	24.133500
7.340000	24.133500
7.350000	24.133500
7.360000	24.133500
7.370000	24.133500
7.380000	24.133500
7.390000	24.133500
7.400000	24.133500
7.410000	24.133500
7.420000	24.133500
7.430000	24.133500
7.440000	24.133500
7.450000	24.133500
7.460000	24.133500
7.470000	24.133500
7.480000	24.133500
7.490000	24.133500
7.500000	24.136065
7.510000	24.136065
7.520000	24.136065
7.530000	24.136065
7.540000	24.136065
7.550000	24.136065
7.560000	24.136065
7.570000	24.136065
7.580000	24.136065
7.590000	24.136065
7.600000	24.136065
7.610000	24.136065
7.620000	24.136065
7.630000	24.136065
7.640000	24.136065
7.650000	24.136065
7.660000	24.136065
7.670000	24.136065
7.680000	24.136065
7.690000	24.136065
7.700000	24.136065
7.710000	24.136065
7.720000	24.136065
7.730000	24.136065
7.740000	24.136065
7.750000	24.136065
7.760000	24.136065
7.770000	24.136065
7.780000	24.136065
7.790000	24.136065
7.800000	24.136065
7.810000	24.136065
7.820000	24.136065
7.830000	24.136065
7.840000	24.136065
7.850000	24.136065
7.860000	24.136065
7.870000	24.136065
7.880000	24.136065
7.890000	24.136065
7.900000	24.136065
7.910000	24.136065
7.920000	24.136065
7.930000	24.136065
7.940000	24.136065
7.950000	24.136065
7.960000	24.136065
7.970000	24.136065
7.980000	24.136065
7.990000	24.136065
8.000000	24.138367
8.010000	24.138367
8.020000	24.138367
8.030000	24.138367
8.040000	24.138367
8.050000	24.138367
8.060000	24.138367
8.070000	24.138367
8.080000	24.138367
8.090000	24.138367
8.100000	24.138367
8.110000	24.138367
8.120000	24.138367
8.130000	24.138367
8.140000	24.138367
8.150000	24.138367
8.160000	24.138367
8.170000	24.138367
8.180000	24.138367
8.190000	24.138367
8.200000	24.138367
8.210000	24.138367
8.220000	24.138367
8.230000	24.138367
8.240000	24.138367
8.250000	24.138367
8.260000	24.138367
8.270000	24.138367
8.280000	24.138367
8.290000	24.138367
8.300000	24.138367
8.310000	24.138367
8.320000	24.138367
8.330000	24.138367
8.340000	24.138367
8.350000	24.138367
8.360000	24.138367
8.370000	24.138367
8.380000	24.138367
8.390000	24.138367
8.400000	24.138367
8.410000	24.138367
8.420000	24.138367
8.430000	24.138367
8.440000	24.138367
8.450000	24.138367
8.460000	24.138367
8.470000	24.138367
8.480000	24.138367
8.490000	24.138367
8.500000	24.139939
8.510000	24.139939
8.520000	24.139939
8.530000	24.139939
8.540000	24.139939
8.550000	24.139939
8.560000	24.139939
8.570000	24.139939
8.580000	24.139939
8.590000	24.139939
8.600000	24.139939
8.610000	24.139939
8.620000	24.139939
8.630000	24.139939
8.640000	24.139939
8.650000	24.139939
8.660000	24.139939
8.670000	24.139939
8.680000	24.139939
8.690000	24.139939
8.700000	24.139939
8.710000	24.139939
8.720000	24.139939
8.730000	24.139939
8.740000	24.139939
8.750000	24.139939
8.760000	24.139939
8.770000	24.139939
8.780000	24.139939
8.790000	24.139939
8.800000	24.139939
8.810000	24.139939
8.820000	24.139939
8.830000	24.139939
8.840000	24.139939
8.850000	24.139939
8.860000	24.139939
8.870000	24.139939
8.880000	24.139939
8.890000	24.139939
8.900000	24.139939
8.910000	24.139939
8.920000	24.139939
8.930000	24.139939
8.940000	24.139939
8.950000	24.139939
8.960000	24.139939
8.970000	24.139939
8.980000	24.139939
8.990000	24.139939
9.000000	24.141547
9.010000	24.141547
9.020000	24.141547
9.030000	24.141547
9.040000	24.141547
9.050000	24.141547
9.060000	24.141547
9.070000	24.141547
9.080000	24.141547
9.090000	24.141547
9.100000	24.141547
9.110000	24.141547
9.120000	24.141547
9.130000	24.141547
9.140000	24.141547
9.150000	24.141547
9.160000	24.141547
9.170000	24.141547
9.180000	24.141547
9.190000	24.141547
9.200000	24.141547
9.210000	24.141547
9.220000	24.141547
9.230000	24.141547
9.240000	24.141547
9.250000	24.141547
9.260000	24.141547
9.270000	24.141547
9.280000	24.141547
9.290000	24.141547
9.300000	24.141547
9.310000	24.141547
9.320000	24.141547
9.330000	24.141547
9.340000	24.141547
9.350000	24.141547
9.360000	24.141547
9.370000	24.141547
9.380000	24.141547
9.390000	24.141547
9.400000	24.141547
9.410000	24.141547
9.420000	24.141547
9.430000	24.141547
9.440000	24.141547
9.450000	24.141547
9.460000	24.141547
9.470000	24.141547
9.480000	24.141547
9.490000	24.141547
9.500000	24.142320
9.510000	24.142320
9.520000	24.142320
9.530000	24.142320
9.540000	24.142320
9.550000	24.142320
9.560000	24.142320
9.570000	24.142320
9.580000	24.142320
9.590000	24.142320
9.600000	24.142320
9.610000	24.142320
9.620000	24.142320
9.630000	24.142320
9.640000	24.142320
9.650000	24.142320
9.660000	24.142320
9.670000	24.142320
9.680000	24.142320
9.690000	24.142320
9.700000	24.142320
9.710000	24.142320
9.720000	24.142320
9.730000	24.142320
9.740000	24.142320
9.750000	24.142320
9.760000	24.142320
9.770000	24.142320
9.780000	24.142320
9.790000	24.142320
9.800000	24.142320
9.810000	24.142320
9.820000	24.142320
9.830000	24.142320
9.840000	24.142320
9.850000	24.142320
9.860000	24.142320
9.870000	24.142320
9.880000	24.142320
9.890000	24.142320
9.900000	24.142320
9.910000	24.142320
9.920000	24.142320
9.930000	24.142320
9.940000	24.142320
9.950000	24.142320
9.960000	24.142320
9.970000	24.142320
9.980000	24.142320
9.990000	24.142320
10.000000	24.142996
10.010000	24.142996
10.020000	24.142996
10.030000	24.142996
10.040000	24.142996
10.050000	24.142996
10.060000	24.142996
10.070000	24.142996
10.080000	24.142996
10.090000	24.142996
10.100000	24.142996
10.110000	24.142996
10.120000	24.142996
10.130000	24.142996
10.140000	24.142996
10.150000	24.142996
10.160000	24.142996
10.170000	24.142996
10.180000	24.142996
10.190000	24.142996
10.200000	24.142996
10.210000	24.142996
10.220000	24.142996
10.230000	24.142996
10.240000	24.142996
10.250000	24.142996
10.260000	24.142996
10.270000	24.142996
10.280000	24.142996
10.290000	24.142996
10.300000	24.142996
10.310000	24.142996
10.320000	24.142996
10.330000	24.142996
10.340000	24.142996
10.350000	24.142996
10.360000	24.142996
10.370000	24.142996
10.380000	24.142996
10.390000	24.142996
10.400000	24.142996
10.410000	24.142996
10.420000	24.142996
10.430000	24.142996
10.440000	24.142996
10.450000	24.142996
10.460000	24.142996
10.470000	24.142996
10.480000	24.142996
10.490000	24.142996
10.500000	24.143067
10.510000	24.143067
10.520000	24.143067
10.530000	24.143067
10.540000	24.143067
10.550000	24.143067
10.560000	24.143067
10.570000	24.143067
10.580000	24.143067
10.590000	24.143067
10.600000	24.143067
10.610000	24.143067
10.620000	24.143067
10.630000	24.143067
10.640000	24.143067
10.650000	24.143067
10.660000	24.143067
10.670000	24.143067
10.680000	24.143067
10.690000	24.143067
10.700000	24.143067
10.710000	24.143067
10.720000	24.143067
10.730000	24.143067
10.740000	24.143067
10.750000	24.143067
10.760000	24.143067
10.770000	24.143067
10.780000	24.143067
10.790000	24.143067
10.800000	24.143067
10.810000	24.143067
10.820000	24.143067
10.830000	24.143067
10.840000	24.143067
10.850000	24.143067
10.860000	24.143067
10.870000	24.143067
10.880000	24.143067
10.890000	24.143067
10.900000	24.143067
10.910000	24.143067
10.920000	24.143067
10.930000	24.143067
10.940000	24.143067
10.950000	24.143067
10.960000	24.143067
10.970000	24.143067
10.980000	24.143067
10.990000	24.143067
11.000000	24.142926
11.010000	24.142926
11.020000	24.142926
11.030000	24.142926
11.040000	24.142926
11.050000	24.142926
11.060000	24.142926
11.070000	24.142926
11.080000	24.142926
11.090000	24.142926
11.100000	24.142926
11.110000	24.142926
11.120000	24.142926
11.130000	24.142926
11.140000	24.142926
11.150000	24.142926
11.160000	24.142926
11.170000	24.142926
11.180000	24.142926
11.190000	24.142926
11.200000	24.142926
11.210000	24.142926
11.220000	24.142926
11.230000	24.142926
11.240000	24.142926
11.250000	24.142926
11.260000	24.142926
11.270000	24.142926
11.280000	24.142926
11.290000	24.142926
11.300000	24.142926
11.310000	24.142926
11.320000	24.142926
11.330000	24.142926
11.340000	24.142926
11.350000	24.142926
11.360000	24.142926
11.370000	24.142926
11.380000	24.142926
11.390000	24.142926
11.400000	24.142926
11.410000	24.142926
11.420000	24.142926
11.430000	24.142926
11.440000	24.142926
11.450000	24.142926
11.460000	24.142926
11.470000	24.142926
11.480000	24.142926
11.490000	24.142926
11.500000	24.143392
11.510000	24.143392
11.520000	24.143392
11.530000	24.143392
11.540000	24.143392
11.550000	24.143392
11.560000	24.143392
11.570000	24.143392
11.580000	24.143392
11.590000	24.143392
11.600000	24.143392
11.610000	24.143392
11.620000	24.143392
11.630000	24.143392
11.640000	24.143392
11.650000	24.143392
11.660000	24.143392
11.670000	24.143392
11.680000	24.143392
11.690000	24.143392
11.700000	24.143392
11.710000	24.143392
11.720000	24.143392
11.730000	24.143392
11.740000	24.143392
11.750000	24.143392
11.760000	24.143392
11.770000	24.143392
11.780000	24.143392
11.790000	24.143392
11.800000	24.143392
11.810000	24.143392
11.820000	24.143392
11.830000	24.143392
11.840000	24.143392
11.850000	24.143392
11.860000	24.143392
11.870000	24.143392
11.880000	24.143392
11.890000	24.143392
11.900000	24.143392
11.910000	24.143392
11.920000	24.143392
11.930000	24.143392
11.940000	24.143392
11.950000	24.143392
11.960000	24.143392
11.970000	24.143392
11.980000	24.143392
11.990000	24.143392
12.000000	24.143312
12.010000	24.143312
12.020000	24.143312
12.030000	24.143312
12.040000	24.143312
12.050000	24.143312
12.060000	24.143312
12.070000	24.143312
12.080000	24.143312
12.090000	24.143312
12.100000	24.143312
12.110000	24.143312
12.120000	24.143312
12.130000	24.143312
12.140000	24.143312
12.150000	24.143312
12.160000	24.143312
12.170000	24.143312
12.180000	24.143312
12.190000	24.143312
12.200000	24.143312
12.210000	24.143312
12.220000	24.143312
12.230000	24.143312
12.240000	24.143312
12.250000	24.143312
12.260000	24.143312
12.270000	24.143312
12.280000	24.143312
12.290000	24.143312
12.300000	24.143312
12.310000	24.143312
12.320000	24.143312
12.330000	24.143312
12.340000	24.143312
12.350000	24.143312
12.360000	24.143312
12.370000	24.143312
12.380000	24.143312
12.390000	24.143312
12.400000	24.143312
12.410000	24.143312
12.420000	24.143312
12.430000	24.143312
12.440000	24.143312
12.450000	24.143312
12.460000	24.143312
12.470000	24.143312
12.480000	24.143312
12.490000	24.143312
12.500000	24.143128
12.510000	24.143128
12.520000	24.143128
12.530000	24.143128
12.540000	24.143128
12.550000	24.143128
12.560000	24.143128
12.570000	24.143128
12.580000	24.143128
12.590000	24.143128
12.600000	24.143128
12.610000	24.143128
12.620000	24.143128
12.630000	24.143128
12.640000	24.143128
12.650000	24.143128
12.660000	24.143128
12.670000	24.143128
12.680000	24.143128
12.690000	24.143128
12.700000	24.143128
12.710000	24.143128
12.720000	24.143128
12.730000	24.143128
12.740000	24.143128
12.750000	24.143128
12.760000	24.143128
12.770000	24.143128
12.780000	24.143128
12.790000	24.143128
12.800000	24.143128
12.810000	24.143128
12.820000	24.143128
12.830000	24.143128
12.840000	24.143128
12.850000	24.143128
12.860000	24.143128
12.870000	24.143128
12.880000	24.143128
12.890000	24.143128
12.900000	24.143128
12.910000	24.143128
12.920000	24.143128
12.930000	24.143128
12.940000	24.143128
12.950000	24.143128
12.960000	24.143128
12.970000	24.143128
12.980000	24.143128
12.990000	24.143128
13.000000	24.142706
13.010000	24.142706
13.020000	24.142706
13.030000	24.142706
13.040000	24.142706
13.050000	24.142706
13.060000	24.142706
13.070000	24.142706
13.080000	24.142706
13.090000	24.142706
13.100000	24.142706
13.110000	24.142706
13.120000	24.142706
13.130000	24.142706
13.140000	24.142706
13.150000	24.142706
13.160000	24.142706
13.170000	24.142706
13.180000	24.142706
13.190000	24.142706
13.200000	24.142706
13.210000	24.142706
13.220000	24.142706
13.230000	24.142706
13.240000	24.142706
13.250000	24.142706
13.260000	24.142706
13.270000	24.142706
13.280000	24.142706
13.290000	24.142706
13.300000	24.142706
13.310000	24.142706
13.320000	24.142706
13.330000	24.142706
13.340000	24.142706
13.350000	24.142706
13.360000	24.142706
13.370000	24.142706
13.380000	24.142706
13.390000	24.142706
13.400000	24.142706
13.410000	24.142706
13.420000	24.142706
13.430000	24.142706
13.440000	24.142706
13.450000	24.142706
13.460000	24.142706
13.470000	24.142706
13.480000	24.142706
13.490000	24.142706
13.500000	24.141863
13.510000	24.141863
13.520000	24.141863
13.530000	24.141863
13.540000	24.141863
13.550000	24.141863
13.560000	24.141863
13.570000	24.141863
13.580000	24.141863
13.590000	24.141863
13.600000	24.141863
13.610000	24.141863
13.620000	24.141863
13.630000	24.141863
13.640000	24.141863
13.650000	24.141863
13.660000	24.141863
13.670000	24.141863
13.680000	24.141863
13.690000	24.141863
13.700000	24.141863
13.710000	24.141863
13.720000	24.141863
13.730000	24.141863
13.740000	24.141863
13.750000	24.141863
13.760000	24.141863
13.770000	24.141863
13.780000	24.141863
13.790000	24.141863
13.800000	24.141863
13.810000	24.141863
13.820000	24.141863
13.830000	24.141863
13.840000	24.141863
13.850000	24.141863
13.860000	24.141863
13.870000	24.141863
13.880000	24.141863
13.890000	24.141863
13.900000	24.141863
13.910000	24.141863
13.920000	24.141863
13.930000	24.141863
13.940000	24.141863
13.950000	24.141863
13.960000	24.141863
13.970000	24.141863
13.980000	24.141863
13.990000	24.141863
14.000000	24.141450
14.010000	24.141450
14.020000	24.141450
14.030000	24.141450
14.040000	24.141450
14.050000	24.141450
14.060000	24.141450
14.070000	24.141450
14.080000	24.141450
14.090000	24.141450
14.100000	24.141450
14.110000	24.141450
14.120000	24.141450
14.130000	24.141450
14.140000	24.141450
14.150000	24.141450
14.160000	24.141450
14.170000	24.141450
14.180000	24.141450
14.190000	24.141450
14.200000	24.141450
14.210000	24.141450
14.220000	24.141450
14.230000	24.141450
14.240000	24.141450
14.250000	24.141450
14.260000	24.141450
14.270000	24.141450
14.280000	24.141450
14.290000	24.141450
14.300000	24.141450
14.310000	24.141450
14.320000	24.141450
14.330000	24.141450
14.340000	24.141450
14.350000	24.141450
14.360000	24.141450
14.370000	24.141450
14.380000	24.141450
14.390000	24.141450
14.400000	24.141450
14.410000	24.141450
14.420000	24.141450
14.430000	24.141450
14.440000	24.141450
14.450000	24.141450
14.460000	24.141450
14.470000	24.141450
14.480000	24.141450
14.490000	24.141450
14.500000	24.140739
14.510000	24.140739
14.520000	24.140739
14.530000	24.140739
14.540000	24.140739
14.550000	24.140739
14.560000	24.140739
14.570000	24.140739
14.580000	24.140739
14.590000	24.140739
14.600000	24.140739
14.610000	24.140739
14.620000	24.140739
14.630000	24.140739
14.640000	24.140739
14.650000	24.140739
14.660000	24.140739
14.670000	24.140739
14.680000	24.140739
14.690000	24.140739
14.700000	24.140739
14.710000	24.140739
14.720000	24.140739
14.730000	24.140739
14.740000	24.140739
14.750000	24.140739
14.760000	24.140739
14.770000	24.140739
14.780000	24.140739
14.790000	24.140739
14.800000	24.140739
14.810000	24.140739
14.820000	24.140739
14.830000	24.140739
14.840000	24.140739
14.850000	24.140739
14.860000	24.140739
14.870000	24.140739
14.880000	24.140739
14.890000	24.140739
14.900000	24.140739
14.910000	24.140739
14.920000	24.140739
14.930000	24.140739
14.940000	24.140739
14.950000	24.140739
14.960000	24.140739
14.970000	24.140739
14.980000	24.140739
14.990000	24.140739
15.000000	24.139562
15.010000	24.139562
15.020000	24.139562
15.030000	24.139562
15.040000	24.139562
15.050000	24.139562
15.060000	24.139562
15.070000	24.139562
15.080000	24.139562
15.090000	24.139562
15.100000	24.139562
15.110000	24.139562
15.120000	24.139562
15.130000	24.139562
15.140000	24.139562
15.150000	24.139562
15.160000	24.139562
15.170000	24.139562
15.180000	24.139562
15.190000	24.139562
15.200000	24.139562
15.210000	24.139562
15.220000	24.139562
15.230000	24.139562
15.240000	24.139562
15.250000	24.139562
15.260000	24.139562
15.270000	24.139562
15.280000	24.139562
15.290000	24.139562
15.300000	24.139562
15.310000	24.139562
15.320000	24.139562
15.330000	24.139562
15.340000	24.139562
15.350000	24.139562
15.360000	24.139562
15.370000	24.139562
15.380000	24.139562
15.390000	24.139562
15.400000	24.139562
15.410000	24.139562
15.420000	24.139562
15.430000	24.139562
15.440000	24.139562
15.450000	24.139562
15.460000	24.139562
15.470000	24.139562
15.480000	24.139562
15.490000	24.139562
15.500000	24.138877
15.510000	24.138877
15.520000	24.138877
15.530000	24.138877
15.540000	24.138877
15.550000	24.138877
15.560000	24.138877
15.570000	24.138877
15.580000	24.138877
15.590000	24.138877
15.600000	24.138877
15.610000	24.138877
15.620000	24.138877
15.630000	24.138877
15.640000	24.138877
15.650000	24.138877
15.660000	24.138877
15.670000	24.138877
15.680000	24.138877
15.690000	24.138877
15.700000	24.138877
15.710000	24.138877
15.720000	24.138877
15.730000	24.138877
15.740000	24.138877
15.750000	24.138877
15.760000	24.138877
15.770000	24.138877
15.780000	24.138877
15.790000	24.138877
15.800000	24.138877
15.810000	24.138877
15.820000	24.138877
15.830000	24.138877
15.840000	24.138877
15.850000	24.138877
15.860000	24.138877
15.870000	24.138877
15.880000	24.138877
15.890000	24.138877
15.900000	24.138877
15.910000	24.138877
15.920000	24.138877
15.930000	24.138877
15.940000	24.138877
15.950000	24.138877
15.960000	24.138877
15.970000	24.138877
15.980000	24.138877
15.990000	24.138877
16.000000	24.137945
16.010000	24.137945
16.020000	24.137945
16.030000	24.137945
16.040000	24.137945
16.050000	24.137945
16.060000	24.137945
16.070000	24.137945
16.080000	24.137945
16.090000	24.137945
16.100000	24.137945
16.110000	24.137945
16.120000	24.137945
16.130000	24.137945
16.140000	24.137945
16.150000	24.137945
16.160000	24.137945
16.170000	24.137945
16.180000	24.137945
16.190000	24.137945
16.200000	24.137945
16.210000	24.137945
16.220000	24.137945
16.230000	24.137945
16.240000	24.137945
16.250000	24.137945
16.260000	24.137945
16.270000	24.137945
16.280000	24.137945
16.290000	24.137945
16.300000	24.137945
16.310000	24.137945
16.320000	24.137945
16.330000	24.137945
16.340000	24.137945
16.350000	24.137945
16.360000	24.137945
16.370000	24.137945
16.380000	24.137945
16.390000	24.137945
16.400000	24.137945
16.410000	24.137945
16.420000	24.137945
16.430000	24.137945
16.440000	24.137945
16.450000	24.137945
16.460000	24.137945
16.470000	24.137945
16.480000	24.137945
16.490000	24.137945
16.500000	24.136478
16.510000	24.136478
16.520000	24.136478
16.530000	24.136478
16.540000	24.136478
16.550000	24.136478
16.560000	24.136478
16.570000	24.136478
16.580000	24.136478
16.590000	24.136478
16.600000	24.136478
16.610000	24.136478
16.620000	24.136478
16.630000	24.136478
16.640000	24.136478
16.650000	24.136478
16.660000	24.136478
16.670000	24.136478
16.680000	24.136478
16.690000	24.136478
16.700000	24.136478
16.710000	24.136478
16.720000	24.136478
16.730000	24.136478
16.740000	24.136478
16.750000	24.136478
16.760000	24.136478
16.770000	24.136478
16.780000	24.136478
16.790000	24.136478
16.800000	24.136478
16.810000	24.136478
16.820000	24.136478
16.830000	24.136478
16.840000	24.136478
16.850000	24.136478
16.860000	24.136478
16.870000	24.136478
16.880000	24.136478
16.890000	24.136478
16.900000	24.136478
16.910000	24.136478
16.920000	24.136478
16.930000	24.136478
16.940000	24.136478
16.950000	24.136478
16.960000	24.136478
16.970000	24.136478
16.980000	24.136478
16.990000	24.136478
17.000000	24.135055
17.010000	24.135055
17.020000	24.135055
17.030000	24.135055
17.040000	24.135055
17.050000	24.135055
17.060000	24.135055
17.070000	24.135055
17.080000	24.135055
17.090000	24.135055
17.100000	24.135055
17.110000	24.135055
17.120000	24.135055
17.130000	24.135055
17.140000	24.135055
17.150000	24.135055
17.160000	24.135055
17.170000	24.135055
17.180000	24.135055
17.190000	24.135055
17.200000	24.135055
17.210000	24.135055
17.220000	24.135055
17.230000	24.135055
17.240000	24.135055
17.250000	24.135055
17.260000	24.135055
17.270000	24.135055
17.280000	24.135055
17.290000	24.135055
17.300000	24.135055
17.310000	24.135055
17.320000	24.135055
17.330000	24.135055
17.340000	24.135055
17.350000	24.135055
17.360000	24.135055
17.370000	24.135055
17.380000	24.135055
17.390000	24.135055
17.400000	24.135055
17.410000	24.135055
17.420000	24.135055
17.430000	24.135055
17.440000	24.135055
17.450000	24.135055
17.460000	24.135055
17.470000	24.135055
17.480000	24.135055
17.490000	24.135055
17.500000	24.133711
17.510000	24.133711
17.520000	24.133711
17.530000	24.133711
17.540000	24.133711
17.550000	24.133711
17.560000	24.133711
17.570000	24.133711
17.580000	24.133711
17.590000	24.133711
17.600000	24.133711
17.610000	24.133711
17.620000	24.133711
17.630000	24.133711
17.640000	24.133711
17.650000	24.133711
17.660000	24.133711
17.670000	24.133711
17.680000	24.133711
17.690000	24.133711
