LabVIEW Measurement	
Writer_Version	2
Reader_Version	2
Separator	Tab
Decimal_Separator	.
Multi_Headings	No
X_Columns	One
Time_Pref	Absolute
Operator	biomech-dyno
Date	2023/04/27
Time	17:41:55.9338632999999876419
***End_of_Header***	
	
Channels	1	
Samples	10	
Date	2023/04/27	
Time	19:09:45.3064664999997947101	
X_Dimension	Time	
X0	0.0000000000000000E+0	
Delta_X	0.010000	
***End_of_Header***		
X_Value	Untitled	Comment
0.000000	25.168515
0.010000	25.168515
0.020000	25.168515
0.030000	25.168515
0.040000	25.168515
0.050000	25.168515
0.060000	25.168515
0.070000	25.168515
0.080000	25.168515
0.090000	25.168515
0.100000	25.168515
0.110000	25.168515
0.120000	25.168515
0.130000	25.168515
0.140000	25.168515
0.150000	25.168515
0.160000	25.168515
0.170000	25.168515
0.180000	25.168515
0.190000	25.168515
0.200000	25.168515
0.210000	25.168515
0.220000	25.168515
0.230000	25.168515
0.240000	25.168515
0.250000	25.168515
0.260000	25.168515
0.270000	25.168515
0.280000	25.168515
0.290000	25.168515
0.300000	25.168515
0.310000	25.168515
0.320000	25.168515
0.330000	25.168515
0.340000	25.168515
0.350000	25.168515
0.360000	25.168515
0.370000	25.168515
0.380000	25.168515
0.390000	25.168515
0.400000	25.168515
0.410000	25.168515
0.420000	25.168515
0.430000	25.168515
0.440000	25.168515
0.450000	25.168515
0.460000	25.168515
0.470000	25.168515
0.480000	25.168515
0.490000	25.168515
0.500000	25.219370
0.510000	25.219370
0.520000	25.219370
0.530000	25.219370
0.540000	25.219370
0.550000	25.219370
0.560000	25.219370
0.570000	25.219370
0.580000	25.219370
0.590000	25.219370
0.600000	25.219370
0.610000	25.219370
0.620000	25.219370
0.630000	25.219370
0.640000	25.219370
0.650000	25.219370
0.660000	25.219370
0.670000	25.219370
0.680000	25.219370
0.690000	25.219370
0.700000	25.219370
0.710000	25.219370
0.720000	25.219370
0.730000	25.219370
0.740000	25.219370
0.750000	25.219370
0.760000	25.219370
0.770000	25.219370
0.780000	25.219370
0.790000	25.219370
0.800000	25.219370
0.810000	25.219370
0.820000	25.219370
0.830000	25.219370
0.840000	25.219370
0.850000	25.219370
0.860000	25.219370
0.870000	25.219370
0.880000	25.219370
0.890000	25.219370
0.900000	25.219370
0.910000	25.219370
0.920000	25.219370
0.930000	25.219370
0.940000	25.219370
0.950000	25.219370
0.960000	25.219370
0.970000	25.219370
0.980000	25.219370
0.990000	25.219370
1.000000	25.819197
1.010000	25.819197
1.020000	25.819197
1.030000	25.819197
1.040000	25.819197
1.050000	25.819197
1.060000	25.819197
1.070000	25.819197
1.080000	25.819197
1.090000	25.819197
1.100000	25.819197
1.110000	25.819197
1.120000	25.819197
1.130000	25.819197
1.140000	25.819197
1.150000	25.819197
1.160000	25.819197
1.170000	25.819197
1.180000	25.819197
1.190000	25.819197
1.200000	25.819197
1.210000	25.819197
1.220000	25.819197
1.230000	25.819197
1.240000	25.819197
1.250000	25.819197
1.260000	25.819197
1.270000	25.819197
1.280000	25.819197
1.290000	25.819197
1.300000	25.819197
1.310000	25.819197
1.320000	25.819197
1.330000	25.819197
1.340000	25.819197
1.350000	25.819197
1.360000	25.819197
1.370000	25.819197
1.380000	25.819197
1.390000	25.819197
1.400000	25.819197
1.410000	25.819197
1.420000	25.819197
1.430000	25.819197
1.440000	25.819197
1.450000	25.819197
1.460000	25.819197
1.470000	25.819197
1.480000	25.819197
1.490000	25.819197
1.500000	27.240621
1.510000	27.240621
1.520000	27.240621
1.530000	27.240621
1.540000	27.240621
1.550000	27.240621
1.560000	27.240621
1.570000	27.240621
1.580000	27.240621
1.590000	27.240621
1.600000	27.240621
1.610000	27.240621
1.620000	27.240621
1.630000	27.240621
1.640000	27.240621
1.650000	27.240621
1.660000	27.240621
1.670000	27.240621
1.680000	27.240621
1.690000	27.240621
1.700000	27.240621
1.710000	27.240621
1.720000	27.240621
1.730000	27.240621
1.740000	27.240621
1.750000	27.240621
1.760000	27.240621
1.770000	27.240621
1.780000	27.240621
1.790000	27.240621
1.800000	27.240621
1.810000	27.240621
1.820000	27.240621
1.830000	27.240621
1.840000	27.240621
1.850000	27.240621
1.860000	27.240621
1.870000	27.240621
1.880000	27.240621
1.890000	27.240621
1.900000	27.240621
1.910000	27.240621
1.920000	27.240621
1.930000	27.240621
1.940000	27.240621
1.950000	27.240621
1.960000	27.240621
1.970000	27.240621
1.980000	27.240621
1.990000	27.240621
2.000000	29.340004
2.010000	29.340004
2.020000	29.340004
2.030000	29.340004
2.040000	29.340004
2.050000	29.340004
2.060000	29.340004
2.070000	29.340004
2.080000	29.340004
2.090000	29.340004
2.100000	29.340004
2.110000	29.340004
2.120000	29.340004
2.130000	29.340004
2.140000	29.340004
2.150000	29.340004
2.160000	29.340004
2.170000	29.340004
2.180000	29.340004
2.190000	29.340004
2.200000	29.340004
2.210000	29.340004
2.220000	29.340004
2.230000	29.340004
2.240000	29.340004
2.250000	29.340004
2.260000	29.340004
2.270000	29.340004
2.280000	29.340004
2.290000	29.340004
2.300000	29.340004
2.310000	29.340004
2.320000	29.340004
2.330000	29.340004
2.340000	29.340004
2.350000	29.340004
2.360000	29.340004
2.370000	29.340004
2.380000	29.340004
2.390000	29.340004
2.400000	29.340004
2.410000	29.340004
2.420000	29.340004
2.430000	29.340004
2.440000	29.340004
2.450000	29.340004
2.460000	29.340004
2.470000	29.340004
2.480000	29.340004
2.490000	29.340004
2.500000	31.953190
2.510000	31.953190
2.520000	31.953190
2.530000	31.953190
2.540000	31.953190
2.550000	31.953190
2.560000	31.953190
2.570000	31.953190
2.580000	31.953190
2.590000	31.953190
2.600000	31.953190
2.610000	31.953190
2.620000	31.953190
2.630000	31.953190
2.640000	31.953190
2.650000	31.953190
2.660000	31.953190
2.670000	31.953190
2.680000	31.953190
2.690000	31.953190
2.700000	31.953190
2.710000	31.953190
2.720000	31.953190
2.730000	31.953190
2.740000	31.953190
2.750000	31.953190
2.760000	31.953190
2.770000	31.953190
2.780000	31.953190
2.790000	31.953190
2.800000	31.953190
2.810000	31.953190
2.820000	31.953190
2.830000	31.953190
2.840000	31.953190
2.850000	31.953190
2.860000	31.953190
2.870000	31.953190
2.880000	31.953190
2.890000	31.953190
2.900000	31.953190
2.910000	31.953190
2.920000	31.953190
2.930000	31.953190
2.940000	31.953190
2.950000	31.953190
2.960000	31.953190
2.970000	31.953190
2.980000	31.953190
2.990000	31.953190
3.000000	34.826367
3.010000	34.826367
3.020000	34.826367
3.030000	34.826367
3.040000	34.826367
3.050000	34.826367
3.060000	34.826367
3.070000	34.826367
3.080000	34.826367
3.090000	34.826367
3.100000	34.826367
3.110000	34.826367
3.120000	34.826367
3.130000	34.826367
3.140000	34.826367
3.150000	34.826367
3.160000	34.826367
3.170000	34.826367
3.180000	34.826367
3.190000	34.826367
3.200000	34.826367
3.210000	34.826367
3.220000	34.826367
3.230000	34.826367
3.240000	34.826367
3.250000	34.826367
3.260000	34.826367
3.270000	34.826367
3.280000	34.826367
3.290000	34.826367
3.300000	34.826367
3.310000	34.826367
3.320000	34.826367
3.330000	34.826367
3.340000	34.826367
3.350000	34.826367
3.360000	34.826367
3.370000	34.826367
3.380000	34.826367
3.390000	34.826367
3.400000	34.826367
3.410000	34.826367
3.420000	34.826367
3.430000	34.826367
3.440000	34.826367
3.450000	34.826367
3.460000	34.826367
3.470000	34.826367
3.480000	34.826367
3.490000	34.826367
3.500000	37.252193
3.510000	37.252193
3.520000	37.252193
3.530000	37.252193
3.540000	37.252193
3.550000	37.252193
3.560000	37.252193
3.570000	37.252193
3.580000	37.252193
3.590000	37.252193
3.600000	37.252193
3.610000	37.252193
3.620000	37.252193
3.630000	37.252193
3.640000	37.252193
3.650000	37.252193
3.660000	37.252193
3.670000	37.252193
3.680000	37.252193
3.690000	37.252193
3.700000	37.252193
3.710000	37.252193
3.720000	37.252193
3.730000	37.252193
3.740000	37.252193
3.750000	37.252193
3.760000	37.252193
3.770000	37.252193
3.780000	37.252193
3.790000	37.252193
3.800000	37.252193
3.810000	37.252193
3.820000	37.252193
3.830000	37.252193
3.840000	37.252193
3.850000	37.252193
3.860000	37.252193
3.870000	37.252193
3.880000	37.252193
3.890000	37.252193
3.900000	37.252193
3.910000	37.252193
3.920000	37.252193
3.930000	37.252193
3.940000	37.252193
3.950000	37.252193
3.960000	37.252193
3.970000	37.252193
3.980000	37.252193
3.990000	37.252193
4.000000	39.064721
4.010000	39.064721
4.020000	39.064721
4.030000	39.064721
4.040000	39.064721
4.050000	39.064721
4.060000	39.064721
4.070000	39.064721
4.080000	39.064721
4.090000	39.064721
4.100000	39.064721
4.110000	39.064721
4.120000	39.064721
4.130000	39.064721
4.140000	39.064721
4.150000	39.064721
4.160000	39.064721
4.170000	39.064721
4.180000	39.064721
4.190000	39.064721
4.200000	39.064721
4.210000	39.064721
4.220000	39.064721
4.230000	39.064721
4.240000	39.064721
4.250000	39.064721
4.260000	39.064721
4.270000	39.064721
4.280000	39.064721
4.290000	39.064721
4.300000	39.064721
4.310000	39.064721
4.320000	39.064721
4.330000	39.064721
4.340000	39.064721
4.350000	39.064721
4.360000	39.064721
4.370000	39.064721
4.380000	39.064721
4.390000	39.064721
4.400000	39.064721
4.410000	39.064721
4.420000	39.064721
4.430000	39.064721
4.440000	39.064721
4.450000	39.064721
4.460000	39.064721
4.470000	39.064721
4.480000	39.064721
4.490000	39.064721
4.500000	40.375734
4.510000	40.375734
4.520000	40.375734
4.530000	40.375734
4.540000	40.375734
4.550000	40.375734
4.560000	40.375734
4.570000	40.375734
4.580000	40.375734
4.590000	40.375734
4.600000	40.375734
4.610000	40.375734
4.620000	40.375734
4.630000	40.375734
4.640000	40.375734
4.650000	40.375734
4.660000	40.375734
4.670000	40.375734
4.680000	40.375734
4.690000	40.375734
4.700000	40.375734
4.710000	40.375734
4.720000	40.375734
4.730000	40.375734
4.740000	40.375734
4.750000	40.375734
4.760000	40.375734
4.770000	40.375734
4.780000	40.375734
4.790000	40.375734
4.800000	40.375734
4.810000	40.375734
4.820000	40.375734
4.830000	40.375734
4.840000	40.375734
4.850000	40.375734
4.860000	40.375734
4.870000	40.375734
4.880000	40.375734
4.890000	40.375734
4.900000	40.375734
4.910000	40.375734
4.920000	40.375734
4.930000	40.375734
4.940000	40.375734
4.950000	40.375734
4.960000	40.375734
4.970000	40.375734
4.980000	40.375734
4.990000	40.375734
5.000000	41.274184
5.010000	41.274184
5.020000	41.274184
5.030000	41.274184
5.040000	41.274184
5.050000	41.274184
5.060000	41.274184
5.070000	41.274184
5.080000	41.274184
5.090000	41.274184
5.100000	41.274184
5.110000	41.274184
5.120000	41.274184
5.130000	41.274184
5.140000	41.274184
5.150000	41.274184
5.160000	41.274184
5.170000	41.274184
5.180000	41.274184
5.190000	41.274184
5.200000	41.274184
5.210000	41.274184
5.220000	41.274184
5.230000	41.274184
5.240000	41.274184
5.250000	41.274184
5.260000	41.274184
5.270000	41.274184
5.280000	41.274184
5.290000	41.274184
5.300000	41.274184
5.310000	41.274184
5.320000	41.274184
5.330000	41.274184
5.340000	41.274184
5.350000	41.274184
5.360000	41.274184
5.370000	41.274184
5.380000	41.274184
5.390000	41.274184
5.400000	41.274184
5.410000	41.274184
5.420000	41.274184
5.430000	41.274184
5.440000	41.274184
5.450000	41.274184
5.460000	41.274184
5.470000	41.274184
5.480000	41.274184
5.490000	41.274184
5.500000	41.863592
5.510000	41.863592
5.520000	41.863592
5.530000	41.863592
5.540000	41.863592
5.550000	41.863592
5.560000	41.863592
5.570000	41.863592
5.580000	41.863592
5.590000	41.863592
5.600000	41.863592
5.610000	41.863592
5.620000	41.863592
5.630000	41.863592
5.640000	41.863592
5.650000	41.863592
5.660000	41.863592
5.670000	41.863592
5.680000	41.863592
5.690000	41.863592
5.700000	41.863592
5.710000	41.863592
5.720000	41.863592
5.730000	41.863592
5.740000	41.863592
5.750000	41.863592
5.760000	41.863592
5.770000	41.863592
5.780000	41.863592
5.790000	41.863592
5.800000	41.863592
5.810000	41.863592
5.820000	41.863592
5.830000	41.863592
5.840000	41.863592
5.850000	41.863592
5.860000	41.863592
5.870000	41.863592
5.880000	41.863592
5.890000	41.863592
5.900000	41.863592
5.910000	41.863592
5.920000	41.863592
5.930000	41.863592
5.940000	41.863592
5.950000	41.863592
5.960000	41.863592
5.970000	41.863592
5.980000	41.863592
5.990000	41.863592
6.000000	42.223122
6.010000	42.223122
6.020000	42.223122
6.030000	42.223122
6.040000	42.223122
6.050000	42.223122
6.060000	42.223122
6.070000	42.223122
6.080000	42.223122
6.090000	42.223122
6.100000	42.223122
6.110000	42.223122
6.120000	42.223122
6.130000	42.223122
6.140000	42.223122
6.150000	42.223122
6.160000	42.223122
6.170000	42.223122
6.180000	42.223122
6.190000	42.223122
6.200000	42.223122
6.210000	42.223122
6.220000	42.223122
6.230000	42.223122
6.240000	42.223122
6.250000	42.223122
6.260000	42.223122
6.270000	42.223122
6.280000	42.223122
6.290000	42.223122
6.300000	42.223122
6.310000	42.223122
6.320000	42.223122
6.330000	42.223122
6.340000	42.223122
6.350000	42.223122
6.360000	42.223122
6.370000	42.223122
6.380000	42.223122
6.390000	42.223122
6.400000	42.223122
6.410000	42.223122
6.420000	42.223122
6.430000	42.223122
6.440000	42.223122
6.450000	42.223122
6.460000	42.223122
6.470000	42.223122
6.480000	42.223122
6.490000	42.223122
6.500000	42.410851
6.510000	42.410851
6.520000	42.410851
6.530000	42.410851
6.540000	42.410851
6.550000	42.410851
6.560000	42.410851
6.570000	42.410851
6.580000	42.410851
6.590000	42.410851
6.600000	42.410851
6.610000	42.410851
6.620000	42.410851
6.630000	42.410851
6.640000	42.410851
6.650000	42.410851
6.660000	42.410851
6.670000	42.410851
6.680000	42.410851
6.690000	42.410851
6.700000	42.410851
6.710000	42.410851
6.720000	42.410851
6.730000	42.410851
6.740000	42.410851
6.750000	42.410851
6.760000	42.410851
6.770000	42.410851
6.780000	42.410851
6.790000	42.410851
6.800000	42.410851
6.810000	42.410851
6.820000	42.410851
6.830000	42.410851
6.840000	42.410851
6.850000	42.410851
6.860000	42.410851
6.870000	42.410851
6.880000	42.410851
6.890000	42.410851
6.900000	42.410851
6.910000	42.410851
6.920000	42.410851
6.930000	42.410851
6.940000	42.410851
6.950000	42.410851
6.960000	42.410851
6.970000	42.410851
6.980000	42.410851
6.990000	42.410851
7.000000	42.473640
7.010000	42.473640
7.020000	42.473640
7.030000	42.473640
7.040000	42.473640
7.050000	42.473640
7.060000	42.473640
7.070000	42.473640
7.080000	42.473640
7.090000	42.473640
7.100000	42.473640
7.110000	42.473640
7.120000	42.473640
7.130000	42.473640
7.140000	42.473640
7.150000	42.473640
7.160000	42.473640
7.170000	42.473640
7.180000	42.473640
7.190000	42.473640
7.200000	42.473640
7.210000	42.473640
7.220000	42.473640
7.230000	42.473640
7.240000	42.473640
7.250000	42.473640
7.260000	42.473640
7.270000	42.473640
7.280000	42.473640
7.290000	42.473640
7.300000	42.473640
7.310000	42.473640
7.320000	42.473640
7.330000	42.473640
7.340000	42.473640
7.350000	42.473640
7.360000	42.473640
7.370000	42.473640
7.380000	42.473640
7.390000	42.473640
7.400000	42.473640
7.410000	42.473640
7.420000	42.473640
7.430000	42.473640
7.440000	42.473640
7.450000	42.473640
7.460000	42.473640
7.470000	42.473640
7.480000	42.473640
7.490000	42.473640
7.500000	42.439312
7.510000	42.439312
7.520000	42.439312
7.530000	42.439312
7.540000	42.439312
7.550000	42.439312
7.560000	42.439312
7.570000	42.439312
7.580000	42.439312
7.590000	42.439312
7.600000	42.439312
7.610000	42.439312
7.620000	42.439312
7.630000	42.439312
7.640000	42.439312
7.650000	42.439312
7.660000	42.439312
7.670000	42.439312
7.680000	42.439312
7.690000	42.439312
7.700000	42.439312
7.710000	42.439312
7.720000	42.439312
7.730000	42.439312
7.740000	42.439312
7.750000	42.439312
7.760000	42.439312
7.770000	42.439312
7.780000	42.439312
7.790000	42.439312
7.800000	42.439312
7.810000	42.439312
7.820000	42.439312
7.830000	42.439312
7.840000	42.439312
7.850000	42.439312
7.860000	42.439312
7.870000	42.439312
7.880000	42.439312
7.890000	42.439312
7.900000	42.439312
7.910000	42.439312
7.920000	42.439312
7.930000	42.439312
7.940000	42.439312
7.950000	42.439312
7.960000	42.439312
7.970000	42.439312
7.980000	42.439312
7.990000	42.439312
8.000000	42.323391
8.010000	42.323391
8.020000	42.323391
8.030000	42.323391
8.040000	42.323391
8.050000	42.323391
8.060000	42.323391
8.070000	42.323391
8.080000	42.323391
8.090000	42.323391
8.100000	42.323391
8.110000	42.323391
8.120000	42.323391
8.130000	42.323391
8.140000	42.323391
8.150000	42.323391
8.160000	42.323391
8.170000	42.323391
8.180000	42.323391
8.190000	42.323391
8.200000	42.323391
8.210000	42.323391
8.220000	42.323391
8.230000	42.323391
8.240000	42.323391
8.250000	42.323391
8.260000	42.323391
8.270000	42.323391
8.280000	42.323391
8.290000	42.323391
8.300000	42.323391
8.310000	42.323391
8.320000	42.323391
8.330000	42.323391
8.340000	42.323391
8.350000	42.323391
8.360000	42.323391
8.370000	42.323391
8.380000	42.323391
8.390000	42.323391
8.400000	42.323391
8.410000	42.323391
8.420000	42.323391
8.430000	42.323391
8.440000	42.323391
8.450000	42.323391
8.460000	42.323391
8.470000	42.323391
8.480000	42.323391
8.490000	42.323391
8.500000	42.155301
8.510000	42.155301
8.520000	42.155301
8.530000	42.155301
8.540000	42.155301
8.550000	42.155301
8.560000	42.155301
8.570000	42.155301
8.580000	42.155301
8.590000	42.155301
8.600000	42.155301
8.610000	42.155301
8.620000	42.155301
8.630000	42.155301
8.640000	42.155301
8.650000	42.155301
8.660000	42.155301
8.670000	42.155301
8.680000	42.155301
8.690000	42.155301
8.700000	42.155301
8.710000	42.155301
8.720000	42.155301
8.730000	42.155301
8.740000	42.155301
8.750000	42.155301
8.760000	42.155301
8.770000	42.155301
8.780000	42.155301
8.790000	42.155301
8.800000	42.155301
8.810000	42.155301
8.820000	42.155301
8.830000	42.155301
8.840000	42.155301
8.850000	42.155301
8.860000	42.155301
8.870000	42.155301
8.880000	42.155301
8.890000	42.155301
8.900000	42.155301
8.910000	42.155301
8.920000	42.155301
8.930000	42.155301
8.940000	42.155301
8.950000	42.155301
8.960000	42.155301
8.970000	42.155301
8.980000	42.155301
8.990000	42.155301
9.000000	41.945519
9.010000	41.945519
9.020000	41.945519
9.030000	41.945519
9.040000	41.945519
9.050000	41.945519
9.060000	41.945519
9.070000	41.945519
9.080000	41.945519
9.090000	41.945519
9.100000	41.945519
9.110000	41.945519
9.120000	41.945519
9.130000	41.945519
9.140000	41.945519
9.150000	41.945519
9.160000	41.945519
9.170000	41.945519
9.180000	41.945519
9.190000	41.945519
9.200000	41.945519
9.210000	41.945519
9.220000	41.945519
9.230000	41.945519
9.240000	41.945519
9.250000	41.945519
9.260000	41.945519
9.270000	41.945519
9.280000	41.945519
9.290000	41.945519
9.300000	41.945519
9.310000	41.945519
9.320000	41.945519
9.330000	41.945519
9.340000	41.945519
9.350000	41.945519
9.360000	41.945519
9.370000	41.945519
9.380000	41.945519
9.390000	41.945519
9.400000	41.945519
9.410000	41.945519
9.420000	41.945519
9.430000	41.945519
9.440000	41.945519
9.450000	41.945519
9.460000	41.945519
9.470000	41.945519
9.480000	41.945519
9.490000	41.945519
9.500000	41.697864
9.510000	41.697864
9.520000	41.697864
9.530000	41.697864
9.540000	41.697864
9.550000	41.697864
9.560000	41.697864
9.570000	41.697864
9.580000	41.697864
9.590000	41.697864
9.600000	41.697864
9.610000	41.697864
9.620000	41.697864
9.630000	41.697864
9.640000	41.697864
9.650000	41.697864
9.660000	41.697864
9.670000	41.697864
9.680000	41.697864
9.690000	41.697864
9.700000	41.697864
9.710000	41.697864
9.720000	41.697864
9.730000	41.697864
9.740000	41.697864
9.750000	41.697864
9.760000	41.697864
9.770000	41.697864
9.780000	41.697864
9.790000	41.697864
9.800000	41.697864
9.810000	41.697864
9.820000	41.697864
9.830000	41.697864
9.840000	41.697864
9.850000	41.697864
9.860000	41.697864
9.870000	41.697864
9.880000	41.697864
9.890000	41.697864
9.900000	41.697864
9.910000	41.697864
9.920000	41.697864
9.930000	41.697864
9.940000	41.697864
9.950000	41.697864
9.960000	41.697864
9.970000	41.697864
9.980000	41.697864
9.990000	41.697864
10.000000	41.431761
10.010000	41.431761
10.020000	41.431761
10.030000	41.431761
10.040000	41.431761
10.050000	41.431761
10.060000	41.431761
10.070000	41.431761
10.080000	41.431761
10.090000	41.431761
10.100000	41.431761
10.110000	41.431761
10.120000	41.431761
10.130000	41.431761
10.140000	41.431761
10.150000	41.431761
10.160000	41.431761
10.170000	41.431761
10.180000	41.431761
10.190000	41.431761
10.200000	41.431761
10.210000	41.431761
10.220000	41.431761
10.230000	41.431761
10.240000	41.431761
10.250000	41.431761
10.260000	41.431761
10.270000	41.431761
10.280000	41.431761
10.290000	41.431761
10.300000	41.431761
10.310000	41.431761
10.320000	41.431761
10.330000	41.431761
10.340000	41.431761
10.350000	41.431761
10.360000	41.431761
10.370000	41.431761
10.380000	41.431761
10.390000	41.431761
10.400000	41.431761
10.410000	41.431761
10.420000	41.431761
10.430000	41.431761
10.440000	41.431761
10.450000	41.431761
10.460000	41.431761
10.470000	41.431761
10.480000	41.431761
10.490000	41.431761
10.500000	41.139664
10.510000	41.139664
10.520000	41.139664
10.530000	41.139664
10.540000	41.139664
10.550000	41.139664
10.560000	41.139664
10.570000	41.139664
10.580000	41.139664
10.590000	41.139664
10.600000	41.139664
10.610000	41.139664
10.620000	41.139664
10.630000	41.139664
10.640000	41.139664
10.650000	41.139664
10.660000	41.139664
10.670000	41.139664
10.680000	41.139664
10.690000	41.139664
10.700000	41.139664
10.710000	41.139664
10.720000	41.139664
10.730000	41.139664
10.740000	41.139664
10.750000	41.139664
10.760000	41.139664
10.770000	41.139664
10.780000	41.139664
10.790000	41.139664
10.800000	41.139664
10.810000	41.139664
10.820000	41.139664
10.830000	41.139664
10.840000	41.139664
10.850000	41.139664
10.860000	41.139664
10.870000	41.139664
10.880000	41.139664
10.890000	41.139664
10.900000	41.139664
10.910000	41.139664
10.920000	41.139664
10.930000	41.139664
10.940000	41.139664
10.950000	41.139664
10.960000	41.139664
10.970000	41.139664
10.980000	41.139664
10.990000	41.139664
11.000000	40.842932
11.010000	40.842932
11.020000	40.842932
11.030000	40.842932
11.040000	40.842932
11.050000	40.842932
11.060000	40.842932
11.070000	40.842932
11.080000	40.842932
11.090000	40.842932
11.100000	40.842932
11.110000	40.842932
11.120000	40.842932
11.130000	40.842932
11.140000	40.842932
11.150000	40.842932
11.160000	40.842932
11.170000	40.842932
11.180000	40.842932
11.190000	40.842932
11.200000	40.842932
11.210000	40.842932
11.220000	40.842932
11.230000	40.842932
11.240000	40.842932
11.250000	40.842932
11.260000	40.842932
11.270000	40.842932
11.280000	40.842932
11.290000	40.842932
11.300000	40.842932
11.310000	40.842932
11.320000	40.842932
11.330000	40.842932
11.340000	40.842932
11.350000	40.842932
11.360000	40.842932
11.370000	40.842932
11.380000	40.842932
11.390000	40.842932
11.400000	40.842932
11.410000	40.842932
11.420000	40.842932
11.430000	40.842932
11.440000	40.842932
11.450000	40.842932
11.460000	40.842932
11.470000	40.842932
11.480000	40.842932
11.490000	40.842932
11.500000	40.533677
11.510000	40.533677
11.520000	40.533677
11.530000	40.533677
11.540000	40.533677
11.550000	40.533677
11.560000	40.533677
11.570000	40.533677
11.580000	40.533677
11.590000	40.533677
11.600000	40.533677
11.610000	40.533677
11.620000	40.533677
11.630000	40.533677
11.640000	40.533677
11.650000	40.533677
11.660000	40.533677
11.670000	40.533677
11.680000	40.533677
11.690000	40.533677
11.700000	40.533677
11.710000	40.533677
11.720000	40.533677
11.730000	40.533677
11.740000	40.533677
11.750000	40.533677
11.760000	40.533677
11.770000	40.533677
11.780000	40.533677
11.790000	40.533677
11.800000	40.533677
11.810000	40.533677
11.820000	40.533677
11.830000	40.533677
11.840000	40.533677
11.850000	40.533677
11.860000	40.533677
11.870000	40.533677
11.880000	40.533677
11.890000	40.533677
11.900000	40.533677
11.910000	40.533677
11.920000	40.533677
11.930000	40.533677
11.940000	40.533677
11.950000	40.533677
11.960000	40.533677
11.970000	40.533677
11.980000	40.533677
11.990000	40.533677
12.000000	40.230279
12.010000	40.230279
12.020000	40.230279
12.030000	40.230279
12.040000	40.230279
12.050000	40.230279
12.060000	40.230279
12.070000	40.230279
12.080000	40.230279
12.090000	40.230279
12.100000	40.230279
12.110000	40.230279
12.120000	40.230279
12.130000	40.230279
12.140000	40.230279
12.150000	40.230279
12.160000	40.230279
12.170000	40.230279
12.180000	40.230279
12.190000	40.230279
12.200000	40.230279
12.210000	40.230279
12.220000	40.230279
12.230000	40.230279
12.240000	40.230279
12.250000	40.230279
12.260000	40.230279
12.270000	40.230279
12.280000	40.230279
12.290000	40.230279
12.300000	40.230279
12.310000	40.230279
12.320000	40.230279
12.330000	40.230279
12.340000	40.230279
12.350000	40.230279
12.360000	40.230279
12.370000	40.230279
12.380000	40.230279
12.390000	40.230279
12.400000	40.230279
12.410000	40.230279
12.420000	40.230279
12.430000	40.230279
12.440000	40.230279
12.450000	40.230279
12.460000	40.230279
12.470000	40.230279
12.480000	40.230279
12.490000	40.230279
12.500000	39.929408
12.510000	39.929408
12.520000	39.929408
12.530000	39.929408
12.540000	39.929408
12.550000	39.929408
12.560000	39.929408
12.570000	39.929408
12.580000	39.929408
12.590000	39.929408
12.600000	39.929408
12.610000	39.929408
12.620000	39.929408
12.630000	39.929408
12.640000	39.929408
12.650000	39.929408
12.660000	39.929408
12.670000	39.929408
12.680000	39.929408
12.690000	39.929408
12.700000	39.929408
12.710000	39.929408
12.720000	39.929408
12.730000	39.929408
12.740000	39.929408
12.750000	39.929408
12.760000	39.929408
12.770000	39.929408
12.780000	39.929408
12.790000	39.929408
12.800000	39.929408
12.810000	39.929408
12.820000	39.929408
12.830000	39.929408
12.840000	39.929408
12.850000	39.929408
12.860000	39.929408
12.870000	39.929408
12.880000	39.929408
12.890000	39.929408
12.900000	39.929408
12.910000	39.929408
12.920000	39.929408
12.930000	39.929408
12.940000	39.929408
12.950000	39.929408
12.960000	39.929408
12.970000	39.929408
12.980000	39.929408
12.990000	39.929408
13.000000	39.630112
13.010000	39.630112
13.020000	39.630112
13.030000	39.630112
13.040000	39.630112
13.050000	39.630112
13.060000	39.630112
13.070000	39.630112
13.080000	39.630112
13.090000	39.630112
13.100000	39.630112
13.110000	39.630112
13.120000	39.630112
13.130000	39.630112
13.140000	39.630112
13.150000	39.630112
13.160000	39.630112
13.170000	39.630112
13.180000	39.630112
13.190000	39.630112
13.200000	39.630112
13.210000	39.630112
13.220000	39.630112
13.230000	39.630112
13.240000	39.630112
13.250000	39.630112
13.260000	39.630112
13.270000	39.630112
13.280000	39.630112
13.290000	39.630112
13.300000	39.630112
13.310000	39.630112
13.320000	39.630112
13.330000	39.630112
13.340000	39.630112
13.350000	39.630112
13.360000	39.630112
13.370000	39.630112
13.380000	39.630112
13.390000	39.630112
13.400000	39.630112
13.410000	39.630112
13.420000	39.630112
13.430000	39.630112
13.440000	39.630112
13.450000	39.630112
13.460000	39.630112
13.470000	39.630112
13.480000	39.630112
13.490000	39.630112
13.500000	39.332504
13.510000	39.332504
13.520000	39.332504
13.530000	39.332504
13.540000	39.332504
13.550000	39.332504
13.560000	39.332504
13.570000	39.332504
13.580000	39.332504
13.590000	39.332504
13.600000	39.332504
13.610000	39.332504
13.620000	39.332504
13.630000	39.332504
13.640000	39.332504
13.650000	39.332504
13.660000	39.332504
13.670000	39.332504
13.680000	39.332504
13.690000	39.332504
13.700000	39.332504
13.710000	39.332504
13.720000	39.332504
13.730000	39.332504
13.740000	39.332504
13.750000	39.332504
13.760000	39.332504
13.770000	39.332504
13.780000	39.332504
13.790000	39.332504
13.800000	39.332504
13.810000	39.332504
13.820000	39.332504
13.830000	39.332504
13.840000	39.332504
13.850000	39.332504
13.860000	39.332504
13.870000	39.332504
13.880000	39.332504
13.890000	39.332504
13.900000	39.332504
13.910000	39.332504
13.920000	39.332504
13.930000	39.332504
13.940000	39.332504
13.950000	39.332504
13.960000	39.332504
13.970000	39.332504
13.980000	39.332504
13.990000	39.332504
14.000000	39.039528
14.010000	39.039528
14.020000	39.039528
14.030000	39.039528
14.040000	39.039528
14.050000	39.039528
14.060000	39.039528
14.070000	39.039528
14.080000	39.039528
14.090000	39.039528
14.100000	39.039528
14.110000	39.039528
14.120000	39.039528
14.130000	39.039528
14.140000	39.039528
14.150000	39.039528
14.160000	39.039528
14.170000	39.039528
14.180000	39.039528
14.190000	39.039528
14.200000	39.039528
14.210000	39.039528
14.220000	39.039528
14.230000	39.039528
14.240000	39.039528
14.250000	39.039528
14.260000	39.039528
14.270000	39.039528
14.280000	39.039528
14.290000	39.039528
14.300000	39.039528
14.310000	39.039528
14.320000	39.039528
14.330000	39.039528
14.340000	39.039528
14.350000	39.039528
14.360000	39.039528
14.370000	39.039528
14.380000	39.039528
14.390000	39.039528
14.400000	39.039528
14.410000	39.039528
14.420000	39.039528
14.430000	39.039528
14.440000	39.039528
14.450000	39.039528
14.460000	39.039528
14.470000	39.039528
14.480000	39.039528
14.490000	39.039528
14.500000	38.748411
14.510000	38.748411
14.520000	38.748411
14.530000	38.748411
14.540000	38.748411
14.550000	38.748411
14.560000	38.748411
14.570000	38.748411
14.580000	38.748411
14.590000	38.748411
14.600000	38.748411
14.610000	38.748411
14.620000	38.748411
14.630000	38.748411
14.640000	38.748411
14.650000	38.748411
14.660000	38.748411
14.670000	38.748411
14.680000	38.748411
14.690000	38.748411
14.700000	38.748411
14.710000	38.748411
14.720000	38.748411
14.730000	38.748411
14.740000	38.748411
14.750000	38.748411
14.760000	38.748411
14.770000	38.748411
14.780000	38.748411
14.790000	38.748411
14.800000	38.748411
14.810000	38.748411
14.820000	38.748411
14.830000	38.748411
14.840000	38.748411
14.850000	38.748411
14.860000	38.748411
14.870000	38.748411
14.880000	38.748411
14.890000	38.748411
14.900000	38.748411
14.910000	38.748411
14.920000	38.748411
14.930000	38.748411
14.940000	38.748411
14.950000	38.748411
14.960000	38.748411
14.970000	38.748411
14.980000	38.748411
14.990000	38.748411
15.000000	38.470406
15.010000	38.470406
15.020000	38.470406
15.030000	38.470406
15.040000	38.470406
15.050000	38.470406
15.060000	38.470406
15.070000	38.470406
15.080000	38.470406
15.090000	38.470406
15.100000	38.470406
15.110000	38.470406
15.120000	38.470406
15.130000	38.470406
15.140000	38.470406
15.150000	38.470406
15.160000	38.470406
15.170000	38.470406
15.180000	38.470406
15.190000	38.470406
15.200000	38.470406
15.210000	38.470406
15.220000	38.470406
15.230000	38.470406
15.240000	38.470406
15.250000	38.470406
15.260000	38.470406
15.270000	38.470406
15.280000	38.470406
15.290000	38.470406
15.300000	38.470406
15.310000	38.470406
15.320000	38.470406
15.330000	38.470406
15.340000	38.470406
15.350000	38.470406
15.360000	38.470406
15.370000	38.470406
15.380000	38.470406
15.390000	38.470406
15.400000	38.470406
15.410000	38.470406
15.420000	38.470406
15.430000	38.470406
15.440000	38.470406
15.450000	38.470406
15.460000	38.470406
15.470000	38.470406
15.480000	38.470406
15.490000	38.470406
15.500000	38.204407
15.510000	38.204407
15.520000	38.204407
15.530000	38.204407
15.540000	38.204407
15.550000	38.204407
15.560000	38.204407
15.570000	38.204407
15.580000	38.204407
15.590000	38.204407
15.600000	38.204407
15.610000	38.204407
15.620000	38.204407
15.630000	38.204407
15.640000	38.204407
15.650000	38.204407
15.660000	38.204407
15.670000	38.204407
15.680000	38.204407
15.690000	38.204407
15.700000	38.204407
15.710000	38.204407
15.720000	38.204407
15.730000	38.204407
15.740000	38.204407
15.750000	38.204407
15.760000	38.204407
15.770000	38.204407
15.780000	38.204407
15.790000	38.204407
15.800000	38.204407
15.810000	38.204407
15.820000	38.204407
15.830000	38.204407
15.840000	38.204407
15.850000	38.204407
15.860000	38.204407
15.870000	38.204407
15.880000	38.204407
15.890000	38.204407
15.900000	38.204407
15.910000	38.204407
15.920000	38.204407
15.930000	38.204407
15.940000	38.204407
15.950000	38.204407
15.960000	38.204407
15.970000	38.204407
15.980000	38.204407
15.990000	38.204407
16.000000	37.945576
16.010000	37.945576
16.020000	37.945576
16.030000	37.945576
16.040000	37.945576
16.050000	37.945576
16.060000	37.945576
16.070000	37.945576
16.080000	37.945576
16.090000	37.945576
16.100000	37.945576
16.110000	37.945576
16.120000	37.945576
16.130000	37.945576
16.140000	37.945576
16.150000	37.945576
16.160000	37.945576
16.170000	37.945576
16.180000	37.945576
16.190000	37.945576
16.200000	37.945576
16.210000	37.945576
16.220000	37.945576
16.230000	37.945576
16.240000	37.945576
16.250000	37.945576
16.260000	37.945576
16.270000	37.945576
16.280000	37.945576
16.290000	37.945576
16.300000	37.945576
16.310000	37.945576
16.320000	37.945576
16.330000	37.945576
16.340000	37.945576
16.350000	37.945576
16.360000	37.945576
16.370000	37.945576
16.380000	37.945576
16.390000	37.945576
16.400000	37.945576
16.410000	37.945576
16.420000	37.945576
16.430000	37.945576
16.440000	37.945576
16.450000	37.945576
16.460000	37.945576
16.470000	37.945576
16.480000	37.945576
16.490000	37.945576
16.500000	37.691801
16.510000	37.691801
16.520000	37.691801
16.530000	37.691801
16.540000	37.691801
16.550000	37.691801
16.560000	37.691801
16.570000	37.691801
16.580000	37.691801
16.590000	37.691801
16.600000	37.691801
16.610000	37.691801
16.620000	37.691801
16.630000	37.691801
16.640000	37.691801
16.650000	37.691801
16.660000	37.691801
16.670000	37.691801
16.680000	37.691801
16.690000	37.691801
16.700000	37.691801
16.710000	37.691801
16.720000	37.691801
16.730000	37.691801
16.740000	37.691801
16.750000	37.691801
16.760000	37.691801
16.770000	37.691801
16.780000	37.691801
16.790000	37.691801
16.800000	37.691801
16.810000	37.691801
16.820000	37.691801
16.830000	37.691801
16.840000	37.691801
16.850000	37.691801
16.860000	37.691801
16.870000	37.691801
16.880000	37.691801
16.890000	37.691801
16.900000	37.691801
16.910000	37.691801
16.920000	37.691801
16.930000	37.691801
16.940000	37.691801
16.950000	37.691801
16.960000	37.691801
16.970000	37.691801
16.980000	37.691801
16.990000	37.691801
17.000000	37.444899
17.010000	37.444899
17.020000	37.444899
17.030000	37.444899
17.040000	37.444899
17.050000	37.444899
17.060000	37.444899
17.070000	37.444899
17.080000	37.444899
17.090000	37.444899
17.100000	37.444899
17.110000	37.444899
17.120000	37.444899
17.130000	37.444899
17.140000	37.444899
17.150000	37.444899
17.160000	37.444899
17.170000	37.444899
17.180000	37.444899
17.190000	37.444899
17.200000	37.444899
17.210000	37.444899
17.220000	37.444899
17.230000	37.444899
17.240000	37.444899
17.250000	37.444899
17.260000	37.444899
17.270000	37.444899
17.280000	37.444899
17.290000	37.444899
17.300000	37.444899
17.310000	37.444899
17.320000	37.444899
17.330000	37.444899
17.340000	37.444899
17.350000	37.444899
17.360000	37.444899
17.370000	37.444899
17.380000	37.444899
17.390000	37.444899
17.400000	37.444899
17.410000	37.444899
17.420000	37.444899
17.430000	37.444899
17.440000	37.444899
17.450000	37.444899
17.460000	37.444899
17.470000	37.444899
17.480000	37.444899
17.490000	37.444899
