LabVIEW Measurement	
Writer_Version	2
Reader_Version	2
Separator	Tab
Decimal_Separator	.
Multi_Headings	No
X_Columns	One
Time_Pref	Absolute
Operator	biomech-dyno
Date	2023/04/27
Time	17:41:55.9338632999999876419
***End_of_Header***	
	
Channels	1	
Samples	10	
Date	2023/04/27	
Time	19:02:18.4096006999997413078	
X_Dimension	Time	
X0	0.0000000000000000E+0	
Delta_X	0.010000	
***End_of_Header***		
X_Value	Untitled	Comment
0.000000	25.183350
0.010000	25.183350
0.020000	25.183350
0.030000	25.183350
0.040000	25.183350
0.050000	25.183350
0.060000	25.183350
0.070000	25.183350
0.080000	25.183350
0.090000	25.183350
0.100000	25.183350
0.110000	25.183350
0.120000	25.183350
0.130000	25.183350
0.140000	25.183350
0.150000	25.183350
0.160000	25.183350
0.170000	25.183350
0.180000	25.183350
0.190000	25.183350
0.200000	25.183350
0.210000	25.183350
0.220000	25.183350
0.230000	25.183350
0.240000	25.183350
0.250000	25.183350
0.260000	25.183350
0.270000	25.183350
0.280000	25.183350
0.290000	25.183350
0.300000	25.183350
0.310000	25.183350
0.320000	25.183350
0.330000	25.183350
0.340000	25.183350
0.350000	25.183350
0.360000	25.183350
0.370000	25.183350
0.380000	25.183350
0.390000	25.183350
0.400000	25.183350
0.410000	25.183350
0.420000	25.183350
0.430000	25.183350
0.440000	25.183350
0.450000	25.183350
0.460000	25.183350
0.470000	25.183350
0.480000	25.183350
0.490000	25.183350
0.500000	25.180084
0.510000	25.180084
0.520000	25.180084
0.530000	25.180084
0.540000	25.180084
0.550000	25.180084
0.560000	25.180084
0.570000	25.180084
0.580000	25.180084
0.590000	25.180084
0.600000	25.180084
0.610000	25.180084
0.620000	25.180084
0.630000	25.180084
0.640000	25.180084
0.650000	25.180084
0.660000	25.180084
0.670000	25.180084
0.680000	25.180084
0.690000	25.180084
0.700000	25.180084
0.710000	25.180084
0.720000	25.180084
0.730000	25.180084
0.740000	25.180084
0.750000	25.180084
0.760000	25.180084
0.770000	25.180084
0.780000	25.180084
0.790000	25.180084
0.800000	25.180084
0.810000	25.180084
0.820000	25.180084
0.830000	25.180084
0.840000	25.180084
0.850000	25.180084
0.860000	25.180084
0.870000	25.180084
0.880000	25.180084
0.890000	25.180084
0.900000	25.180084
0.910000	25.180084
0.920000	25.180084
0.930000	25.180084
0.940000	25.180084
0.950000	25.180084
0.960000	25.180084
0.970000	25.180084
0.980000	25.180084
0.990000	25.180084
1.000000	25.178039
1.010000	25.178039
1.020000	25.178039
1.030000	25.178039
1.040000	25.178039
1.050000	25.178039
1.060000	25.178039
1.070000	25.178039
1.080000	25.178039
1.090000	25.178039
1.100000	25.178039
1.110000	25.178039
1.120000	25.178039
1.130000	25.178039
1.140000	25.178039
1.150000	25.178039
1.160000	25.178039
1.170000	25.178039
1.180000	25.178039
1.190000	25.178039
1.200000	25.178039
1.210000	25.178039
1.220000	25.178039
1.230000	25.178039
1.240000	25.178039
1.250000	25.178039
1.260000	25.178039
1.270000	25.178039
1.280000	25.178039
1.290000	25.178039
1.300000	25.178039
1.310000	25.178039
1.320000	25.178039
1.330000	25.178039
1.340000	25.178039
1.350000	25.178039
1.360000	25.178039
1.370000	25.178039
1.380000	25.178039
1.390000	25.178039
1.400000	25.178039
1.410000	25.178039
1.420000	25.178039
1.430000	25.178039
1.440000	25.178039
1.450000	25.178039
1.460000	25.178039
1.470000	25.178039
1.480000	25.178039
1.490000	25.178039
1.500000	25.179534
1.510000	25.179534
1.520000	25.179534
1.530000	25.179534
1.540000	25.179534
1.550000	25.179534
1.560000	25.179534
1.570000	25.179534
1.580000	25.179534
1.590000	25.179534
1.600000	25.179534
1.610000	25.179534
1.620000	25.179534
1.630000	25.179534
1.640000	25.179534
1.650000	25.179534
1.660000	25.179534
1.670000	25.179534
1.680000	25.179534
1.690000	25.179534
1.700000	25.179534
1.710000	25.179534
1.720000	25.179534
1.730000	25.179534
1.740000	25.179534
1.750000	25.179534
1.760000	25.179534
1.770000	25.179534
1.780000	25.179534
1.790000	25.179534
1.800000	25.179534
1.810000	25.179534
1.820000	25.179534
1.830000	25.179534
1.840000	25.179534
1.850000	25.179534
1.860000	25.179534
1.870000	25.179534
1.880000	25.179534
1.890000	25.179534
1.900000	25.179534
1.910000	25.179534
1.920000	25.179534
1.930000	25.179534
1.940000	25.179534
1.950000	25.179534
1.960000	25.179534
1.970000	25.179534
1.980000	25.179534
1.990000	25.179534
2.000000	25.186667
2.010000	25.186667
2.020000	25.186667
2.030000	25.186667
2.040000	25.186667
2.050000	25.186667
2.060000	25.186667
2.070000	25.186667
2.080000	25.186667
2.090000	25.186667
2.100000	25.186667
2.110000	25.186667
2.120000	25.186667
2.130000	25.186667
2.140000	25.186667
2.150000	25.186667
2.160000	25.186667
2.170000	25.186667
2.180000	25.186667
2.190000	25.186667
2.200000	25.186667
2.210000	25.186667
2.220000	25.186667
2.230000	25.186667
2.240000	25.186667
2.250000	25.186667
2.260000	25.186667
2.270000	25.186667
2.280000	25.186667
2.290000	25.186667
2.300000	25.186667
2.310000	25.186667
2.320000	25.186667
2.330000	25.186667
2.340000	25.186667
2.350000	25.186667
2.360000	25.186667
2.370000	25.186667
2.380000	25.186667
2.390000	25.186667
2.400000	25.186667
2.410000	25.186667
2.420000	25.186667
2.430000	25.186667
2.440000	25.186667
2.450000	25.186667
2.460000	25.186667
2.470000	25.186667
2.480000	25.186667
2.490000	25.186667
2.500000	25.193232
2.510000	25.193232
2.520000	25.193232
2.530000	25.193232
2.540000	25.193232
2.550000	25.193232
2.560000	25.193232
2.570000	25.193232
2.580000	25.193232
2.590000	25.193232
2.600000	25.193232
2.610000	25.193232
2.620000	25.193232
2.630000	25.193232
2.640000	25.193232
2.650000	25.193232
2.660000	25.193232
2.670000	25.193232
2.680000	25.193232
2.690000	25.193232
2.700000	25.193232
2.710000	25.193232
2.720000	25.193232
2.730000	25.193232
2.740000	25.193232
2.750000	25.193232
2.760000	25.193232
2.770000	25.193232
2.780000	25.193232
2.790000	25.193232
2.800000	25.193232
2.810000	25.193232
2.820000	25.193232
2.830000	25.193232
2.840000	25.193232
2.850000	25.193232
2.860000	25.193232
2.870000	25.193232
2.880000	25.193232
2.890000	25.193232
2.900000	25.193232
2.910000	25.193232
2.920000	25.193232
2.930000	25.193232
2.940000	25.193232
2.950000	25.193232
2.960000	25.193232
2.970000	25.193232
2.980000	25.193232
2.990000	25.193232
3.000000	25.199976
3.010000	25.199976
3.020000	25.199976
3.030000	25.199976
3.040000	25.199976
3.050000	25.199976
3.060000	25.199976
3.070000	25.199976
3.080000	25.199976
3.090000	25.199976
3.100000	25.199976
3.110000	25.199976
3.120000	25.199976
3.130000	25.199976
3.140000	25.199976
3.150000	25.199976
3.160000	25.199976
3.170000	25.199976
3.180000	25.199976
3.190000	25.199976
3.200000	25.199976
3.210000	25.199976
3.220000	25.199976
3.230000	25.199976
3.240000	25.199976
3.250000	25.199976
3.260000	25.199976
3.270000	25.199976
3.280000	25.199976
3.290000	25.199976
3.300000	25.199976
3.310000	25.199976
3.320000	25.199976
3.330000	25.199976
3.340000	25.199976
3.350000	25.199976
3.360000	25.199976
3.370000	25.199976
3.380000	25.199976
3.390000	25.199976
3.400000	25.199976
3.410000	25.199976
3.420000	25.199976
3.430000	25.199976
3.440000	25.199976
3.450000	25.199976
3.460000	25.199976
3.470000	25.199976
3.480000	25.199976
3.490000	25.199976
3.500000	25.207269
3.510000	25.207269
3.520000	25.207269
3.530000	25.207269
3.540000	25.207269
3.550000	25.207269
3.560000	25.207269
3.570000	25.207269
3.580000	25.207269
3.590000	25.207269
3.600000	25.207269
3.610000	25.207269
3.620000	25.207269
3.630000	25.207269
3.640000	25.207269
3.650000	25.207269
3.660000	25.207269
3.670000	25.207269
3.680000	25.207269
3.690000	25.207269
3.700000	25.207269
3.710000	25.207269
3.720000	25.207269
3.730000	25.207269
3.740000	25.207269
3.750000	25.207269
3.760000	25.207269
3.770000	25.207269
3.780000	25.207269
3.790000	25.207269
3.800000	25.207269
3.810000	25.207269
3.820000	25.207269
3.830000	25.207269
3.840000	25.207269
3.850000	25.207269
3.860000	25.207269
3.870000	25.207269
3.880000	25.207269
3.890000	25.207269
3.900000	25.207269
3.910000	25.207269
3.920000	25.207269
3.930000	25.207269
3.940000	25.207269
3.950000	25.207269
3.960000	25.207269
3.970000	25.207269
3.980000	25.207269
3.990000	25.207269
4.000000	25.209949
4.010000	25.209949
4.020000	25.209949
4.030000	25.209949
4.040000	25.209949
4.050000	25.209949
4.060000	25.209949
4.070000	25.209949
4.080000	25.209949
4.090000	25.209949
4.100000	25.209949
4.110000	25.209949
4.120000	25.209949
4.130000	25.209949
4.140000	25.209949
4.150000	25.209949
4.160000	25.209949
4.170000	25.209949
4.180000	25.209949
4.190000	25.209949
4.200000	25.209949
4.210000	25.209949
4.220000	25.209949
4.230000	25.209949
4.240000	25.209949
4.250000	25.209949
4.260000	25.209949
4.270000	25.209949
4.280000	25.209949
4.290000	25.209949
4.300000	25.209949
4.310000	25.209949
4.320000	25.209949
4.330000	25.209949
4.340000	25.209949
4.350000	25.209949
4.360000	25.209949
4.370000	25.209949
4.380000	25.209949
4.390000	25.209949
4.400000	25.209949
4.410000	25.209949
4.420000	25.209949
4.430000	25.209949
4.440000	25.209949
4.450000	25.209949
4.460000	25.209949
4.470000	25.209949
4.480000	25.209949
4.490000	25.209949
4.500000	25.210902
4.510000	25.210902
4.520000	25.210902
4.530000	25.210902
4.540000	25.210902
4.550000	25.210902
4.560000	25.210902
4.570000	25.210902
4.580000	25.210902
4.590000	25.210902
4.600000	25.210902
4.610000	25.210902
4.620000	25.210902
4.630000	25.210902
4.640000	25.210902
4.650000	25.210902
4.660000	25.210902
4.670000	25.210902
4.680000	25.210902
4.690000	25.210902
4.700000	25.210902
4.710000	25.210902
4.720000	25.210902
4.730000	25.210902
4.740000	25.210902
4.750000	25.210902
4.760000	25.210902
4.770000	25.210902
4.780000	25.210902
4.790000	25.210902
4.800000	25.210902
4.810000	25.210902
4.820000	25.210902
4.830000	25.210902
4.840000	25.210902
4.850000	25.210902
4.860000	25.210902
4.870000	25.210902
4.880000	25.210902
4.890000	25.210902
4.900000	25.210902
4.910000	25.210902
4.920000	25.210902
4.930000	25.210902
4.940000	25.210902
4.950000	25.210902
4.960000	25.210902
4.970000	25.210902
4.980000	25.210902
4.990000	25.210902
5.000000	25.212268
5.010000	25.212268
5.020000	25.212268
5.030000	25.212268
5.040000	25.212268
5.050000	25.212268
5.060000	25.212268
5.070000	25.212268
5.080000	25.212268
5.090000	25.212268
5.100000	25.212268
5.110000	25.212268
5.120000	25.212268
5.130000	25.212268
5.140000	25.212268
5.150000	25.212268
5.160000	25.212268
5.170000	25.212268
5.180000	25.212268
5.190000	25.212268
5.200000	25.212268
5.210000	25.212268
5.220000	25.212268
5.230000	25.212268
5.240000	25.212268
5.250000	25.212268
5.260000	25.212268
5.270000	25.212268
5.280000	25.212268
5.290000	25.212268
5.300000	25.212268
5.310000	25.212268
5.320000	25.212268
5.330000	25.212268
5.340000	25.212268
5.350000	25.212268
5.360000	25.212268
5.370000	25.212268
5.380000	25.212268
5.390000	25.212268
5.400000	25.212268
5.410000	25.212268
5.420000	25.212268
5.430000	25.212268
5.440000	25.212268
5.450000	25.212268
5.460000	25.212268
5.470000	25.212268
5.480000	25.212268
5.490000	25.212268
5.500000	25.214458
5.510000	25.214458
5.520000	25.214458
5.530000	25.214458
5.540000	25.214458
5.550000	25.214458
5.560000	25.214458
5.570000	25.214458
5.580000	25.214458
5.590000	25.214458
5.600000	25.214458
5.610000	25.214458
5.620000	25.214458
5.630000	25.214458
5.640000	25.214458
5.650000	25.214458
5.660000	25.214458
5.670000	25.214458
5.680000	25.214458
5.690000	25.214458
5.700000	25.214458
5.710000	25.214458
5.720000	25.214458
5.730000	25.214458
5.740000	25.214458
5.750000	25.214458
5.760000	25.214458
5.770000	25.214458
5.780000	25.214458
5.790000	25.214458
5.800000	25.214458
5.810000	25.214458
5.820000	25.214458
5.830000	25.214458
5.840000	25.214458
5.850000	25.214458
5.860000	25.214458
5.870000	25.214458
5.880000	25.214458
5.890000	25.214458
5.900000	25.214458
5.910000	25.214458
5.920000	25.214458
5.930000	25.214458
5.940000	25.214458
5.950000	25.214458
5.960000	25.214458
5.970000	25.214458
5.980000	25.214458
5.990000	25.214458
6.000000	25.216665
6.010000	25.216665
6.020000	25.216665
6.030000	25.216665
6.040000	25.216665
6.050000	25.216665
6.060000	25.216665
6.070000	25.216665
6.080000	25.216665
6.090000	25.216665
6.100000	25.216665
6.110000	25.216665
6.120000	25.216665
6.130000	25.216665
6.140000	25.216665
6.150000	25.216665
6.160000	25.216665
6.170000	25.216665
6.180000	25.216665
6.190000	25.216665
6.200000	25.216665
6.210000	25.216665
6.220000	25.216665
6.230000	25.216665
6.240000	25.216665
6.250000	25.216665
6.260000	25.216665
6.270000	25.216665
6.280000	25.216665
6.290000	25.216665
6.300000	25.216665
6.310000	25.216665
6.320000	25.216665
6.330000	25.216665
6.340000	25.216665
6.350000	25.216665
6.360000	25.216665
6.370000	25.216665
6.380000	25.216665
6.390000	25.216665
6.400000	25.216665
6.410000	25.216665
6.420000	25.216665
6.430000	25.216665
6.440000	25.216665
6.450000	25.216665
6.460000	25.216665
6.470000	25.216665
6.480000	25.216665
6.490000	25.216665
6.500000	25.220083
6.510000	25.220083
6.520000	25.220083
6.530000	25.220083
6.540000	25.220083
6.550000	25.220083
6.560000	25.220083
6.570000	25.220083
6.580000	25.220083
6.590000	25.220083
6.600000	25.220083
6.610000	25.220083
6.620000	25.220083
6.630000	25.220083
6.640000	25.220083
6.650000	25.220083
6.660000	25.220083
6.670000	25.220083
6.680000	25.220083
6.690000	25.220083
6.700000	25.220083
6.710000	25.220083
6.720000	25.220083
6.730000	25.220083
6.740000	25.220083
6.750000	25.220083
6.760000	25.220083
6.770000	25.220083
6.780000	25.220083
6.790000	25.220083
6.800000	25.220083
6.810000	25.220083
6.820000	25.220083
6.830000	25.220083
6.840000	25.220083
6.850000	25.220083
6.860000	25.220083
6.870000	25.220083
6.880000	25.220083
6.890000	25.220083
6.900000	25.220083
6.910000	25.220083
6.920000	25.220083
6.930000	25.220083
6.940000	25.220083
6.950000	25.220083
6.960000	25.220083
6.970000	25.220083
6.980000	25.220083
6.990000	25.220083
7.000000	25.225046
7.010000	25.225046
7.020000	25.225046
7.030000	25.225046
7.040000	25.225046
7.050000	25.225046
7.060000	25.225046
7.070000	25.225046
7.080000	25.225046
7.090000	25.225046
7.100000	25.225046
7.110000	25.225046
7.120000	25.225046
7.130000	25.225046
7.140000	25.225046
7.150000	25.225046
7.160000	25.225046
7.170000	25.225046
7.180000	25.225046
7.190000	25.225046
7.200000	25.225046
7.210000	25.225046
7.220000	25.225046
7.230000	25.225046
7.240000	25.225046
7.250000	25.225046
7.260000	25.225046
7.270000	25.225046
7.280000	25.225046
7.290000	25.225046
7.300000	25.225046
7.310000	25.225046
7.320000	25.225046
7.330000	25.225046
7.340000	25.225046
7.350000	25.225046
7.360000	25.225046
7.370000	25.225046
7.380000	25.225046
7.390000	25.225046
7.400000	25.225046
7.410000	25.225046
7.420000	25.225046
7.430000	25.225046
7.440000	25.225046
7.450000	25.225046
7.460000	25.225046
7.470000	25.225046
7.480000	25.225046
7.490000	25.225046
7.500000	25.229640
7.510000	25.229640
7.520000	25.229640
7.530000	25.229640
7.540000	25.229640
7.550000	25.229640
7.560000	25.229640
7.570000	25.229640
7.580000	25.229640
7.590000	25.229640
7.600000	25.229640
7.610000	25.229640
7.620000	25.229640
7.630000	25.229640
7.640000	25.229640
7.650000	25.229640
7.660000	25.229640
7.670000	25.229640
7.680000	25.229640
7.690000	25.229640
7.700000	25.229640
7.710000	25.229640
7.720000	25.229640
7.730000	25.229640
7.740000	25.229640
7.750000	25.229640
7.760000	25.229640
7.770000	25.229640
7.780000	25.229640
7.790000	25.229640
7.800000	25.229640
7.810000	25.229640
7.820000	25.229640
7.830000	25.229640
7.840000	25.229640
7.850000	25.229640
7.860000	25.229640
7.870000	25.229640
7.880000	25.229640
7.890000	25.229640
7.900000	25.229640
7.910000	25.229640
7.920000	25.229640
7.930000	25.229640
7.940000	25.229640
7.950000	25.229640
7.960000	25.229640
7.970000	25.229640
7.980000	25.229640
7.990000	25.229640
8.000000	25.233091
8.010000	25.233091
8.020000	25.233091
8.030000	25.233091
8.040000	25.233091
8.050000	25.233091
8.060000	25.233091
8.070000	25.233091
8.080000	25.233091
8.090000	25.233091
8.100000	25.233091
8.110000	25.233091
8.120000	25.233091
8.130000	25.233091
8.140000	25.233091
8.150000	25.233091
8.160000	25.233091
8.170000	25.233091
8.180000	25.233091
8.190000	25.233091
8.200000	25.233091
8.210000	25.233091
8.220000	25.233091
8.230000	25.233091
8.240000	25.233091
8.250000	25.233091
8.260000	25.233091
8.270000	25.233091
8.280000	25.233091
8.290000	25.233091
8.300000	25.233091
8.310000	25.233091
8.320000	25.233091
8.330000	25.233091
8.340000	25.233091
8.350000	25.233091
8.360000	25.233091
8.370000	25.233091
8.380000	25.233091
8.390000	25.233091
8.400000	25.233091
8.410000	25.233091
8.420000	25.233091
8.430000	25.233091
8.440000	25.233091
8.450000	25.233091
8.460000	25.233091
8.470000	25.233091
8.480000	25.233091
8.490000	25.233091
8.500000	25.235795
8.510000	25.235795
8.520000	25.235795
8.530000	25.235795
8.540000	25.235795
8.550000	25.235795
8.560000	25.235795
8.570000	25.235795
8.580000	25.235795
8.590000	25.235795
8.600000	25.235795
8.610000	25.235795
8.620000	25.235795
8.630000	25.235795
8.640000	25.235795
8.650000	25.235795
8.660000	25.235795
8.670000	25.235795
8.680000	25.235795
8.690000	25.235795
8.700000	25.235795
8.710000	25.235795
8.720000	25.235795
8.730000	25.235795
8.740000	25.235795
8.750000	25.235795
8.760000	25.235795
8.770000	25.235795
8.780000	25.235795
8.790000	25.235795
8.800000	25.235795
8.810000	25.235795
8.820000	25.235795
8.830000	25.235795
8.840000	25.235795
8.850000	25.235795
8.860000	25.235795
8.870000	25.235795
8.880000	25.235795
8.890000	25.235795
8.900000	25.235795
8.910000	25.235795
8.920000	25.235795
8.930000	25.235795
8.940000	25.235795
8.950000	25.235795
8.960000	25.235795
8.970000	25.235795
8.980000	25.235795
8.990000	25.235795
9.000000	25.238181
9.010000	25.238181
9.020000	25.238181
9.030000	25.238181
9.040000	25.238181
9.050000	25.238181
9.060000	25.238181
9.070000	25.238181
9.080000	25.238181
9.090000	25.238181
9.100000	25.238181
9.110000	25.238181
9.120000	25.238181
9.130000	25.238181
9.140000	25.238181
9.150000	25.238181
9.160000	25.238181
9.170000	25.238181
9.180000	25.238181
9.190000	25.238181
9.200000	25.238181
9.210000	25.238181
9.220000	25.238181
9.230000	25.238181
9.240000	25.238181
9.250000	25.238181
9.260000	25.238181
9.270000	25.238181
9.280000	25.238181
9.290000	25.238181
9.300000	25.238181
9.310000	25.238181
9.320000	25.238181
9.330000	25.238181
9.340000	25.238181
9.350000	25.238181
9.360000	25.238181
9.370000	25.238181
9.380000	25.238181
9.390000	25.238181
9.400000	25.238181
9.410000	25.238181
9.420000	25.238181
9.430000	25.238181
9.440000	25.238181
9.450000	25.238181
9.460000	25.238181
9.470000	25.238181
9.480000	25.238181
9.490000	25.238181
9.500000	25.239787
9.510000	25.239787
9.520000	25.239787
9.530000	25.239787
9.540000	25.239787
9.550000	25.239787
9.560000	25.239787
9.570000	25.239787
9.580000	25.239787
9.590000	25.239787
9.600000	25.239787
9.610000	25.239787
9.620000	25.239787
9.630000	25.239787
9.640000	25.239787
9.650000	25.239787
9.660000	25.239787
9.670000	25.239787
9.680000	25.239787
9.690000	25.239787
9.700000	25.239787
9.710000	25.239787
9.720000	25.239787
9.730000	25.239787
9.740000	25.239787
9.750000	25.239787
9.760000	25.239787
9.770000	25.239787
9.780000	25.239787
9.790000	25.239787
9.800000	25.239787
9.810000	25.239787
9.820000	25.239787
9.830000	25.239787
9.840000	25.239787
9.850000	25.239787
9.860000	25.239787
9.870000	25.239787
9.880000	25.239787
9.890000	25.239787
9.900000	25.239787
9.910000	25.239787
9.920000	25.239787
9.930000	25.239787
9.940000	25.239787
9.950000	25.239787
9.960000	25.239787
9.970000	25.239787
9.980000	25.239787
9.990000	25.239787
10.000000	25.240860
10.010000	25.240860
10.020000	25.240860
10.030000	25.240860
10.040000	25.240860
10.050000	25.240860
10.060000	25.240860
10.070000	25.240860
10.080000	25.240860
10.090000	25.240860
10.100000	25.240860
10.110000	25.240860
10.120000	25.240860
10.130000	25.240860
10.140000	25.240860
10.150000	25.240860
10.160000	25.240860
10.170000	25.240860
10.180000	25.240860
10.190000	25.240860
10.200000	25.240860
10.210000	25.240860
10.220000	25.240860
10.230000	25.240860
10.240000	25.240860
10.250000	25.240860
10.260000	25.240860
10.270000	25.240860
10.280000	25.240860
10.290000	25.240860
10.300000	25.240860
10.310000	25.240860
10.320000	25.240860
10.330000	25.240860
10.340000	25.240860
10.350000	25.240860
10.360000	25.240860
10.370000	25.240860
10.380000	25.240860
10.390000	25.240860
10.400000	25.240860
10.410000	25.240860
10.420000	25.240860
10.430000	25.240860
10.440000	25.240860
10.450000	25.240860
10.460000	25.240860
10.470000	25.240860
10.480000	25.240860
10.490000	25.240860
10.500000	25.241795
10.510000	25.241795
10.520000	25.241795
10.530000	25.241795
10.540000	25.241795
10.550000	25.241795
10.560000	25.241795
10.570000	25.241795
10.580000	25.241795
10.590000	25.241795
10.600000	25.241795
10.610000	25.241795
10.620000	25.241795
10.630000	25.241795
10.640000	25.241795
10.650000	25.241795
10.660000	25.241795
10.670000	25.241795
10.680000	25.241795
10.690000	25.241795
10.700000	25.241795
10.710000	25.241795
10.720000	25.241795
10.730000	25.241795
10.740000	25.241795
10.750000	25.241795
10.760000	25.241795
10.770000	25.241795
10.780000	25.241795
10.790000	25.241795
10.800000	25.241795
10.810000	25.241795
10.820000	25.241795
10.830000	25.241795
10.840000	25.241795
10.850000	25.241795
10.860000	25.241795
10.870000	25.241795
10.880000	25.241795
10.890000	25.241795
10.900000	25.241795
10.910000	25.241795
10.920000	25.241795
10.930000	25.241795
10.940000	25.241795
10.950000	25.241795
10.960000	25.241795
10.970000	25.241795
10.980000	25.241795
10.990000	25.241795
11.000000	25.242164
11.010000	25.242164
11.020000	25.242164
11.030000	25.242164
11.040000	25.242164
11.050000	25.242164
11.060000	25.242164
11.070000	25.242164
11.080000	25.242164
11.090000	25.242164
11.100000	25.242164
11.110000	25.242164
11.120000	25.242164
11.130000	25.242164
11.140000	25.242164
11.150000	25.242164
11.160000	25.242164
11.170000	25.242164
11.180000	25.242164
11.190000	25.242164
11.200000	25.242164
11.210000	25.242164
11.220000	25.242164
11.230000	25.242164
11.240000	25.242164
11.250000	25.242164
11.260000	25.242164
11.270000	25.242164
11.280000	25.242164
11.290000	25.242164
11.300000	25.242164
11.310000	25.242164
11.320000	25.242164
11.330000	25.242164
11.340000	25.242164
11.350000	25.242164
11.360000	25.242164
11.370000	25.242164
11.380000	25.242164
11.390000	25.242164
11.400000	25.242164
11.410000	25.242164
11.420000	25.242164
11.430000	25.242164
11.440000	25.242164
11.450000	25.242164
11.460000	25.242164
11.470000	25.242164
11.480000	25.242164
11.490000	25.242164
11.500000	25.242250
11.510000	25.242250
11.520000	25.242250
11.530000	25.242250
11.540000	25.242250
11.550000	25.242250
11.560000	25.242250
11.570000	25.242250
11.580000	25.242250
11.590000	25.242250
11.600000	25.242250
11.610000	25.242250
11.620000	25.242250
11.630000	25.242250
11.640000	25.242250
11.650000	25.242250
11.660000	25.242250
11.670000	25.242250
11.680000	25.242250
11.690000	25.242250
11.700000	25.242250
11.710000	25.242250
11.720000	25.242250
11.730000	25.242250
11.740000	25.242250
11.750000	25.242250
11.760000	25.242250
11.770000	25.242250
11.780000	25.242250
11.790000	25.242250
11.800000	25.242250
11.810000	25.242250
11.820000	25.242250
11.830000	25.242250
11.840000	25.242250
11.850000	25.242250
11.860000	25.242250
11.870000	25.242250
11.880000	25.242250
11.890000	25.242250
11.900000	25.242250
11.910000	25.242250
11.920000	25.242250
11.930000	25.242250
11.940000	25.242250
11.950000	25.242250
11.960000	25.242250
11.970000	25.242250
11.980000	25.242250
11.990000	25.242250
12.000000	25.241254
12.010000	25.241254
12.020000	25.241254
12.030000	25.241254
12.040000	25.241254
12.050000	25.241254
12.060000	25.241254
12.070000	25.241254
12.080000	25.241254
12.090000	25.241254
12.100000	25.241254
12.110000	25.241254
12.120000	25.241254
12.130000	25.241254
12.140000	25.241254
12.150000	25.241254
12.160000	25.241254
12.170000	25.241254
12.180000	25.241254
12.190000	25.241254
12.200000	25.241254
12.210000	25.241254
12.220000	25.241254
12.230000	25.241254
12.240000	25.241254
12.250000	25.241254
12.260000	25.241254
12.270000	25.241254
12.280000	25.241254
12.290000	25.241254
12.300000	25.241254
12.310000	25.241254
12.320000	25.241254
12.330000	25.241254
12.340000	25.241254
12.350000	25.241254
12.360000	25.241254
12.370000	25.241254
12.380000	25.241254
12.390000	25.241254
12.400000	25.241254
12.410000	25.241254
12.420000	25.241254
12.430000	25.241254
12.440000	25.241254
12.450000	25.241254
12.460000	25.241254
12.470000	25.241254
12.480000	25.241254
12.490000	25.241254
12.500000	25.240533
12.510000	25.240533
12.520000	25.240533
12.530000	25.240533
12.540000	25.240533
12.550000	25.240533
12.560000	25.240533
12.570000	25.240533
12.580000	25.240533
12.590000	25.240533
12.600000	25.240533
12.610000	25.240533
12.620000	25.240533
12.630000	25.240533
12.640000	25.240533
12.650000	25.240533
12.660000	25.240533
12.670000	25.240533
12.680000	25.240533
12.690000	25.240533
12.700000	25.240533
12.710000	25.240533
12.720000	25.240533
12.730000	25.240533
12.740000	25.240533
12.750000	25.240533
12.760000	25.240533
12.770000	25.240533
12.780000	25.240533
12.790000	25.240533
12.800000	25.240533
12.810000	25.240533
12.820000	25.240533
12.830000	25.240533
12.840000	25.240533
12.850000	25.240533
12.860000	25.240533
12.870000	25.240533
12.880000	25.240533
12.890000	25.240533
12.900000	25.240533
12.910000	25.240533
12.920000	25.240533
12.930000	25.240533
12.940000	25.240533
12.950000	25.240533
12.960000	25.240533
12.970000	25.240533
12.980000	25.240533
12.990000	25.240533
13.000000	25.239306
13.010000	25.239306
13.020000	25.239306
13.030000	25.239306
13.040000	25.239306
13.050000	25.239306
13.060000	25.239306
13.070000	25.239306
13.080000	25.239306
13.090000	25.239306
13.100000	25.239306
13.110000	25.239306
13.120000	25.239306
13.130000	25.239306
13.140000	25.239306
13.150000	25.239306
13.160000	25.239306
13.170000	25.239306
13.180000	25.239306
13.190000	25.239306
13.200000	25.239306
13.210000	25.239306
13.220000	25.239306
13.230000	25.239306
13.240000	25.239306
13.250000	25.239306
13.260000	25.239306
13.270000	25.239306
13.280000	25.239306
13.290000	25.239306
13.300000	25.239306
13.310000	25.239306
13.320000	25.239306
13.330000	25.239306
13.340000	25.239306
13.350000	25.239306
13.360000	25.239306
13.370000	25.239306
13.380000	25.239306
13.390000	25.239306
13.400000	25.239306
13.410000	25.239306
13.420000	25.239306
13.430000	25.239306
13.440000	25.239306
13.450000	25.239306
13.460000	25.239306
13.470000	25.239306
13.480000	25.239306
13.490000	25.239306
13.500000	25.237589
13.510000	25.237589
13.520000	25.237589
13.530000	25.237589
13.540000	25.237589
13.550000	25.237589
13.560000	25.237589
13.570000	25.237589
13.580000	25.237589
13.590000	25.237589
13.600000	25.237589
13.610000	25.237589
13.620000	25.237589
13.630000	25.237589
13.640000	25.237589
13.650000	25.237589
13.660000	25.237589
13.670000	25.237589
13.680000	25.237589
13.690000	25.237589
13.700000	25.237589
13.710000	25.237589
13.720000	25.237589
13.730000	25.237589
13.740000	25.237589
13.750000	25.237589
13.760000	25.237589
13.770000	25.237589
13.780000	25.237589
13.790000	25.237589
13.800000	25.237589
13.810000	25.237589
13.820000	25.237589
13.830000	25.237589
13.840000	25.237589
13.850000	25.237589
13.860000	25.237589
13.870000	25.237589
13.880000	25.237589
13.890000	25.237589
13.900000	25.237589
13.910000	25.237589
13.920000	25.237589
13.930000	25.237589
13.940000	25.237589
13.950000	25.237589
13.960000	25.237589
13.970000	25.237589
13.980000	25.237589
13.990000	25.237589
14.000000	25.235640
14.010000	25.235640
14.020000	25.235640
14.030000	25.235640
14.040000	25.235640
14.050000	25.235640
14.060000	25.235640
14.070000	25.235640
14.080000	25.235640
14.090000	25.235640
14.100000	25.235640
14.110000	25.235640
14.120000	25.235640
14.130000	25.235640
14.140000	25.235640
14.150000	25.235640
14.160000	25.235640
14.170000	25.235640
14.180000	25.235640
14.190000	25.235640
14.200000	25.235640
14.210000	25.235640
14.220000	25.235640
14.230000	25.235640
14.240000	25.235640
14.250000	25.235640
14.260000	25.235640
14.270000	25.235640
14.280000	25.235640
14.290000	25.235640
14.300000	25.235640
14.310000	25.235640
14.320000	25.235640
14.330000	25.235640
14.340000	25.235640
14.350000	25.235640
14.360000	25.235640
14.370000	25.235640
14.380000	25.235640
14.390000	25.235640
14.400000	25.235640
14.410000	25.235640
14.420000	25.235640
14.430000	25.235640
14.440000	25.235640
14.450000	25.235640
14.460000	25.235640
14.470000	25.235640
14.480000	25.235640
14.490000	25.235640
14.500000	25.233245
14.510000	25.233245
14.520000	25.233245
14.530000	25.233245
14.540000	25.233245
14.550000	25.233245
14.560000	25.233245
14.570000	25.233245
14.580000	25.233245
14.590000	25.233245
14.600000	25.233245
14.610000	25.233245
14.620000	25.233245
14.630000	25.233245
14.640000	25.233245
14.650000	25.233245
14.660000	25.233245
14.670000	25.233245
14.680000	25.233245
14.690000	25.233245
14.700000	25.233245
14.710000	25.233245
14.720000	25.233245
14.730000	25.233245
14.740000	25.233245
14.750000	25.233245
14.760000	25.233245
14.770000	25.233245
14.780000	25.233245
14.790000	25.233245
14.800000	25.233245
14.810000	25.233245
14.820000	25.233245
14.830000	25.233245
14.840000	25.233245
14.850000	25.233245
14.860000	25.233245
14.870000	25.233245
14.880000	25.233245
14.890000	25.233245
14.900000	25.233245
14.910000	25.233245
14.920000	25.233245
14.930000	25.233245
14.940000	25.233245
14.950000	25.233245
14.960000	25.233245
14.970000	25.233245
14.980000	25.233245
14.990000	25.233245
15.000000	25.230266
15.010000	25.230266
15.020000	25.230266
15.030000	25.230266
15.040000	25.230266
15.050000	25.230266
15.060000	25.230266
15.070000	25.230266
15.080000	25.230266
15.090000	25.230266
15.100000	25.230266
15.110000	25.230266
15.120000	25.230266
15.130000	25.230266
15.140000	25.230266
15.150000	25.230266
15.160000	25.230266
15.170000	25.230266
15.180000	25.230266
15.190000	25.230266
15.200000	25.230266
15.210000	25.230266
15.220000	25.230266
15.230000	25.230266
15.240000	25.230266
15.250000	25.230266
15.260000	25.230266
15.270000	25.230266
15.280000	25.230266
15.290000	25.230266
15.300000	25.230266
15.310000	25.230266
15.320000	25.230266
15.330000	25.230266
15.340000	25.230266
15.350000	25.230266
15.360000	25.230266
15.370000	25.230266
15.380000	25.230266
15.390000	25.230266
15.400000	25.230266
15.410000	25.230266
15.420000	25.230266
15.430000	25.230266
15.440000	25.230266
15.450000	25.230266
15.460000	25.230266
15.470000	25.230266
15.480000	25.230266
15.490000	25.230266
15.500000	25.227124
15.510000	25.227124
15.520000	25.227124
15.530000	25.227124
15.540000	25.227124
15.550000	25.227124
15.560000	25.227124
15.570000	25.227124
15.580000	25.227124
15.590000	25.227124
15.600000	25.227124
15.610000	25.227124
15.620000	25.227124
15.630000	25.227124
15.640000	25.227124
15.650000	25.227124
15.660000	25.227124
15.670000	25.227124
15.680000	25.227124
15.690000	25.227124
15.700000	25.227124
15.710000	25.227124
15.720000	25.227124
15.730000	25.227124
15.740000	25.227124
15.750000	25.227124
15.760000	25.227124
15.770000	25.227124
15.780000	25.227124
15.790000	25.227124
15.800000	25.227124
15.810000	25.227124
15.820000	25.227124
15.830000	25.227124
15.840000	25.227124
15.850000	25.227124
15.860000	25.227124
15.870000	25.227124
15.880000	25.227124
15.890000	25.227124
15.900000	25.227124
15.910000	25.227124
15.920000	25.227124
15.930000	25.227124
15.940000	25.227124
15.950000	25.227124
15.960000	25.227124
15.970000	25.227124
15.980000	25.227124
15.990000	25.227124
16.000000	25.223226
16.010000	25.223226
16.020000	25.223226
16.030000	25.223226
16.040000	25.223226
16.050000	25.223226
16.060000	25.223226
16.070000	25.223226
16.080000	25.223226
16.090000	25.223226
16.100000	25.223226
16.110000	25.223226
16.120000	25.223226
16.130000	25.223226
16.140000	25.223226
16.150000	25.223226
16.160000	25.223226
16.170000	25.223226
16.180000	25.223226
16.190000	25.223226
16.200000	25.223226
16.210000	25.223226
16.220000	25.223226
16.230000	25.223226
16.240000	25.223226
16.250000	25.223226
16.260000	25.223226
16.270000	25.223226
16.280000	25.223226
16.290000	25.223226
16.300000	25.223226
16.310000	25.223226
16.320000	25.223226
16.330000	25.223226
16.340000	25.223226
16.350000	25.223226
16.360000	25.223226
16.370000	25.223226
16.380000	25.223226
16.390000	25.223226
16.400000	25.223226
16.410000	25.223226
16.420000	25.223226
16.430000	25.223226
16.440000	25.223226
16.450000	25.223226
16.460000	25.223226
16.470000	25.223226
16.480000	25.223226
16.490000	25.223226
16.500000	25.219035
16.510000	25.219035
16.520000	25.219035
16.530000	25.219035
16.540000	25.219035
16.550000	25.219035
16.560000	25.219035
16.570000	25.219035
16.580000	25.219035
16.590000	25.219035
16.600000	25.219035
16.610000	25.219035
16.620000	25.219035
16.630000	25.219035
16.640000	25.219035
16.650000	25.219035
16.660000	25.219035
16.670000	25.219035
16.680000	25.219035
16.690000	25.219035
16.700000	25.219035
16.710000	25.219035
16.720000	25.219035
16.730000	25.219035
16.740000	25.219035
16.750000	25.219035
16.760000	25.219035
16.770000	25.219035
16.780000	25.219035
16.790000	25.219035
16.800000	25.219035
16.810000	25.219035
16.820000	25.219035
16.830000	25.219035
16.840000	25.219035
16.850000	25.219035
16.860000	25.219035
16.870000	25.219035
16.880000	25.219035
16.890000	25.219035
16.900000	25.219035
16.910000	25.219035
16.920000	25.219035
16.930000	25.219035
16.940000	25.219035
16.950000	25.219035
16.960000	25.219035
16.970000	25.219035
16.980000	25.219035
16.990000	25.219035
17.000000	25.214922
17.010000	25.214922
17.020000	25.214922
17.030000	25.214922
17.040000	25.214922
17.050000	25.214922
17.060000	25.214922
17.070000	25.214922
17.080000	25.214922
17.090000	25.214922
17.100000	25.214922
17.110000	25.214922
17.120000	25.214922
17.130000	25.214922
17.140000	25.214922
17.150000	25.214922
17.160000	25.214922
17.170000	25.214922
17.180000	25.214922
17.190000	25.214922
17.200000	25.214922
17.210000	25.214922
17.220000	25.214922
17.230000	25.214922
17.240000	25.214922
17.250000	25.214922
17.260000	25.214922
17.270000	25.214922
17.280000	25.214922
17.290000	25.214922
17.300000	25.214922
17.310000	25.214922
17.320000	25.214922
17.330000	25.214922
17.340000	25.214922
17.350000	25.214922
17.360000	25.214922
17.370000	25.214922
17.380000	25.214922
17.390000	25.214922
17.400000	25.214922
17.410000	25.214922
17.420000	25.214922
17.430000	25.214922
17.440000	25.214922
17.450000	25.214922
17.460000	25.214922
17.470000	25.214922
17.480000	25.214922
17.490000	25.214922
